O-16(n,tot) ENDF/B-VII.1
Energy(eV) XS(b)
1.00000E-05 3.85200
1.09310E-05 3.85190
1.19340E-05 3.85200
1.28700E-05 3.85200
1.38670E-05 3.85170
1.48080E-05 3.85210
1.58010E-05 3.85180
1.67440E-05 3.85230
1.77340E-05 3.85180
1.95890E-05 3.85230
2.00000E-05 3.85222
2.16010E-05 3.85190
2.34690E-05 3.85190
2.54690E-05 3.85200
2.73450E-05 3.85220
2.93360E-05 3.85200
3.12200E-05 3.85200
3.32030E-05 3.85210
3.50120E-05 3.85210
3.69020E-05 3.85210
3.88760E-05 3.85210
4.09370E-05 3.85210
4.46650E-05 3.85210
4.86720E-05 3.85200
5.00000E-05 3.85203
5.24200E-05 3.85210
5.64060E-05 3.85210
6.01700E-05 3.85200
6.41410E-05 3.85200
6.79160E-05 3.85200
7.18750E-05 3.85210
7.92950E-05 3.85210
8.73430E-05 3.85200
9.48150E-05 3.85210
0.000100000 3.85203
0.000102810 3.85200
0.000110320 3.85210
0.000118280 3.85210
0.000125820 3.85200
0.000133750 3.85200
0.000148550 3.85210
0.000164690 3.85200
0.000179600 3.85210
0.000195620 3.85200
0.000200000 3.85200
0.000210620 3.85200
0.000226560 3.85210
0.000241620 3.85210
0.000257500 3.85200
0.000271940 3.85200
0.000287050 3.85200
0.000319380 3.85200
0.000349170 3.85210
0.000381250 3.85200
0.000411220 3.85200
0.000443130 3.85210
0.000473220 3.85210
0.000500000 3.85210
0.000505000 3.85210
0.000564050 3.85200
0.000595670 3.85210
0.000628750 3.85210
0.000688310 3.85200
0.000752500 3.85200
0.000812410 3.85210
0.000876250 3.85200
0.000936420 3.85200
0.00100000 3.85200
0.00109150 3.85200
0.00118980 3.85200
0.00128180 3.85210
0.00137970 3.85200
0.00147210 3.85200
0.00156950 3.85210
0.00175940 3.85200
0.00194150 3.85200
0.00200000 3.85200
0.00213910 3.85200
0.00232250 3.85200
0.00251880 3.85200
0.00270300 3.85210
0.00308340 3.85200
0.00327810 3.85200
0.00364130 3.85200
0.00403750 3.85200
0.00440360 3.85200
0.00479690 3.85200
0.00500000 3.85200
0.00555630 3.85200
0.00631560 3.85200
0.00780360 3.85200
0.00932740 3.85200
0.0100000 3.85200
0.0116310 3.85200
0.0131500 3.85200
0.0161880 3.85200
0.0192250 3.85200
0.0200000 3.85200
0.0237410 3.85200
0.0253000 3.85200
0.0275600 3.85200
0.0346700 3.85200
0.0393550 3.85200
0.0485370 3.85200
0.0500000 3.85200
0.0579380 3.85200
0.0721510 3.85200
0.0860755 3.85200
0.100000 3.85200
0.100260 3.85200
0.119000 3.85200
0.146870 3.85200
0.165630 3.85200
0.200000 3.85200
0.212710 3.85200
0.250190 3.85200
0.305930 3.85200
0.371090 3.85200
0.436250 3.85200
0.500000 3.85200
0.511410 3.85200
0.625000 3.85200
0.746990 3.85200
0.928310 3.85200
1.00000 3.85200
1.05050 3.85200
1.35690 3.85200
1.60090 3.85200
1.96380 3.85200
2.00000 3.85200
2.20300 3.85200
2.81200 3.85200
3.79030 3.85200
4.52880 3.85200
5.00000 3.85200
5.97610 3.85200
6.95440 3.85200
8.43250 3.85200
10.0000 3.85200
10.3840 3.85200
12.3360 3.85200
14.2880 3.85200
18.1040 3.85200
20.0000 3.85200
20.1440 3.85200
21.7920 3.85200
27.9510 3.85200
31.6228 3.85200
31.8550 3.85200
39.6630 3.85200
42.5830 3.85196
47.4700 3.85190
50.0000 3.85190
63.0850 3.85190
63.3750 3.85190
70.7107 3.85190
78.7010 3.85190
84.1670 3.85187
94.3160 3.85180
100.000 3.85180
104.960 3.85180
109.930 3.85180
125.550 3.85180
125.750 3.85180
141.421 3.85175
146.540 3.85173
156.780 3.85170
167.330 3.85167
188.010 3.85160
188.120 3.85160
200.000 3.85160
208.920 3.85160
219.240 3.85160
229.710 3.85157
250.470 3.85150
250.500 3.85150
271.290 3.85147
292.080 3.85144
312.880 3.85140
312.930 3.85140
316.228 3.85139
333.670 3.85134
354.460 3.85127
375.250 3.85120
375.390 3.85120
396.040 3.85115
397.636 3.85115
416.830 3.85110
437.620 3.85105
458.420 3.85100
479.210 3.85095
500.000 3.85090
500.310 3.85090
625.230 3.85070
707.107 3.85051
750.160 3.85040
875.080 3.85010
1000.00 3.84980
1250.00 3.84930
1414.21 3.84891
1500.00 3.84870
2000.00 3.84761
2429.20 3.84666
2500.00 3.84651
3000.00 3.84541
3162.28 3.84505
3858.40 3.84352
4000.00 3.84321
5000.00 3.84101
5287.60 3.84037
6250.00 3.83821
6716.70 3.83720
7071.07 3.83644
7500.00 3.83551
8145.90 3.83406
8750.00 3.83271
9575.10 3.83093
10000.0 3.83001
11004.0 3.82780
12433.0 3.82466
12500.0 3.82451
13863.0 3.82157
14142.1 3.82097
15000.0 3.81911
15292.0 3.81848
16721.0 3.81536
18150.0 3.81225
19579.0 3.80914
20000.0 3.80822
21009.0 3.80604
22438.0 3.80295
23867.0 3.79987
25000.0 3.79742
25296.0 3.79679
26725.0 3.79373
28155.0 3.79067
29584.0 3.78761
30000.0 3.78672
31013.0 3.78456
32442.0 3.78152
33871.0 3.77848
35300.0 3.77543
36730.0 3.77239
38159.0 3.76934
39588.0 3.76630
40000.0 3.76542
41017.0 3.76328
42446.0 3.76026
43876.0 3.75725
45305.0 3.75423
46734.0 3.75122
48163.0 3.74820
49592.0 3.74519
50000.0 3.74433
51021.0 3.74221
52451.0 3.73925
53880.0 3.73629
55309.0 3.73333
56738.0 3.73037
58167.0 3.72741
59597.0 3.72444
61026.0 3.72148
62455.0 3.71852
62500.0 3.71843
63884.0 3.71562
65313.0 3.71271
66742.0 3.70981
68171.9 3.70691
69600.9 3.70400
71029.9 3.70110
72458.9 3.69820
73888.0 3.69529
74999.9 3.69303
75000.0 3.69303
75317.9 3.69240
76746.9 3.68955
78175.9 3.68671
79604.9 3.68386
81033.9 3.68101
82464.0 3.67817
83893.0 3.67532
85322.0 3.67247
86751.0 3.66963
87500.0 3.66814
88179.9 3.66681
89608.9 3.66402
91039.0 3.66123
92468.0 3.65844
93897.0 3.65565
95326.0 3.65286
96755.0 3.65007
98184.9 3.64728
99613.9 3.64449
100000 3.64374
101040 3.64178
102470 3.63909
103900 3.63641
105330 3.63372
106760 3.63103
108190 3.62834
109620 3.62565
111050 3.62297
112480 3.62028
113910 3.61759
115330 3.61492
116760 3.61223
118190 3.60954
119620 3.60686
121050 3.60417
122480 3.60148
123910 3.59879
125000 3.59674
125340 3.59614
126770 3.59362
128200 3.59110
129630 3.58858
131060 3.58605
132480 3.58355
133910 3.58103
135340 3.57850
136770 3.57598
138200 3.57346
139630 3.57094
141060 3.56841
142490 3.56589
143920 3.56337
145350 3.56085
146780 3.55833
148210 3.55580
149640 3.55328
150000 3.55265
151060 3.55093
152490 3.54862
153920 3.54631
155350 3.54400
156780 3.54169
158210 3.53938
159640 3.53707
161070 3.53476
162500 3.53245
163930 3.53014
165360 3.52783
166790 3.52552
168210 3.52322
169640 3.52091
171070 3.51860
172500 3.51629
173930 3.51398
175000 3.51225
175360 3.51175
176790 3.50974
178220 3.50773
179650 3.50572
181080 3.50372
182510 3.50171
183940 3.49970
185360 3.49771
186790 3.49570
188220 3.49369
189650 3.49168
191080 3.48968
192510 3.48767
193940 3.48566
195370 3.48365
196800 3.48165
198230 3.47964
199660 3.47763
200000 3.47715
201090 3.47591
202520 3.47427
203940 3.47264
205370 3.47101
206800 3.46937
208230 3.46773
209660 3.46609
211090 3.46446
212520 3.46282
213950 3.46118
215380 3.45955
216810 3.45791
218240 3.45627
219670 3.45464
220000 3.45426
221090 3.45337
222520 3.45220
223950 3.45104
225380 3.44987
226810 3.44871
228240 3.44754
229670 3.44638
231100 3.44521
232530 3.44405
233960 3.44288
235390 3.44172
236820 3.44055
238240 3.43939
239670 3.43823
240000 3.43796
241100 3.43760
242530 3.43714
243960 3.43667
245390 3.43621
246820 3.43575
248250 3.43528
249680 3.43482
251110 3.43435
252540 3.43389
253970 3.43342
255390 3.43296
256820 3.43250
258250 3.43203
259680 3.43157
260000 3.43147
261110 3.43194
262540 3.43255
263970 3.43315
265400 3.43376
266830 3.43437
268260 3.43498
269690 3.43559
271120 3.43619
272550 3.43680
273970 3.43741
275400 3.43801
276830 3.43862
278260 3.43923
279690 3.43984
280000 3.43997
281120 3.44182
282550 3.44418
283980 3.44654
285410 3.44890
286840 3.45126
288270 3.45362
289700 3.45598
291120 3.45832
292550 3.46068
293980 3.46304
295410 3.46540
296840 3.46776
298270 3.47012
299700 3.47248
300000 3.47298
301130 3.47646
302560 3.48086
303990 3.48527
305420 3.48967
306850 3.49408
308270 3.49845
309700 3.50286
310000 3.50378
311130 3.50887
312560 3.51530
313990 3.52174
315420 3.52817
316850 3.53461
318280 3.54105
319710 3.54748
320000 3.54879
321140 3.55614
322570 3.56536
324000 3.57459
325420 3.58375
326850 3.59297
328280 3.60220
329710 3.61142
330000 3.61329
331140 3.62383
332570 3.63704
334000 3.65026
335430 3.66347
336860 3.67668
338290 3.68990
339720 3.70311
340000 3.70570
341150 3.72105
342580 3.74015
344000 3.75910
345430 3.77820
346860 3.79729
348290 3.81638
349720 3.83547
350000 3.83921
351150 3.86175
352580 3.88978
354010 3.91781
355440 3.94584
356870 3.97387
358300 4.00190
359730 4.02993
360000 4.03523
361150 4.06915
362580 4.11134
364010 4.15353
365440 4.19572
366870 4.23790
368300 4.28009
369730 4.32228
370000 4.33025
371160 4.38349
372590 4.44913
374020 4.51477
375450 4.58042
376880 4.64606
378300 4.71124
379730 4.77688
380000 4.78928
381160 4.87563
382590 4.98209
384020 5.08854
385450 5.19500
386880 5.30146
388310 5.40791
389740 5.51437
390000 5.53373
391170 5.68120
392600 5.86145
394030 6.04169
395450 6.22068
396880 6.40093
398310 6.58118
399740 6.76143
400000 6.79421
401170 7.01516
402600 7.28522
404030 7.55528
405000 7.73847
405460 7.85257
406890 8.20729
408320 8.56201
409750 8.91673
410000 8.97874
411180 9.35393
412610 9.80861
414030 10.2601
415000 10.5685
415460 10.7446
416890 11.2921
418320 11.8395
419750 12.3869
420000 12.4827
421180 12.9568
422610 13.5314
424040 14.1060
425000 14.4918
425470 14.6395
426900 15.0892
428330 15.5388
429760 15.9884
430000 16.0638
431180 16.1807
432610 16.3222
434040 16.4638
435000 16.5588
435470 16.4842
436900 16.2571
438330 16.0300
439760 15.8029
440000 15.7648
441190 15.3697
442620 14.8949
444050 14.4201
445000 14.1047
445480 13.9224
446910 13.3792
448330 12.8399
449760 12.2967
450000 12.2056
451190 11.7926
452620 11.2964
454050 10.8001
455000 10.4705
455480 10.3331
456910 9.92386
458340 9.51463
459770 9.10540
460000 9.03958
461200 8.76848
462630 8.44543
464060 8.12238
465000 7.91002
465480 7.82566
466910 7.57434
468340 7.32302
469770 7.07170
470000 7.03128
471200 6.86706
472630 6.67137
474060 6.47568
475000 6.34704
475490 6.29441
476920 6.14082
478350 5.98723
479780 5.83364
480000 5.81001
481210 5.70684
482640 5.58492
484060 5.46384
485000 5.38369
485490 5.35011
486920 5.25213
488350 5.15414
489780 5.05615
490000 5.04107
491210 4.97358
492640 4.89381
494070 4.81404
495000 4.76216
495500 4.73918
496930 4.67345
498360 4.60773
500000 4.53235
510000 4.17925
520000 3.92355
530000 3.73155
540000 3.58265
550000 3.46394
560000 3.36724
570000 3.28664
580000 3.21834
590000 3.15954
600000 3.10824
620000 3.02254
640000 2.95334
660000 2.89593
680000 2.84783
700000 2.80733
720000 2.77393
740000 2.74763
760000 2.72912
780000 2.72002
800000 2.72312
820000 2.74312
840000 2.78782
860000 2.87061
880000 3.01501
900000 3.26411
910000 3.45071
920000 3.69771
930000 4.02531
940000 4.45811
950000 5.02121
960000 5.72730
970000 6.50809
980000 7.36420
990000 7.97000
1.00000E+06 8.15410
1.01000E+06 7.87040
1.02000E+06 7.26750
1.03000E+06 6.55140
1.04000E+06 5.86540
1.05000E+06 5.27130
1.06000E+06 4.78060
1.07000E+06 4.38290
1.08000E+06 4.06170
1.09000E+06 3.80140
1.10000E+06 3.58870
1.11000E+06 3.41394
1.12000E+06 3.26770
1.13000E+06 3.14505
1.14000E+06 3.04220
1.15000E+06 2.95481
1.16000E+06 2.88010
1.17000E+06 2.81738
1.18000E+06 2.76440
1.19000E+06 2.72201
1.20000E+06 2.68870
1.21000E+06 2.66693
1.22000E+06 2.65800
1.23000E+06 2.66750
1.24000E+06 2.69870
1.25000E+06 2.76830
1.26000E+06 2.89890
1.27000E+06 3.13690
1.28000E+06 3.57270
1.28500E+06 3.91250
1.29000E+06 4.36600
1.29500E+06 4.94770
1.30000E+06 5.62890
1.30500E+06 6.28700
1.31000E+06 6.69970
1.31500E+06 6.68210
1.32000E+06 6.26630
1.32500E+06 5.65570
1.33000E+06 5.03810
1.34000E+06 4.07290
1.35000E+06 3.46770
1.36000E+06 3.09050
1.37000E+06 2.84420
1.38000E+06 2.67430
1.39000E+06 2.55100
1.40000E+06 2.45740
1.45000E+06 2.19420
1.50000E+06 2.05700
1.55000E+06 1.96140
1.60000E+06 1.89030
1.62000E+06 1.88040
1.63000E+06 1.90250
1.64000E+06 2.06840
1.64200E+06 2.18770
1.64300E+06 2.28350
1.64400E+06 2.42200
1.64500E+06 2.63070
1.64600E+06 2.96160
1.64700E+06 3.51760
1.64800E+06 4.50060
1.64850E+06 5.25020
1.64900E+06 6.21380
1.64950E+06 7.33930
1.65000E+06 8.38900
1.65050E+06 8.92830
1.65100E+06 8.64650
1.65150E+06 7.71510
1.65200E+06 6.57930
1.65300E+06 4.73340
1.65400E+06 3.64940
1.65500E+06 3.03690
1.65600E+06 2.67380
1.65700E+06 2.44540
1.65800E+06 2.29380
1.65900E+06 2.18860
1.66000E+06 2.11260
1.66500E+06 1.92920
1.67000E+06 1.86120
1.67500E+06 1.82650
1.68000E+06 1.80460
1.68200E+06 1.79721
1.68400E+06 1.79147
1.68500E+06 1.78890
1.68600E+06 1.80712
1.68700E+06 1.85489
1.68800E+06 1.91402
1.68900E+06 1.96450
1.69000E+06 1.98440
1.69100E+06 1.95897
1.69200E+06 1.90346
1.69400E+06 1.78806
1.69500E+06 1.76560
1.69600E+06 1.76356
1.69800E+06 1.75961
1.70000E+06 1.75600
1.72000E+06 1.72290
1.74000E+06 1.69240
1.76000E+06 1.66070
1.78000E+06 1.62480
1.80000E+06 1.57930
1.82000E+06 1.56980
1.82200E+06 1.60570
1.82400E+06 1.68330
1.82600E+06 1.85310
1.82800E+06 2.23940
1.83000E+06 3.09650
1.83100E+06 3.74640
1.83200E+06 4.38700
1.83300E+06 4.73660
1.83400E+06 4.65680
1.83500E+06 4.29640
1.83600E+06 3.86860
1.83700E+06 3.48570
1.83800E+06 3.17640
1.83900E+06 2.93470
1.84000E+06 2.74670
1.84200E+06 2.48280
1.84400E+06 2.31280
1.84600E+06 2.19760
1.84800E+06 2.11630
1.85000E+06 2.05690
1.85200E+06 2.01270
1.85400E+06 1.97930
1.85600E+06 1.95400
1.85800E+06 1.93520
1.86000E+06 1.92160
1.86500E+06 1.90660
1.87000E+06 1.91620
1.87500E+06 1.95330
1.88000E+06 2.02840
1.88500E+06 2.16160
1.89000E+06 2.38320
1.89500E+06 2.71290
1.90000E+06 3.06610
1.90500E+06 3.18240
1.91000E+06 2.95940
1.91500E+06 2.62490
1.92000E+06 2.34770
1.92500E+06 2.15180
1.93000E+06 2.01680
1.93500E+06 1.92180
1.94000E+06 1.85280
1.95000E+06 1.76030
1.96000E+06 1.70130
1.97000E+06 1.65950
1.98000E+06 1.62760
1.99000E+06 1.60170
2.00000E+06 1.57960
2.05000E+06 1.49520
2.10000E+06 1.42210
2.15000E+06 1.33900
2.20000E+06 1.22060
2.22000E+06 1.15220
2.24000E+06 1.06250
2.26000E+06 0.941540
2.28000E+06 0.777350
2.30000E+06 0.563360
2.30500E+06 0.503600
2.31000E+06 0.442760
2.31500E+06 0.382060
2.32000E+06 0.323040
2.32100E+06 0.311600
2.32200E+06 0.300310
2.32300E+06 0.289200
2.32400E+06 0.278280
2.32500E+06 0.267560
2.32600E+06 0.257060
2.32700E+06 0.246810
2.32800E+06 0.236810
2.32900E+06 0.227080
2.33000E+06 0.217640
2.33100E+06 0.208510
2.33200E+06 0.199710
2.33300E+06 0.191240
2.33400E+06 0.183130
2.33500E+06 0.175390
2.33600E+06 0.168030
2.33700E+06 0.161070
2.33800E+06 0.154520
2.33900E+06 0.148400
2.34000E+06 0.142710
2.34100E+06 0.137470
2.34200E+06 0.132690
2.34300E+06 0.128380
2.34400E+06 0.124530
2.34500E+06 0.121170
2.34600E+06 0.118300
2.34700E+06 0.115920
2.34800E+06 0.114030
2.34900E+06 0.112630
2.35000E+06 0.111740
2.35100E+06 0.111340
2.35200E+06 0.111430
2.35300E+06 0.112020
2.35400E+06 0.113100
2.35417E+06 0.113325
2.35500E+06 0.114650
2.35532E+06 0.115258
2.35532E+06 0.115260
2.35536E+06 0.115336
2.35700E+06 0.119190
2.35800E+06 0.122160
2.35900E+06 0.125580
2.36000E+06 0.129430
2.36100E+06 0.133720
2.36200E+06 0.138430
2.36300E+06 0.143540
2.36400E+06 0.149040
2.36500E+06 0.154920
2.36600E+06 0.161160
2.36700E+06 0.167750
2.36800E+06 0.174670
2.37000E+06 0.189440
2.37500E+06 0.231070
2.38000E+06 0.277770
2.39000E+06 0.378980
2.40000E+06 0.480800
2.41000E+06 0.575600
2.42000E+06 0.659780
2.43000E+06 0.732380
2.43500E+06 0.763145
2.43750E+06 0.778528
2.44000E+06 0.793910
2.44125E+06 0.800364
2.44250E+06 0.806818
2.44375E+06 0.813271
2.44500E+06 0.819725
2.44625E+06 0.826179
2.44750E+06 0.832633
2.44875E+06 0.839086
2.45000E+06 0.845540
2.45125E+06 0.850926
2.45250E+06 0.856313
2.45375E+06 0.861699
2.45500E+06 0.867085
2.45625E+06 0.872471
2.45750E+06 0.877858
2.45875E+06 0.883244
2.46000E+06 0.888630
2.46125E+06 0.893116
2.46250E+06 0.897603
2.46375E+06 0.902089
2.46500E+06 0.906575
2.46625E+06 0.911061
2.46750E+06 0.915548
2.46875E+06 0.920034
2.47000E+06 0.924520
2.47125E+06 0.928251
2.47250E+06 0.931983
2.47375E+06 0.935714
2.47500E+06 0.939445
2.47625E+06 0.943176
2.47750E+06 0.946908
2.47875E+06 0.950639
2.48000E+06 0.954370
2.48125E+06 0.957476
2.48250E+06 0.960583
2.48375E+06 0.963689
2.48500E+06 0.966795
2.48625E+06 0.969901
2.48750E+06 0.973008
2.48875E+06 0.976114
2.49000E+06 0.979220
2.49125E+06 0.981806
2.49250E+06 0.984393
2.49375E+06 0.986979
2.49500E+06 0.989565
2.49625E+06 0.992151
2.49750E+06 0.994738
2.49875E+06 0.997324
2.50000E+06 0.999910
2.50500E+06 1.00781
2.51000E+06 1.01571
2.51500E+06 1.02360
2.52000E+06 1.03150
2.52500E+06 1.03698
2.53000E+06 1.04245
2.53500E+06 1.04793
2.54000E+06 1.05340
2.54500E+06 1.05718
2.55000E+06 1.06095
2.55500E+06 1.06473
2.56000E+06 1.06850
2.56500E+06 1.07105
2.57000E+06 1.07360
2.57500E+06 1.07615
2.58000E+06 1.07870
2.58500E+06 1.08038
2.59000E+06 1.08205
2.59500E+06 1.08373
2.60000E+06 1.08540
2.60625E+06 1.08630
2.61250E+06 1.08720
2.61875E+06 1.08810
2.62500E+06 1.08900
2.63125E+06 1.08990
2.63750E+06 1.09080
2.64375E+06 1.09170
2.65000E+06 1.09260
2.65625E+06 1.09264
2.66250E+06 1.09268
2.66875E+06 1.09271
2.67500E+06 1.09275
2.68125E+06 1.09279
2.68750E+06 1.09283
2.69375E+06 1.09286
2.70000E+06 1.09290
2.71250E+06 1.09250
2.72500E+06 1.09210
2.73750E+06 1.09170
2.75000E+06 1.09130
2.76250E+06 1.09148
2.77500E+06 1.09165
2.78750E+06 1.09183
2.80000E+06 1.09200
2.81250E+06 1.09415
2.82500E+06 1.09630
2.83750E+06 1.09845
2.85000E+06 1.10060
2.86000E+06 1.10490
2.87000E+06 1.11220
2.88000E+06 1.13080
2.88200E+06 1.14010
2.88400E+06 1.15660
2.88600E+06 1.19530
2.88700E+06 1.24430
2.88800E+06 1.39190
2.88820E+06 1.46300
2.88840E+06 1.57440
2.88850E+06 1.65590
2.88860E+06 1.76540
2.88870E+06 1.91630
2.88880E+06 2.12800
2.88890E+06 2.42070
2.88900E+06 2.77490
2.88910E+06 3.00110
2.88920E+06 2.73760
2.88930E+06 2.09540
2.88940E+06 1.56330
2.88950E+06 1.26100
2.88960E+06 1.10710
2.88970E+06 1.03030
2.88980E+06 0.992250
2.89000E+06 0.966660
2.89050E+06 0.977340
2.89100E+06 0.998610
2.89200E+06 1.02840
2.89400E+06 1.05750
2.89600E+06 1.07160
2.89800E+06 1.08010
2.90000E+06 1.08590
2.91250E+06 1.09870
2.92500E+06 1.11150
2.93750E+06 1.12430
2.95000E+06 1.13710
2.97500E+06 1.17185
3.00000E+06 1.20660
3.00500E+06 1.22970
3.00550E+06 1.23720
3.00600E+06 1.25110
3.00610E+06 1.25560
3.00620E+06 1.26100
3.00630E+06 1.26790
3.00640E+06 1.27690
3.00650E+06 1.28900
3.00660E+06 1.30640
3.00670E+06 1.33340
3.00680E+06 1.38050
3.00690E+06 1.47980
3.00700E+06 1.78270
3.00710E+06 3.06400
3.00720E+06 1.31260
3.00730E+06 1.12850
3.00740E+06 1.12810
3.00750E+06 1.13960
3.00760E+06 1.15010
3.00770E+06 1.15850
3.00780E+06 1.16520
3.00790E+06 1.17060
3.00800E+06 1.17510
3.00820E+06 1.18200
3.00840E+06 1.18710
3.00860E+06 1.19100
3.00880E+06 1.19420
3.00900E+06 1.19680
3.01000E+06 1.20550
3.01500E+06 1.22381
3.02000E+06 1.23621
3.04000E+06 1.28701
3.05000E+06 1.31631
3.06000E+06 1.34911
3.08000E+06 1.42702
3.10000E+06 1.52423
3.12000E+06 1.64415
3.14000E+06 1.78977
3.16000E+06 1.96249
3.17000E+06 2.05841
3.18000E+06 2.16043
3.19000E+06 2.26806
3.20000E+06 2.38611
3.20100E+06 2.39962
3.20200E+06 2.41394
3.20300E+06 2.42945
3.20400E+06 2.44688
3.20500E+06 2.46711
3.20600E+06 2.49256
3.20700E+06 2.52725
3.20800E+06 2.58221
3.20900E+06 2.68718
3.21000E+06 2.95410
3.21050E+06 3.27601
3.21100E+06 3.93384
3.21110E+06 4.12569
3.21120E+06 4.33649
3.21130E+06 4.55951
3.21140E+06 4.78204
3.21150E+06 4.98447
3.21160E+06 5.14232
3.21170E+06 5.23181
3.21180E+06 5.23694
3.21190E+06 5.15664
3.21200E+06 5.00483
3.21220E+06 4.58203
3.21240E+06 4.14279
3.21260E+06 3.77505
3.21280E+06 3.49379
3.21300E+06 3.28520
3.21320E+06 3.13128
3.21340E+06 3.01669
3.21360E+06 2.93044
3.21380E+06 2.86442
3.21400E+06 2.81332
3.21420E+06 2.77324
3.21440E+06 2.74137
3.21460E+06 2.71581
3.21480E+06 2.69506
3.21500E+06 2.67822
3.21600E+06 2.62928
3.21700E+06 2.61041
3.21800E+06 2.60446
3.21900E+06 2.60474
3.22000E+06 2.60862
3.22200E+06 2.62190
3.22400E+06 2.63859
3.22600E+06 2.65689
3.22800E+06 2.67589
3.23000E+06 2.69509
3.23500E+06 2.74350
3.24000E+06 2.79072
3.24500E+06 2.83643
3.25000E+06 2.87995
3.25500E+06 2.92097
3.26000E+06 2.95929
3.26500E+06 2.99481
3.27000E+06 3.02733
3.27500E+06 3.05665
3.28000E+06 3.08307
3.28500E+06 3.10629
3.29000E+06 3.12632
3.29500E+06 3.14344
3.30000E+06 3.15766
3.30500E+06 3.16898
3.31000E+06 3.17780
3.31200E+06 3.18061
3.31400E+06 3.18302
3.31600E+06 3.18513
3.31800E+06 3.18684
3.32000E+06 3.18805
3.32200E+06 3.18906
3.32400E+06 3.18967
3.32600E+06 3.19007
3.32800E+06 3.19008
3.33000E+06 3.18989
3.33200E+06 3.18940
3.33400E+06 3.18861
3.33600E+06 3.18752
3.33800E+06 3.18623
3.34000E+06 3.18473
3.34500E+06 3.18016
3.35000E+06 3.17438
3.35500E+06 3.16750
3.36000E+06 3.15982
3.37000E+06 3.14266
3.38000E+06 3.12389
3.39000E+06 3.10433
3.40000E+06 3.08857
3.40050E+06 3.08787
3.41000E+06 3.07570
3.42000E+06 3.06345
3.43000E+06 3.05252
3.43500E+06 3.05416
3.43600E+06 3.05756
3.43700E+06 3.06465
3.43750E+06 3.07157
3.43800E+06 3.08557
3.43850E+06 3.13873
3.43900E+06 3.94651
3.43950E+06 4.02759
3.44000E+06 3.59829
3.44050E+06 3.72762
3.44100E+06 4.21980
3.44150E+06 5.27368
3.44160E+06 5.47474
3.44170E+06 5.60499
3.44180E+06 5.63362
3.44190E+06 5.55189
3.44200E+06 5.37796
3.44250E+06 4.23916
3.44300E+06 3.64070
3.44350E+06 3.38417
3.44400E+06 3.26031
3.44450E+06 3.19254
3.44500E+06 3.15157
3.45000E+06 3.05457
3.45500E+06 3.03832
3.46000E+06 3.03042
3.46500E+06 3.02522
3.47000E+06 3.02133
3.47500E+06 3.01825
3.48000E+06 3.01586
3.49000E+06 3.01319
3.50000E+06 3.01253
3.51000E+06 3.01397
3.52000E+06 3.01711
3.53000E+06 3.02185
3.54000E+06 3.02789
3.55000E+06 3.03484
3.56000E+06 3.04269
3.57000E+06 3.05074
3.58000E+06 3.05870
3.59000E+06 3.06625
3.60000E+06 3.07292
3.61000E+06 3.07829
3.62000E+06 3.08186
3.63000E+06 3.08334
3.64000E+06 3.08243
3.64200E+06 3.08186
3.64400E+06 3.08129
3.64500E+06 3.08096
3.64520E+06 3.08089
3.64540E+06 3.08094
3.64560E+06 3.08094
3.64580E+06 3.08105
3.64600E+06 3.08158
3.64620E+06 3.08493
3.64640E+06 3.09819
3.64660E+06 3.08270
3.64680E+06 3.08096
3.64700E+06 3.08036
3.64720E+06 3.08021
3.64740E+06 3.08004
3.64760E+06 3.07990
3.64780E+06 3.07987
3.64800E+06 3.07966
3.64900E+06 3.07913
3.65000E+06 3.07863
3.65100E+06 3.07814
3.65200E+06 3.07755
3.65300E+06 3.07696
3.65400E+06 3.07636
3.65500E+06 3.07577
3.66000E+06 3.07203
3.66500E+06 3.06758
3.67000E+06 3.06244
3.67500E+06 3.05660
3.68000E+06 3.05006
3.68500E+06 3.04292
3.69000E+06 3.03529
3.69500E+06 3.02736
3.70000E+06 3.01934
3.71000E+06 3.00410
3.72000E+06 2.99428
3.73000E+06 3.00238
3.74000E+06 3.06963
3.74500E+06 3.16967
3.75000E+06 3.39917
3.75500E+06 3.98257
3.76000E+06 5.34393
3.76100E+06 5.63405
3.76200E+06 5.83334
3.76300E+06 5.89009
3.76400E+06 5.78729
3.76500E+06 5.55346
3.76600E+06 5.24400
3.76700E+06 4.91393
3.76800E+06 4.60037
3.76900E+06 4.32191
3.77000E+06 4.08367
3.77200E+06 3.71703
3.77400E+06 3.46291
3.77600E+06 3.28443
3.77800E+06 3.15525
3.78000E+06 3.05919
3.78500E+06 2.90202
3.79000E+06 2.80668
3.79500E+06 2.74066
3.80000E+06 2.69006
3.81000E+06 2.61229
3.82000E+06 2.55018
3.83000E+06 2.49592
3.84000E+06 2.44684
3.85000E+06 2.40183
3.86000E+06 2.36040
3.87000E+06 2.32226
3.88000E+06 2.28772
3.89000E+06 2.25660
3.90000E+06 2.22921
3.92000E+06 2.18498
3.94000E+06 2.15377
3.96000E+06 2.13076
3.98000E+06 2.10463
4.00000E+06 2.07468
4.01000E+06 2.02187
4.02000E+06 1.93955
4.03000E+06 1.81913
4.04000E+06 1.66218
4.05000E+06 1.49078
4.06000E+06 1.34215
4.07000E+06 1.24150
4.08000E+06 1.18658
4.09000E+06 1.16194
4.10000E+06 1.15455
4.11000E+06 1.16069
4.12000E+06 1.18669
4.13000E+06 1.24726
4.14000E+06 1.36263
4.15000E+06 1.54789
4.16000E+06 1.78728
4.16500E+06 1.90942
4.17000E+06 2.01959
4.17500E+06 2.10902
4.18000E+06 2.17210
4.18500E+06 2.20740
4.19000E+06 2.21710
4.19500E+06 2.20513
4.20000E+06 2.17656
4.20500E+06 2.13579
4.21000E+06 2.08663
4.21500E+06 2.03212
4.22000E+06 1.97415
4.22500E+06 1.91448
4.23000E+06 1.85403
4.23500E+06 1.79333
4.24000E+06 1.73301
4.24500E+06 1.67327
4.25000E+06 1.61454
4.25500E+06 1.55745
4.26000E+06 1.50325
4.26500E+06 1.45412
4.27000E+06 1.41419
4.27500E+06 1.39138
4.28000E+06 1.39934
4.28500E+06 1.45952
4.29000E+06 1.59644
4.29500E+06 1.81877
4.30000E+06 2.09961
4.30500E+06 2.38703
4.31000E+06 2.63739
4.31500E+06 2.82794
4.32000E+06 2.94966
4.32100E+06 2.96565
4.32200E+06 2.97903
4.32300E+06 2.98970
4.32400E+06 2.99788
4.32500E+06 3.00357
4.32600E+06 3.00708
4.32700E+06 3.00832
4.32800E+06 3.00741
4.32900E+06 3.00465
4.33000E+06 3.00005
4.33500E+06 2.95464
4.34000E+06 2.88353
4.34500E+06 2.79942
4.35000E+06 2.71134
4.35500E+06 2.62462
4.36000E+06 2.54220
4.37000E+06 2.39442
4.38000E+06 2.27013
4.39000E+06 2.16641
4.40000E+06 2.07996
4.41000E+06 2.00821
4.42000E+06 1.94984
4.43000E+06 1.90488
4.44000E+06 1.87661
4.44500E+06 1.87109
4.45000E+06 1.87313
4.45500E+06 1.88297
4.46000E+06 1.88605
4.46200E+06 1.86969
4.46400E+06 1.82491
4.46600E+06 1.73421
4.46800E+06 1.59627
4.47000E+06 1.44876
4.47200E+06 1.34217
4.47500E+06 1.28117
4.48000E+06 1.29620
4.48500E+06 1.32640
4.49000E+06 1.34431
4.49500E+06 1.35096
4.50000E+06 1.34960
4.50500E+06 1.34281
4.51000E+06 1.33242
4.51500E+06 1.32096
4.52000E+06 1.31757
4.52100E+06 1.32043
4.52200E+06 1.32552
4.52300E+06 1.33434
4.52400E+06 1.34834
4.52500E+06 1.37013
4.52600E+06 1.40372
4.52700E+06 1.45534
4.52800E+06 1.53501
4.52900E+06 1.65742
4.53000E+06 1.84257
4.53100E+06 2.10933
4.53200E+06 2.44906
4.53300E+06 2.78275
4.53400E+06 2.97288
4.53500E+06 2.95146
4.53600E+06 2.78504
4.53700E+06 2.57488
4.53800E+06 2.37964
4.53900E+06 2.21716
4.54000E+06 2.08685
4.54500E+06 1.73511
4.55000E+06 1.59268
4.55500E+06 1.51736
4.56000E+06 1.46961
4.56500E+06 1.43567
4.57000E+06 1.40953
4.57500E+06 1.38845
4.58000E+06 1.37115
4.58500E+06 1.35703
4.59000E+06 1.34727
4.59100E+06 1.34605
4.59200E+06 1.34582
4.59300E+06 1.34622
4.59400E+06 1.34737
4.59500E+06 1.34881
4.59600E+06 1.35278
4.59700E+06 1.35947
4.59800E+06 1.37017
4.59900E+06 1.38588
4.60000E+06 1.40570
4.60100E+06 1.43342
4.60150E+06 1.43993
4.60200E+06 1.43924
4.60250E+06 1.43164
4.60300E+06 1.41915
4.60400E+06 1.38947
4.60500E+06 1.36369
4.61000E+06 1.31955
4.61500E+06 1.31162
4.62000E+06 1.31958
4.62500E+06 1.35402
4.62600E+06 1.36708
4.62700E+06 1.38363
4.62800E+06 1.40479
4.62900E+06 1.43191
4.63000E+06 1.46727
4.63100E+06 1.51357
4.63200E+06 1.57470
4.63300E+06 1.65604
4.63400E+06 1.76268
4.63500E+06 1.89713
4.63600E+06 2.04938
4.63700E+06 2.18281
4.63800E+06 2.23516
4.63900E+06 2.16686
4.64000E+06 2.01042
4.64500E+06 1.40493
4.65000E+06 1.25161
4.65500E+06 1.19932
4.66000E+06 1.17288
4.66500E+06 1.15529
4.67000E+06 1.14139
4.67500E+06 1.12935
4.68000E+06 1.11826
4.68500E+06 1.10780
4.69000E+06 1.09768
4.69500E+06 1.08776
4.70000E+06 1.07792
4.70500E+06 1.06833
4.71000E+06 1.05888
4.71500E+06 1.04958
4.72000E+06 1.04031
4.72500E+06 1.03118
4.73000E+06 1.02223
4.73500E+06 1.01352
4.74000E+06 1.00517
4.74500E+06 0.997187
4.75000E+06 0.989758
4.75500E+06 0.983073
4.76000E+06 0.977419
4.76500E+06 0.973192
4.77000E+06 0.970908
4.77500E+06 0.971332
4.78000E+06 0.975518
4.78500E+06 0.984998
4.79000E+06 1.00188
4.79500E+06 1.02917
4.80000E+06 1.07106
4.80500E+06 1.13275
4.81000E+06 1.22050
4.81500E+06 1.33991
4.82000E+06 1.49136
4.82500E+06 1.66445
4.83000E+06 1.83279
4.83200E+06 1.89073
4.83400E+06 1.93988
4.83500E+06 1.96069
4.83600E+06 1.97880
4.83700E+06 1.99389
4.83800E+06 2.00626
4.83900E+06 2.01573
4.84000E+06 2.02219
4.84100E+06 2.02595
4.84200E+06 2.02703
4.84300E+06 2.02571
4.84400E+06 2.02182
4.84500E+06 2.01586
4.85000E+06 1.96004
4.85500E+06 1.87827
4.86000E+06 1.78849
4.87000E+06 1.62064
4.88000E+06 1.48559
4.89000E+06 1.38152
4.90000E+06 1.30036
4.91000E+06 1.23587
4.92000E+06 1.18342
4.93000E+06 1.14019
4.94000E+06 1.10411
4.95000E+06 1.07426
4.96000E+06 1.04994
4.97000E+06 1.03168
4.98000E+06 1.02000
4.99000E+06 1.01681
5.00000E+06 1.02435
5.01000E+06 1.04609
5.02000E+06 1.08598
5.03000E+06 1.14772
5.04000E+06 1.23283
5.05000E+06 1.33770
5.06000E+06 1.44811
5.07000E+06 1.55117
5.08000E+06 1.63779
5.09000E+06 1.71389
5.10000E+06 1.80938
5.10200E+06 1.83626
5.10400E+06 1.86765
5.10600E+06 1.90480
5.10800E+06 1.94933
5.11000E+06 2.00305
5.11200E+06 2.06818
5.11400E+06 2.14770
5.11500E+06 2.19395
5.11600E+06 2.24502
5.11700E+06 2.30134
5.11800E+06 2.36345
5.11900E+06 2.43166
5.12000E+06 2.50640
5.12100E+06 2.58759
5.12200E+06 2.67521
5.12300E+06 2.76885
5.12400E+06 2.86735
5.12500E+06 2.96903
5.12600E+06 3.07155
5.12700E+06 3.17142
5.12800E+06 3.26470
5.12900E+06 3.34632
5.13000E+06 3.41147
5.13100E+06 3.45547
5.13200E+06 3.47470
5.13300E+06 3.46711
5.13400E+06 3.43310
5.13500E+06 3.37476
5.13600E+06 3.29570
5.13700E+06 3.20087
5.13800E+06 3.09538
5.13900E+06 2.98389
5.14000E+06 2.87055
5.14200E+06 2.65085
5.14400E+06 2.45229
5.14600E+06 2.28076
5.14800E+06 2.13577
5.15000E+06 2.01461
5.15500E+06 1.79158
5.16000E+06 1.64539
5.16500E+06 1.54443
5.17000E+06 1.47110
5.18000E+06 1.37078
5.19000E+06 1.30335
5.20000E+06 1.25315
5.21000E+06 1.21311
5.22000E+06 1.17960
5.23000E+06 1.15053
5.24000E+06 1.12495
5.25000E+06 1.10177
5.26000E+06 1.08091
5.27000E+06 1.06182
5.28000E+06 1.04435
5.29000E+06 1.02923
5.30000E+06 1.02074
5.31000E+06 1.14727
5.32000E+06 0.947269
5.33000E+06 0.987743
5.34000E+06 1.65521
5.35000E+06 1.30078
5.35500E+06 1.08989
5.36000E+06 1.01844
5.36500E+06 0.980815
5.36600E+06 0.975171
5.36700E+06 0.970144
5.36800E+06 0.966030
5.36900E+06 0.963413
5.37000E+06 0.963777
5.37100E+06 0.970271
5.37200E+06 0.989068
5.37300E+06 1.02754
5.37400E+06 1.07743
5.37500E+06 1.10318
5.38000E+06 1.01943
5.38500E+06 0.982852
5.39000E+06 0.965645
5.39500E+06 0.954773
5.40000E+06 0.946922
5.41000E+06 0.936088
5.42000E+06 0.929297
5.43000E+06 0.925555
5.44000E+06 0.924646
5.45000E+06 0.926698
5.46000E+06 0.932038
5.47000E+06 0.941180
5.48000E+06 0.954733
5.49000E+06 0.973522
5.50000E+06 0.998451
5.51000E+06 1.03048
5.52000E+06 1.07084
5.53000E+06 1.12048
5.54000E+06 1.18012
5.55000E+06 1.24977
5.56000E+06 1.32875
5.57000E+06 1.41478
5.58000E+06 1.50446
5.59000E+06 1.59237
5.60000E+06 1.67249
5.60500E+06 1.70784
5.61000E+06 1.73899
5.61500E+06 1.76587
5.62000E+06 1.78775
5.62500E+06 1.80464
5.63000E+06 1.81655
5.63500E+06 1.82338
5.63950E+06 1.82559
5.63954E+06 1.82559
5.63954E+06 1.82559
5.63960E+06 1.82560
5.64000E+06 1.82565
5.64500E+06 1.82359
5.65000E+06 1.81774
5.65500E+06 1.80868
5.66000E+06 1.79693
5.66200E+06 1.79160
5.66500E+06 1.78335
5.66800E+06 1.77462
5.67000E+06 1.76880
5.67200E+06 1.76287
5.67500E+06 1.75454
5.67600E+06 1.75168
5.67800E+06 1.74668
5.68000E+06 1.74178
5.68500E+06 1.72614
5.69000E+06 1.69396
5.69500E+06 1.65692
5.70000E+06 1.62724
5.70500E+06 1.60193
5.71000E+06 1.57840
5.71500E+06 1.55575
5.72000E+06 1.53367
5.72500E+06 1.51217
5.73000E+06 1.49137
5.73500E+06 1.47092
5.74000E+06 1.45121
5.74500E+06 1.43192
5.75000E+06 1.41335
5.75500E+06 1.39529
5.76000E+06 1.37783
5.76500E+06 1.36089
5.77000E+06 1.34455
5.77500E+06 1.32883
5.78000E+06 1.31361
5.78500E+06 1.29900
5.79000E+06 1.28481
5.79500E+06 1.27113
5.80000E+06 1.25806
5.80500E+06 1.24541
5.81000E+06 1.23338
5.81500E+06 1.22188
5.82000E+06 1.21080
5.82500E+06 1.20036
5.83000E+06 1.19045
5.83500E+06 1.18109
5.84000E+06 1.17260
5.84500E+06 1.16487
5.85000E+06 1.15794
5.85500E+06 1.15221
5.86000E+06 1.14784
5.86500E+06 1.14526
5.87000E+06 1.14495
5.87500E+06 1.14779
5.88000E+06 1.15504
5.88500E+06 1.16852
5.89000E+06 1.19160
5.89500E+06 1.22939
5.90000E+06 1.29144
5.90500E+06 1.39383
5.90800E+06 1.48379
5.91000E+06 1.56557
5.91200E+06 1.66337
5.91500E+06 1.84634
5.91600E+06 1.91803
5.91700E+06 1.99434
5.91800E+06 2.07414
5.91900E+06 2.15616
5.92000E+06 2.23796
5.92100E+06 2.31680
5.92200E+06 2.38908
5.92300E+06 2.45099
5.92400E+06 2.49867
5.92500E+06 2.52885
5.92600E+06 2.53918
5.92700E+06 2.52858
5.92800E+06 2.49824
5.92900E+06 2.45000
5.93000E+06 2.38724
5.93500E+06 1.98093
5.94000E+06 1.62592
5.94500E+06 1.38538
5.95000E+06 1.22559
5.95500E+06 1.11353
5.96000E+06 1.02797
5.96500E+06 0.956393
5.97000E+06 0.891230
5.97500E+06 0.829168
5.98000E+06 0.776940
5.98200E+06 0.766362
5.98400E+06 0.770853
5.98500E+06 0.782382
5.98600E+06 0.803161
5.98800E+06 0.882578
5.99000E+06 1.02881
5.99200E+06 1.23951
5.99400E+06 1.46320
5.99500E+06 1.55522
5.99600E+06 1.62446
5.99700E+06 1.66926
5.99800E+06 1.69156
5.99900E+06 1.69571
6.00000E+06 1.68647
6.00100E+06 1.66820
6.00200E+06 1.64424
6.00300E+06 1.61737
6.00400E+06 1.58936
6.00600E+06 1.53372
6.00800E+06 1.48234
6.01000E+06 1.43657
6.01200E+06 1.39649
6.01400E+06 1.36139
6.01500E+06 1.34553
6.01600E+06 1.33067
6.01800E+06 1.30363
6.02000E+06 1.27989
6.02500E+06 1.23118
6.03000E+06 1.19386
6.03500E+06 1.16467
6.04000E+06 1.14175
6.04500E+06 1.12366
6.04800E+06 1.11499
6.05000E+06 1.11002
6.05200E+06 1.10584
6.05400E+06 1.10277
6.05500E+06 1.10148
6.05600E+06 1.10051
6.05700E+06 1.09984
6.05800E+06 1.09947
6.05900E+06 1.09949
6.06000E+06 1.09982
6.06100E+06 1.10066
6.06200E+06 1.10219
6.06300E+06 1.10424
6.06400E+06 1.10708
6.06500E+06 1.11083
6.06600E+06 1.11587
6.06700E+06 1.12205
6.06800E+06 1.13042
6.07000E+06 1.15429
6.07100E+06 1.17163
6.07200E+06 1.19402
6.07300E+06 1.22331
6.07400E+06 1.26190
6.07500E+06 1.31241
6.07600E+06 1.37749
6.07700E+06 1.45675
6.07800E+06 1.54108
6.07900E+06 1.60451
6.08000E+06 1.61065
6.08200E+06 1.43900
6.08400E+06 1.24118
6.08500E+06 1.17295
6.08600E+06 1.12552
6.08800E+06 1.06459
6.09000E+06 1.03062
6.09200E+06 1.01028
6.09400E+06 0.996963
6.09600E+06 0.987639
6.09800E+06 0.980728
6.10000E+06 0.975287
6.10200E+06 0.970814
6.10400E+06 0.967016
6.10600E+06 0.963690
6.10800E+06 0.960694
6.11000E+06 0.957988
6.11500E+06 0.952014
6.12000E+06 0.946843
6.12500E+06 0.942249
6.13000E+06 0.938130
6.14000E+06 0.931021
6.15000E+06 0.925245
6.16000E+06 0.920629
6.17000E+06 0.917026
6.17500E+06 0.915558
6.18000E+06 0.914270
6.19000E+06 0.912133
6.20000E+06 0.910394
6.21000E+06 0.908842
6.22000E+06 0.907305
6.22500E+06 0.906544
6.23000E+06 0.905751
6.24000E+06 0.904180
6.25000E+06 0.902733
6.26000E+06 0.896237
6.27000E+06 0.893498
6.27100E+06 0.893370
6.27217E+06 0.893235
6.27217E+06 0.893235
6.27220E+06 0.893231
6.27230E+06 0.893228
6.27500E+06 0.893127
6.28000E+06 0.893528
6.29000E+06 0.894914
6.30000E+06 0.896429
6.30200E+06 0.896985
6.30400E+06 0.897716
6.30600E+06 0.898409
6.30800E+06 0.899082
6.31000E+06 0.899810
6.31200E+06 0.900822
6.31400E+06 0.902313
6.31600E+06 0.904232
6.31800E+06 0.906531
6.32000E+06 0.909152
6.32200E+06 0.912095
6.32400E+06 0.915410
6.32500E+06 0.917235
6.32600E+06 0.919147
6.32800E+06 0.923154
6.33000E+06 0.927287
6.33200E+06 0.931436
6.33400E+06 0.935679
6.33600E+06 0.940076
6.33800E+06 0.944649
6.34000E+06 0.949241
6.34200E+06 0.954020
6.34400E+06 0.959258
6.34600E+06 0.965083
6.34800E+06 0.971561
6.35000E+06 0.978607
6.35200E+06 0.986597
6.35400E+06 0.995897
6.35600E+06 1.00645
6.35800E+06 1.01805
6.36000E+06 1.03047
6.36200E+06 1.04384
6.36400E+06 1.05868
6.36600E+06 1.07516
6.36800E+06 1.09299
6.37000E+06 1.11170
6.37200E+06 1.13071
6.37400E+06 1.15036
6.37500E+06 1.16077
6.37600E+06 1.17169
6.37800E+06 1.19564
6.38000E+06 1.22324
6.38200E+06 1.25442
6.38400E+06 1.28680
6.38500E+06 1.30236
6.38600E+06 1.31772
6.38800E+06 1.34888
6.39000E+06 1.38044
6.39200E+06 1.40817
6.39400E+06 1.42961
6.39500E+06 1.43884
6.39600E+06 1.44647
6.39800E+06 1.45576
6.40000E+06 1.46045
6.40200E+06 1.46180
6.40400E+06 1.45404
6.40500E+06 1.44451
6.40600E+06 1.43088
6.40800E+06 1.39561
6.41000E+06 1.35188
6.41200E+06 1.30585
6.41400E+06 1.26163
6.41500E+06 1.24014
6.41600E+06 1.21888
6.41800E+06 1.17863
6.42000E+06 1.14168
6.42200E+06 1.10682
6.42400E+06 1.07328
6.42500E+06 1.05695
6.42600E+06 1.04092
6.42800E+06 1.00976
6.43000E+06 0.979716
6.43089E+06 0.967026
6.43089E+06 0.967012
6.43090E+06 0.966811
6.43100E+06 0.965344
6.43100E+06 0.965205
6.43200E+06 0.951143
6.43400E+06 0.924421
6.43600E+06 0.898679
6.43800E+06 0.874026
6.44000E+06 0.850863
6.44200E+06 0.830171
6.44400E+06 0.812358
6.44600E+06 0.796776
6.44800E+06 0.782794
6.45000E+06 0.769891
6.45100E+06 0.764015
6.45200E+06 0.758979
6.45210E+06 0.758269
6.45215E+06 0.758100
6.45215E+06 0.758096
6.45220E+06 0.757905
6.45220E+06 0.757768
6.45230E+06 0.757413
6.45400E+06 0.749267
6.45600E+06 0.739765
6.45800E+06 0.730552
6.46000E+06 0.721700
6.46200E+06 0.713468
6.46400E+06 0.705936
6.46600E+06 0.698979
6.46800E+06 0.692450
6.47000E+06 0.686231
6.47200E+06 0.680234
6.47400E+06 0.674411
6.47500E+06 0.671558
6.47600E+06 0.668730
6.47800E+06 0.663125
6.48000E+06 0.657548
6.48200E+06 0.652143
6.48400E+06 0.647024
6.48600E+06 0.642127
6.48800E+06 0.637387
6.49000E+06 0.632739
6.49200E+06 0.628420
6.49400E+06 0.624861
6.49600E+06 0.622370
6.49800E+06 0.621242
6.50000E+06 0.621771
6.50200E+06 0.623582
6.50400E+06 0.625998
6.50600E+06 0.628976
6.50800E+06 0.632428
6.51000E+06 0.636292
6.51200E+06 0.640333
6.51400E+06 0.644456
6.51600E+06 0.648729
6.51646E+06 0.649707
6.51650E+06 0.649823
6.51660E+06 0.650043
6.51660E+06 0.650058
6.51800E+06 0.653226
6.52000E+06 0.658068
6.52200E+06 0.663181
6.52400E+06 0.668404
6.52500E+06 0.671040
6.52600E+06 0.673720
6.52800E+06 0.679147
6.53000E+06 0.684696
6.53200E+06 0.690375
6.53400E+06 0.696191
6.53600E+06 0.702134
6.53800E+06 0.708240
6.54000E+06 0.714508
6.54200E+06 0.720905
6.54400E+06 0.727421
6.54600E+06 0.734032
6.54800E+06 0.740737
6.55000E+06 0.747554
6.55200E+06 0.754451
6.55400E+06 0.761465
6.55600E+06 0.768555
6.55800E+06 0.775729
6.56000E+06 0.782954
6.56200E+06 0.790199
6.56400E+06 0.797472
6.56600E+06 0.804770
6.56800E+06 0.812102
6.57000E+06 0.819486
6.57200E+06 0.826940
6.57400E+06 0.834461
6.57500E+06 0.838257
6.57600E+06 0.842079
6.57800E+06 0.849788
6.58000E+06 0.857622
6.58200E+06 0.865563
6.58400E+06 0.873529
6.58600E+06 0.881422
6.58800E+06 0.889131
6.59000E+06 0.896536
6.59200E+06 0.903547
6.59400E+06 0.910025
6.59600E+06 0.915880
6.59800E+06 0.920972
6.60000E+06 0.925200
6.60200E+06 0.928856
6.60400E+06 0.932289
6.60600E+06 0.935559
6.60800E+06 0.938657
6.61000E+06 0.941633
6.61200E+06 0.944486
6.61400E+06 0.947247
6.61600E+06 0.949956
6.61800E+06 0.952614
6.62000E+06 0.955259
6.62200E+06 0.957913
6.62400E+06 0.960536
6.62500E+06 0.961852
6.62600E+06 0.963153
6.62800E+06 0.965720
6.63000E+06 0.968254
6.63200E+06 0.970725
6.63400E+06 0.973122
6.63600E+06 0.975427
6.63800E+06 0.977629
6.64000E+06 0.979720
6.64200E+06 0.981160
6.64400E+06 0.981729
6.64600E+06 0.981918
6.64800E+06 0.982226
6.65000E+06 0.983156
6.65200E+06 0.985056
6.65400E+06 0.988488
6.65500E+06 0.990994
6.65600E+06 0.994021
6.65800E+06 1.00111
6.66000E+06 1.00891
6.66200E+06 1.01685
6.66400E+06 1.02566
6.66500E+06 1.03078
6.66600E+06 1.03671
6.66800E+06 1.05054
6.67000E+06 1.06477
6.67200E+06 1.07864
6.67400E+06 1.09068
6.67500E+06 1.09479
6.67600E+06 1.09319
6.67800E+06 1.07239
6.68000E+06 1.05297
6.68200E+06 1.04367
6.68400E+06 1.03513
6.68500E+06 1.03156
6.68600E+06 1.02830
6.68800E+06 1.02197
6.69000E+06 1.01614
6.69200E+06 1.01091
6.69400E+06 1.00621
6.69500E+06 1.00404
6.69600E+06 1.00214
6.69800E+06 0.999305
6.70000E+06 0.997431
6.71000E+06 0.993304
6.72000E+06 0.997671
6.72500E+06 1.00329
6.73000E+06 1.01081
6.74000E+06 1.03146
6.75000E+06 1.05739
6.76000E+06 1.08861
6.77000E+06 1.12724
6.77500E+06 1.14926
6.78000E+06 1.17367
6.79000E+06 1.24451
6.79500E+06 1.29898
6.80000E+06 1.35974
6.80500E+06 1.42945
6.81000E+06 1.50416
6.82000E+06 1.56528
6.82500E+06 1.46350
6.83000E+06 1.34806
6.84000E+06 1.13989
6.85000E+06 1.00238
6.86000E+06 0.943407
6.87500E+06 0.893636
6.88000E+06 0.882770
6.90000E+06 0.856534
6.92000E+06 0.839858
6.92500E+06 0.838681
6.94000E+06 0.837167
6.95000E+06 0.838438
6.96000E+06 0.843218
6.97500E+06 0.859224
6.98000E+06 0.867781
7.00000E+06 0.909336
7.02000E+06 0.955165
7.02500E+06 0.965398
7.03000E+06 0.975950
7.03500E+06 0.987092
7.04000E+06 0.997954
7.04500E+06 1.00784
7.05000E+06 1.01601
7.05500E+06 1.02334
7.06000E+06 1.02748
7.06500E+06 1.02704
7.07000E+06 1.02192
7.07500E+06 1.01711
7.08000E+06 1.01237
7.09000E+06 1.00710
7.10000E+06 1.00363
7.12000E+06 1.01174
7.12500E+06 1.01632
7.14000E+06 1.02836
7.15000E+06 1.04725
7.16000E+06 1.07627
7.17000E+06 1.14302
7.17500E+06 1.19683
7.18000E+06 1.27733
7.19000E+06 1.50544
7.20000E+06 1.75511
7.21000E+06 1.68726
7.22000E+06 1.56752
7.22500E+06 1.51675
7.23000E+06 1.46849
7.24000E+06 1.37936
7.25000E+06 1.31490
7.26000E+06 1.29141
7.27500E+06 1.27643
7.28000E+06 1.27179
7.30000E+06 1.27778
7.32000E+06 1.33565
7.32500E+06 1.36913
7.33000E+06 1.37648
7.33500E+06 1.36703
7.34000E+06 1.35211
7.34500E+06 1.33649
7.35000E+06 1.32034
7.35300E+06 1.30984
7.35330E+06 1.30873
7.35330E+06 1.30872
7.35340E+06 1.30839
7.35340E+06 1.30830
7.35500E+06 1.30236
7.36000E+06 1.28073
7.36500E+06 1.23636
7.37000E+06 1.17486
7.37500E+06 1.23585
7.38000E+06 1.30042
7.38500E+06 1.29138
7.39000E+06 1.28229
7.40000E+06 1.26358
7.42000E+06 1.23028
7.42500E+06 1.22330
7.44000E+06 1.20203
7.45000E+06 1.18809
7.46000E+06 1.17399
7.47500E+06 1.15293
7.48000E+06 1.14591
7.50000E+06 1.11904
7.52000E+06 1.13089
7.52500E+06 1.12907
7.54000E+06 1.12284
7.55000E+06 1.11868
7.56000E+06 1.11883
7.56560E+06 1.11895
7.56560E+06 1.11895
7.56565E+06 1.11890
7.56580E+06 1.11892
7.56580E+06 1.11890
7.56800E+06 1.11895
7.57500E+06 1.11755
7.60000E+06 1.11060
7.61360E+06 1.11975
7.61360E+06 1.11975
7.62500E+06 1.13298
7.64000E+06 1.15570
7.65000E+06 1.17179
7.66000E+06 1.18810
7.67500E+06 1.21306
7.68000E+06 1.22119
7.70000E+06 1.25488
7.72500E+06 1.29988
7.74000E+06 1.32632
7.75000E+06 1.34362
7.76000E+06 1.35982
7.77500E+06 1.38183
7.78000E+06 1.38861
7.80000E+06 1.41475
7.82000E+06 1.44103
7.82500E+06 1.44701
7.84000E+06 1.46207
7.85000E+06 1.47110
7.86000E+06 1.47362
7.87500E+06 1.44895
7.88000E+06 1.42942
7.90000E+06 1.32867
7.92000E+06 1.22457
7.92500E+06 1.19604
7.94000E+06 1.10635
7.95000E+06 1.04621
7.96000E+06 0.992478
7.97500E+06 0.929436
7.98000E+06 0.912201
8.00000E+06 0.865282
8.02000E+06 0.853586
8.02500E+06 0.854589
8.04000E+06 0.864302
8.06000E+06 0.895132
8.07500E+06 0.929375
8.08000E+06 0.941809
8.10000E+06 0.995696
8.12500E+06 1.07648
8.15000E+06 1.16252
8.17500E+06 1.23113
8.20000E+06 1.28340
8.22500E+06 1.32693
8.24000E+06 1.34737
8.25000E+06 1.35610
8.27500E+06 1.36173
8.28000E+06 1.36103
8.30000E+06 1.35364
8.32000E+06 1.34015
8.32500E+06 1.33535
8.34000E+06 1.31969
8.35000E+06 1.30857
8.36000E+06 1.29689
8.37500E+06 1.27705
8.40000E+06 1.24519
8.42500E+06 1.22177
8.44000E+06 1.20827
8.45000E+06 1.19918
8.46000E+06 1.18908
8.47500E+06 1.17326
8.50000E+06 1.14674
8.52000E+06 1.13262
8.52500E+06 1.13065
8.54000E+06 1.12678
8.55000E+06 1.12632
8.56000E+06 1.12733
8.57500E+06 1.13275
8.60000E+06 1.15653
8.62000E+06 1.18960
8.62500E+06 1.19883
8.64000E+06 1.22748
8.65000E+06 1.24755
8.66000E+06 1.26883
8.67500E+06 1.30235
8.68000E+06 1.31401
8.70000E+06 1.36091
8.72000E+06 1.40218
8.72500E+06 1.41030
8.74000E+06 1.42797
8.74500E+06 1.43166
8.75000E+06 1.43388
8.76000E+06 1.43414
8.77500E+06 1.42364
8.78000E+06 1.41667
8.80000E+06 1.37784
8.82000E+06 1.33087
8.82500E+06 1.31938
8.84000E+06 1.28551
8.85000E+06 1.26357
8.86000E+06 1.24209
8.87500E+06 1.20933
8.88000E+06 1.19881
8.90000E+06 1.15818
8.92000E+06 1.13512
8.92500E+06 1.13644
8.94000E+06 1.14369
8.95000E+06 1.15038
8.96000E+06 1.18013
8.97500E+06 1.18767
8.98000E+06 1.19101
8.98700E+06 1.19854
9.00000E+06 1.22306
9.02000E+06 1.25691
9.02500E+06 1.27454
9.04000E+06 1.33980
9.05000E+06 1.36827
9.06000E+06 1.33666
9.07500E+06 1.28920
9.08000E+06 1.27150
9.10000E+06 1.24423
9.12000E+06 1.21282
9.12500E+06 1.20486
9.13600E+06 1.18775
9.14000E+06 1.18186
9.15000E+06 1.16801
9.16000E+06 1.15439
9.17500E+06 1.13489
9.18000E+06 1.12880
9.20000E+06 1.10811
9.22500E+06 1.09597
9.24800E+06 1.09073
9.25000E+06 1.09052
9.27500E+06 1.09169
9.30000E+06 1.10221
9.32500E+06 1.13106
9.35000E+06 1.16528
9.37500E+06 1.19307
9.40000E+06 1.21122
9.42500E+06 1.19760
9.43100E+06 1.19614
9.43138E+06 1.19618
9.43138E+06 1.19618
9.43140E+06 1.19618
9.43150E+06 1.19618
9.45000E+06 1.19792
9.47000E+06 1.19947
9.47500E+06 1.19985
9.50000E+06 1.20166
9.50800E+06 1.20214
9.52500E+06 1.20306
9.55000E+06 1.20433
9.57500E+06 1.20584
9.60000E+06 1.20784
9.62500E+06 1.21937
9.65000E+06 1.23472
9.67500E+06 1.25240
9.67600E+06 1.25318
9.70000E+06 1.27323
9.72000E+06 1.28828
9.72500E+06 1.29144
9.74000E+06 1.30058
9.75000E+06 1.30605
9.76000E+06 1.31148
9.77500E+06 1.31838
9.78000E+06 1.32033
9.80000E+06 1.32259
9.82500E+06 1.31489
9.85000E+06 1.30488
9.87500E+06 1.29307
9.90000E+06 1.28149
9.92500E+06 1.27522
9.95000E+06 1.28135
9.97500E+06 1.29789
1.00000E+07 1.31479
1.00500E+07 1.35054
1.01000E+07 1.38649
1.01220E+07 1.40026
1.01500E+07 1.41390
1.01890E+07 1.42732
1.01895E+07 1.42737
1.01895E+07 1.42737
1.01900E+07 1.42742
1.01900E+07 1.42750
1.02000E+07 1.42982
1.02020E+07 1.43016
1.02445E+07 1.42495
1.02445E+07 1.42495
1.02450E+07 1.42490
1.02450E+07 1.42476
1.02470E+07 1.42429
1.02500E+07 1.42331
1.03000E+07 1.39871
1.03500E+07 1.36289
1.03720E+07 1.34208
1.03722E+07 1.34192
1.03722E+07 1.34191
1.04000E+07 1.31755
1.04500E+07 1.29230
1.04650E+07 1.28631
1.04650E+07 1.28632
1.04680E+07 1.28526
1.05000E+07 1.27505
1.05260E+07 1.26775
1.05275E+07 1.26729
1.05280E+07 1.26715
1.05280E+07 1.26715
1.05500E+07 1.25919
1.05600E+07 1.25394
1.05602E+07 1.25379
1.05603E+07 1.25379
1.05630E+07 1.25223
1.06000E+07 1.22733
1.06500E+07 1.21134
1.06670E+07 1.20971
1.06671E+07 1.20971
1.06671E+07 1.20971
1.06690E+07 1.20967
1.06800E+07 1.21052
1.06900E+07 1.21482
1.07000E+07 1.22532
1.07100E+07 1.22731
1.07200E+07 1.20099
1.07300E+07 1.14451
1.07400E+07 1.16931
1.07500E+07 1.19297
1.07600E+07 1.21228
1.07700E+07 1.22985
1.07800E+07 1.24527
1.07900E+07 1.25869
1.08000E+07 1.27168
1.08100E+07 1.28456
1.08200E+07 1.29715
1.08300E+07 1.30893
1.08400E+07 1.31629
1.08500E+07 1.31964
1.08600E+07 1.31984
1.08700E+07 1.31777
1.08800E+07 1.31733
1.08900E+07 1.31954
1.09000E+07 1.32333
1.09100E+07 1.32810
1.09200E+07 1.33375
1.09300E+07 1.34710
1.09400E+07 1.37767
1.09500E+07 1.41912
1.09600E+07 1.46576
1.09700E+07 1.49557
1.09800E+07 1.49948
1.09900E+07 1.50300
1.10000E+07 1.50904
1.10070E+07 1.51761
1.10090E+07 1.52031
1.10090E+07 1.52063
1.10500E+07 1.57996
1.11000E+07 1.65633
1.11500E+07 1.70920
1.12000E+07 1.70473
1.12200E+07 1.69436
1.12500E+07 1.67745
1.13000E+07 1.64987
1.13500E+07 1.63156
1.14000E+07 1.62853
1.14500E+07 1.66644
1.15000E+07 1.70537
1.15200E+07 1.71876
1.15400E+07 1.72972
1.15500E+07 1.73428
1.16000E+07 1.74498
1.16430E+07 1.73540
1.16480E+07 1.73336
1.16480E+07 1.73336
1.16480E+07 1.73335
1.16480E+07 1.73325
1.16500E+07 1.73249
1.17000E+07 1.71183
1.17500E+07 1.69928
1.17787E+07 1.73500
1.17787E+07 1.73501
1.17790E+07 1.73536
1.17790E+07 1.73568
1.17960E+07 1.73984
1.17970E+07 1.73954
1.17970E+07 1.73963
1.18000E+07 1.73881
1.18500E+07 1.70512
1.19000E+07 1.67337
1.19500E+07 1.66552
1.19700E+07 1.66842
1.20000E+07 1.64874
1.20500E+07 1.59511
1.21000E+07 1.54340
1.21100E+07 1.53339
1.21500E+07 1.49621
1.21610E+07 1.48677
1.22000E+07 1.47596
1.22467E+07 1.49286
1.22470E+07 1.49298
1.22480E+07 1.49334
1.22500E+07 1.49404
1.23000E+07 1.51163
1.23317E+07 1.51975
1.23320E+07 1.51980
1.23330E+07 1.51998
1.23500E+07 1.52251
1.23630E+07 1.52395
1.23700E+07 1.52458
1.24000E+07 1.52715
1.24500E+07 1.53204
1.25000E+07 1.53710
1.25500E+07 1.54136
1.25800E+07 1.54253
1.26000E+07 1.54219
1.26200E+07 1.54077
1.26500E+07 1.53793
1.27000E+07 1.53675
1.27500E+07 1.55679
1.28000E+07 1.59925
1.28090E+07 1.60725
1.28090E+07 1.60729
1.28130E+07 1.61080
1.28500E+07 1.64161
1.28924E+07 1.65976
1.28924E+07 1.65976
1.29000E+07 1.65896
1.29500E+07 1.62955
1.30000E+07 1.58363
1.30500E+07 1.55703
1.31000E+07 1.56192
1.31500E+07 1.57639
1.32000E+07 1.57931
1.32247E+07 1.57637
1.32250E+07 1.57634
1.32270E+07 1.57614
1.32500E+07 1.57405
1.33000E+07 1.57133
1.33180E+07 1.57303
1.33200E+07 1.57333
1.33204E+07 1.57339
1.33500E+07 1.57833
1.34000E+07 1.58707
1.34500E+07 1.59847
1.35000E+07 1.60977
1.35500E+07 1.61273
1.36000E+07 1.61541
1.36020E+07 1.61539
1.36030E+07 1.61541
1.36032E+07 1.61541
1.36100E+07 1.61558
1.36200E+07 1.61644
1.36300E+07 1.61821
1.36400E+07 1.62089
1.36500E+07 1.62378
1.36600E+07 1.62672
1.36700E+07 1.62967
1.36744E+07 1.63094
1.36744E+07 1.63095
1.36800E+07 1.63256
1.36900E+07 1.63540
1.37000E+07 1.63818
1.37100E+07 1.64091
1.37200E+07 1.64356
1.37300E+07 1.64613
1.37400E+07 1.64682
1.37500E+07 1.64208
1.37600E+07 1.63492
1.37700E+07 1.63070
1.37800E+07 1.63244
1.37850E+07 1.63468
1.37867E+07 1.63556
1.37870E+07 1.63574
1.37900E+07 1.63735
1.38000E+07 1.64261
1.38100E+07 1.64542
1.38200E+07 1.64346
1.38300E+07 1.63972
1.38400E+07 1.63573
1.38500E+07 1.63213
1.38600E+07 1.62921
1.38700E+07 1.62635
1.38800E+07 1.62350
1.38900E+07 1.62067
1.39000E+07 1.61786
1.39500E+07 1.60417
1.39790E+07 1.59654
1.40000E+07 1.59216
1.40500E+07 1.58868
1.41000E+07 1.59310
1.41500E+07 1.59942
1.42000E+07 1.60600
1.42500E+07 1.61281
1.42980E+07 1.61938
1.43000E+07 1.61966
1.43500E+07 1.62696
1.44000E+07 1.63503
1.44500E+07 1.64534
1.45000E+07 1.65845
1.45500E+07 1.67292
1.46000E+07 1.68793
1.46170E+07 1.69318
1.46500E+07 1.70345
1.47000E+07 1.71882
1.47500E+07 1.73289
1.48000E+07 1.74633
1.48500E+07 1.75996
1.49000E+07 1.76189
1.49360E+07 1.76340
1.49500E+07 1.76397
1.50000E+07 1.76594
1.50200E+07 1.76402
1.50400E+07 1.75703
1.50500E+07 1.75229
1.51000E+07 1.72117
1.51500E+07 1.68466
1.52000E+07 1.64837
1.52500E+07 1.62125
1.52550E+07 1.61914
1.53000E+07 1.60416
1.53472E+07 1.58827
1.53500E+07 1.58732
1.53921E+07 1.58064
1.53921E+07 1.58064
1.54000E+07 1.58126
1.54500E+07 1.59056
1.55000E+07 1.60117
1.55500E+07 1.61021
1.55740E+07 1.61453
1.56000E+07 1.61896
1.56500E+07 1.62461
1.57000E+07 1.62628
1.57500E+07 1.62440
1.58000E+07 1.61738
1.58500E+07 1.60666
1.58930E+07 1.59664
1.59000E+07 1.59483
1.59500E+07 1.57313
1.60000E+07 1.55246
1.61000E+07 1.54719
1.61300E+07 1.54987
1.61610E+07 1.55317
1.62000E+07 1.55911
1.62050E+07 1.56007
1.62120E+07 1.56151
1.63000E+07 1.58177
1.64000E+07 1.58816
1.64100E+07 1.58731
1.65000E+07 1.56895
1.65310E+07 1.55855
1.66000E+07 1.54326
1.66150E+07 1.54107
1.66516E+07 1.53814
1.67000E+07 1.53966
1.68000E+07 1.55484
1.68200E+07 1.55870
1.68500E+07 1.56527
1.69000E+07 1.57840
1.70000E+07 1.60679
1.70250E+07 1.61490
1.71000E+07 1.63989
1.71680E+07 1.65385
1.71690E+07 1.65402
1.72000E+07 1.65865
1.72300E+07 1.66133
1.72502E+07 1.66236
1.72502E+07 1.66236
1.73000E+07 1.66303
1.74000E+07 1.65942
1.74350E+07 1.65689
1.74870E+07 1.65292
1.74880E+07 1.65284
1.75000E+07 1.65187
1.76000E+07 1.64448
1.76400E+07 1.64225
1.77000E+07 1.63974
1.78000E+07 1.63609
1.78060E+07 1.63585
1.78070E+07 1.63581
1.78450E+07 1.63371
1.78500E+07 1.63339
1.78507E+07 1.63334
1.78507E+07 1.63334
1.79000E+07 1.62959
1.80000E+07 1.62045
1.80500E+07 1.61290
1.81000E+07 1.60562
1.81250E+07 1.60272
1.81338E+07 1.60179
1.81338E+07 1.60179
1.82000E+07 1.59546
1.82550E+07 1.59146
1.82890E+07 1.58940
1.82890E+07 1.58939
1.83000E+07 1.58885
1.84000E+07 1.58760
1.84440E+07 1.58965
1.84600E+07 1.59099
1.85000E+07 1.59512
1.85718E+07 1.60475
1.85718E+07 1.60475
1.86000E+07 1.60982
1.86650E+07 1.62771
1.87000E+07 1.63556
1.87630E+07 1.64946
1.88000E+07 1.65775
1.88700E+07 1.67319
1.89000E+07 1.67972
1.90000E+07 1.69075
1.90750E+07 1.68672
1.90820E+07 1.68609
1.91000E+07 1.68442
1.92000E+07 1.67470
1.92800E+07 1.66689
1.93000E+07 1.66492
1.93645E+07 1.65669
1.93645E+07 1.65669
1.94000E+07 1.65126
1.94010E+07 1.65108
1.94850E+07 1.63907
1.95000E+07 1.63763
1.95891E+07 1.63414
1.95892E+07 1.63414
1.96000E+07 1.63412
1.96394E+07 1.63411
1.96394E+07 1.63411
1.96900E+07 1.63430
1.97000E+07 1.63439
1.97200E+07 1.63461
1.98000E+07 1.63552
1.98950E+07 1.63718
1.99000E+07 1.63728
2.00000E+07 1.63990
2.01000E+07 1.64899
2.01482E+07 1.65647
2.01482E+07 1.65648
2.02562E+07 1.67758
2.02562E+07 1.67758
2.02597E+07 1.67830
2.02597E+07 1.67831
2.03342E+07 1.69179
2.03343E+07 1.69180
2.03500E+07 1.69401
2.04200E+07 1.69993
2.05000E+07 1.70223
2.06171E+07 1.70498
2.06171E+07 1.70498
2.06500E+07 1.70566
2.08200E+07 1.69970
2.08200E+07 1.69970
2.09030E+07 1.69672
2.09030E+07 1.69672
2.09500E+07 1.69505
2.09763E+07 1.69413
2.09763E+07 1.69413
2.09945E+07 1.69350
2.09945E+07 1.69350
2.10000E+07 1.69331
2.10816E+07 1.69062
2.10816E+07 1.69062
2.12325E+07 1.68629
2.12325E+07 1.68629
2.12500E+07 1.68586
2.14424E+07 1.68130
2.14424E+07 1.68130
2.15000E+07 1.67996
2.15500E+07 1.67880
2.15942E+07 1.67778
2.15942E+07 1.67778
2.16362E+07 1.67681
2.16362E+07 1.67681
2.17251E+07 1.67478
2.17251E+07 1.67478
2.18500E+07 1.67195
2.18950E+07 1.67093
2.18950E+07 1.67093
2.19868E+07 1.66886
2.19868E+07 1.66886
2.20000E+07 1.66857
2.20440E+07 1.66798
2.20440E+07 1.66798
2.21500E+07 1.66655
2.21614E+07 1.66640
2.22230E+07 1.66557
2.22448E+07 1.66528
2.22448E+07 1.66528
2.24500E+07 1.66248
2.25000E+07 1.66179
2.27500E+07 1.65827
2.28644E+07 1.65661
2.28645E+07 1.65661
2.30000E+07 1.65459
2.30430E+07 1.65394
2.30500E+07 1.65383
2.32174E+07 1.65129
2.33500E+07 1.64928
2.35000E+07 1.64703
2.36500E+07 1.64480
2.37435E+07 1.64341
2.37435E+07 1.64341
2.38731E+07 1.64151
2.39436E+07 1.64047
2.39500E+07 1.64037
2.40000E+07 1.63964
2.42500E+07 1.63600
2.43863E+07 1.63403
2.44088E+07 1.63371
2.44089E+07 1.63371
2.45000E+07 1.63239
2.45500E+07 1.63168
2.45771E+07 1.63129
2.45771E+07 1.63129
2.48500E+07 1.62825
2.50000E+07 1.62867
2.51500E+07 1.62909
2.54500E+07 1.62994
2.55000E+07 1.63009
2.57500E+07 1.63081
2.60000E+07 1.63154
2.60500E+07 1.63045
2.63500E+07 1.62392
2.65000E+07 1.62067
2.66500E+07 1.61743
2.69500E+07 1.61099
2.70000E+07 1.60992
2.72500E+07 1.60459
2.75000E+07 1.59929
2.75500E+07 1.59823
2.78500E+07 1.59191
2.80000E+07 1.58877
2.81500E+07 1.58563
2.84500E+07 1.57938
2.85000E+07 1.57835
2.87500E+07 1.57367
2.90000E+07 1.56987
2.90500E+07 1.56956
2.93500E+07 1.56818
2.95000E+07 1.56774
2.96500E+07 1.56741
2.99500E+07 1.56696
3.00000E+07 1.56690
3.00000E+07 1.56680
3.07079E+07 1.55970
3.10000E+07 1.55552
3.14223E+07 1.54850
3.20000E+07 1.53754
3.30000E+07 1.51680
3.32630E+07 1.51129
3.40000E+07 1.49645
3.41482E+07 1.49363
3.43888E+07 1.48920
3.50000E+07 1.47900
3.55351E+07 1.47091
3.60000E+07 1.46377
3.70000E+07 1.44823
3.80000E+07 1.43263
3.90000E+07 1.41717
3.91296E+07 1.41518
4.00000E+07 1.40200
4.10000E+07 1.38602
4.20000E+07 1.36837
4.30000E+07 1.34953
4.40000E+07 1.32988
4.50000E+07 1.30977
4.60000E+07 1.28950
4.70000E+07 1.26931
4.80000E+07 1.24939
4.90000E+07 1.22991
5.00000E+07 1.21100
5.10000E+07 1.19283
5.20000E+07 1.17539
5.30000E+07 1.15856
5.40000E+07 1.14222
5.50000E+07 1.12628
5.60000E+07 1.11066
5.70000E+07 1.09528
5.80000E+07 1.08008
5.90000E+07 1.06500
6.00000E+07 1.05000
6.10000E+07 1.03505
6.20000E+07 1.02018
6.30000E+07 1.00549
6.40000E+07 0.991029
6.50000E+07 0.976864
6.60000E+07 0.963044
6.70000E+07 0.949612
6.80000E+07 0.936606
6.90000E+07 0.924060
7.00000E+07 0.912000
7.10000E+07 0.900322
7.20000E+07 0.888907
7.30000E+07 0.877755
7.40000E+07 0.866868
7.50000E+07 0.856244
7.60000E+07 0.845882
7.70000E+07 0.835780
7.80000E+07 0.825934
7.90000E+07 0.816342
8.00000E+07 0.807000
8.10000E+07 0.798146
8.20000E+07 0.789851
8.30000E+07 0.781885
8.40000E+07 0.774042
8.50000E+07 0.766142
8.60000E+07 0.758027
8.70000E+07 0.749560
8.80000E+07 0.740626
8.90000E+07 0.731130
9.00000E+07 0.721000
9.10000E+07 0.710813
9.20000E+07 0.701147
9.30000E+07 0.691954
9.40000E+07 0.683184
9.50000E+07 0.674793
9.60000E+07 0.666735
9.70000E+07 0.658969
9.80000E+07 0.651450
9.90000E+07 0.644141
1.00000E+08 0.637000
1.02000E+08 0.623128
1.04000E+08 0.609920
1.06000E+08 0.597537
1.08000E+08 0.586091
1.10000E+08 0.575660
1.12000E+08 0.566076
1.14000E+08 0.557083
1.16000E+08 0.548609
1.18000E+08 0.540597
1.20000E+08 0.533000
1.22000E+08 0.525773
1.24000E+08 0.518882
1.26000E+08 0.512303
1.28000E+08 0.506015
1.30000E+08 0.500000
1.32000E+08 0.494094
1.34000E+08 0.488188
1.36000E+08 0.482341
1.38000E+08 0.476598
1.40000E+08 0.471000
1.42000E+08 0.465414
1.44000E+08 0.459747
1.46000E+08 0.454080
1.48000E+08 0.448479
1.50000E+08 0.443000