Al-27(n,tot) ENDF/B-VII.1
Energy(eV) XS(b)
1.00000E-05 13.1678
1.25000E-05 11.9281
1.50000E-05 11.0130
2.00000E-05 9.72844
2.75000E-05 8.50621
3.50000E-05 7.70183
4.25000E-05 7.12113
5.00000E-05 6.67658
6.25000E-05 6.12216
7.50000E-05 5.71291
0.000100000 5.13845
0.000125000 4.74641
0.000150000 4.45703
0.000200000 4.05082
0.000275000 3.66432
0.000350000 3.40995
0.000425000 3.22632
0.000500000 3.08574
0.000625000 2.91041
0.000750000 2.78100
0.00100000 2.59934
0.00125000 2.47536
0.00150000 2.38385
0.00200000 2.25540
0.00275000 2.13317
0.00350000 2.05273
0.00425000 1.99467
0.00500000 1.95021
0.00625000 1.89477
0.00750000 1.85384
0.0100000 1.79640
0.0125000 1.75719
0.0150000 1.72825
0.0200000 1.68763
0.0253000 1.65851
0.0314750 1.63436
0.0376500 1.61643
0.0500000 1.59112
0.0625000 1.57359
0.0750000 1.56064
0.100000 1.54248
0.125000 1.53008
0.150000 1.52092
0.200000 1.50808
0.275000 1.49585
0.350000 1.48780
0.500000 1.47753
0.750000 1.46788
1.00000 1.46211
1.50000 1.45526
2.00000 1.45117
2.75000 1.44725
3.50000 1.44465
5.00000 1.44130
7.50000 1.43808
10.0000 1.43608
15.0000 1.43358
20.0000 1.43194
27.5000 1.43020
35.0000 1.42888
50.0000 1.42682
75.0000 1.42415
100.000 1.42190
150.000 1.41790
200.000 1.41423
275.000 1.40908
350.000 1.40417
500.000 1.39489
750.000 1.38051
1000.00 1.36716
1500.00 1.34267
2000.00 1.32032
2750.00 1.28952
3500.00 1.26103
4250.00 1.23462
4625.00 1.22277
5000.00 1.21374
5224.01 1.21274
5336.01 1.21589
5448.02 1.22516
5504.02 1.23449
5560.02 1.24995
5616.02 1.27682
5672.02 1.32748
5700.02 1.37072
5728.03 1.43692
5756.03 1.54502
5784.03 1.73819
5798.03 1.89702
5812.03 2.13324
5826.03 2.50592
5840.03 3.14260
5854.03 4.36157
5861.03 5.43505
5868.03 7.13992
5875.03 10.0670
5882.03 15.6472
5885.53 20.4717
5889.03 27.8636
5892.53 39.5966
5896.03 58.3688
5900.36 92.7823
5904.68 115.646
5909.01 92.7372
5913.33 58.4770
5917.32 37.7888
5921.31 25.6628
5925.30 18.4139
5929.29 13.8636
5937.28 8.79439
5945.26 6.22515
5953.24 4.75917
5961.22 3.84801
5977.19 2.82440
5993.15 2.29364
6009.11 1.98360
6025.08 1.78680
6041.04 1.65402
6072.97 1.49120
6104.89 1.39861
6136.82 1.34069
6168.75 1.30185
6232.60 1.25411
6296.46 1.22646
6424.16 1.19596
6551.87 1.17906
6679.58 1.16768
6935.00 1.15173
7445.83 1.12884
7956.67 1.10938
10000.0 1.03713
15000.0 0.856381
20000.0 0.662592
22152.6 0.584087
23229.0 0.551718
23767.1 0.538805
24036.2 0.533329
24170.7 0.530835
24238.0 0.530676
24271.7 0.537234
24280.1 0.545559
24288.5 0.570706
24292.7 0.606275
24296.9 0.704330
24299.0 0.832562
24301.1 1.15610
24302.1 1.53858
24303.2 2.38108
24303.7 3.24256
24304.2 4.77156
24304.5 6.07569
24304.8 7.90746
24305.0 10.6181
24305.3 14.6235
24305.7 23.2831
24306.1 29.1354
24306.5 23.4339
24306.8 14.8679
24307.1 10.7522
24307.4 7.99302
24307.7 6.14321
24307.9 4.87400
24308.5 3.32631
24309.0 2.46987
24310.1 1.61710
24311.2 1.22543
24313.3 0.887710
24315.5 0.749681
24319.8 0.639410
24324.1 0.596679
24332.8 0.563381
24341.4 0.550540
24376.0 0.536197
24445.1 0.530876
24583.3 0.527853
24859.7 0.525427
25412.5 0.526599
26518.1 0.558515
27623.8 0.657356
28729.4 0.887399
29835.1 1.39150
30387.9 1.83998
30940.7 2.51836
31493.5 3.56410
32046.4 5.21083
32599.2 7.85131
33152.0 12.0872
33990.0 22.6552
34828.0 32.8913
35665.5 30.3866
36503.0 21.8741
37346.6 15.3789
38190.1 11.3468
39033.7 8.82358
39877.3 7.16603
40720.8 6.02070
41564.4 5.19338
43251.5 4.09286
44938.6 3.40150
46625.8 2.92877
50000.0 2.32237
53849.8 1.90544
57699.5 1.63789
61549.3 1.47114
65399.0 1.40757
69248.8 1.50366
73098.5 1.92955
75023.4 2.39480
76948.3 3.17830
78873.1 4.50062
80798.0 6.72467
86268.0 18.6457
88707.7 18.9708
89927.6 17.1548
90537.5 16.2031
90690.0 16.0631
90842.4 16.1059
90918.7 16.3043
90994.9 16.7997
91071.2 18.0077
91109.3 19.1894
91147.4 21.0655
91198.0 24.7973
91248.5 27.4121
91299.1 24.9211
91349.6 20.9926
91398.2 18.4843
91446.7 17.0032
91495.3 16.0958
91543.8 15.4996
91640.9 14.7646
91738.0 14.3095
91987.7 13.5702
92237.4 13.0339
92736.8 12.1366
93735.7 10.6219
95733.3 8.28711
97730.9 6.62979
98729.8 5.98389
99229.2 5.69650
99478.9 5.56026
99603.7 5.49397
99666.2 5.46464
99697.4 5.46832
99713.0 5.53708
99720.8 5.74941
99724.7 6.16670
99726.6 6.69488
99728.6 7.81693
99731.7 10.4130
99733.2 9.49502
99734.8 8.02592
99736.9 6.83488
99738.9 6.27321
99743.1 5.82193
99751.4 5.57372
99767.9 5.46611
99801.1 5.41434
99867.4 5.36882
100000 5.29844
100240 5.18063
100480 5.06795
100959 4.85440
101918 4.46797
102877 4.12788
103356 3.97260
103596 3.89778
103716 3.86055
103776 3.84320
103806 3.84480
103821 3.89065
103828 4.05575
103832 4.43848
103834 5.04560
103835 6.58479
103838 9.61557
103839 8.54963
103840 6.84888
103842 5.27242
103843 4.63669
103847 4.18284
103854 3.95721
103869 3.86648
103897 3.82776
103955 3.80023
104070 3.76292
104301 3.69613
104762 3.57054
105685 3.34066
107530 2.95304
111220 2.44402
113065 2.36630
114910 2.55124
115833 2.86441
116755 3.51146
117678 4.87919
118139 6.08876
118600 7.87109
120010 14.6168
120715 11.9757
121420 7.75230
122180 4.85176
122940 3.29076
123700 2.41735
124460 1.89547
125980 1.35682
127500 1.15054
129020 1.14137
130540 1.30429
132060 1.65861
133580 2.24709
135918 3.72495
138255 5.95012
140593 8.56925
142930 10.7178
144539 11.5308
145344 11.7310
145746 11.8470
145947 12.0885
145997 12.2670
146048 12.6163
146098 13.4160
146123 14.2195
146148 15.5656
146205 19.7145
146234 18.3170
146263 15.8992
146287 14.5514
146310 13.7061
146357 12.8248
146404 12.4183
146451 12.2029
146639 11.8932
147014 11.7406
147765 11.5657
149267 11.1324
152270 10.1646
154645 9.92940
155833 10.5324
157020 12.6246
157875 15.6507
158730 17.7969
160450 12.7265
161588 10.0618
162725 8.60479
163863 7.71680
165000 7.10744
167275 6.28292
169550 5.70976
174100 4.89148
178650 4.29046
183200 3.81464
187750 3.45079
192300 3.29091
194575 3.39393
196850 3.76608
200205 5.21107
203560 7.45985
203658 7.49916
203707 7.50382
203731 7.49974
203744 7.54586
203750 7.76409
203753 8.26313
203756 10.2794
203759 14.1184
203761 11.3822
203764 9.21112
203768 8.48556
203774 8.02119
203787 7.79092
203812 7.69909
203863 7.67894
203964 7.70822
204167 7.79239
204574 7.94882
205386 8.15568
207011 8.15198
210260 7.24234
212767 6.43302
215275 5.75999
217782 5.22840
219036 5.00681
219662 4.90523
219976 4.85547
220132 4.82930
220211 4.81638
220250 4.82223
220270 4.87825
220279 5.03970
220284 5.31751
220289 6.13344
220294 7.80027
220300 6.48072
220303 5.77111
220307 5.41635
220313 5.11340
220327 4.93844
220355 4.85742
220410 4.81910
220520 4.79158
220740 4.75658
221180 4.69828
222059 4.60945
222499 4.59292
222719 4.60187
222939 4.63433
223159 4.71337
223379 4.89774
223489 5.07513
223599 5.36710
223709 5.86820
223819 6.74529
224055 9.48306
224173 8.65295
224291 7.06011
224419 5.92246
224546 5.30235
224674 4.95110
224801 4.73625
225057 4.49540
225312 4.36458
225567 4.28000
225822 4.21814
226333 4.12697
227353 3.99554
228374 3.88886
230416 3.70432
232457 3.54042
240624 2.98377
248790 2.47797
250831 2.34763
252873 2.21607
253894 2.15572
254915 2.12014
255425 2.13727
255935 2.23747
256191 2.37057
256446 2.64277
256701 3.23789
256829 3.78417
256956 4.61467
257156 6.60986
257356 8.23780
257556 7.35160
257756 5.58237
257942 4.41133
258128 3.68331
258314 3.22324
258500 2.91839
258872 2.55037
259244 2.33999
259615 2.20432
259801 2.15384
259987 2.11308
260173 2.08406
260359 2.07883
260452 2.10063
260545 2.17501
260592 2.26542
260638 2.45172
260661 2.62237
260685 2.89487
260708 3.35133
260731 4.12827
260756 5.43220
260782 6.30118
260807 5.42776
260833 4.11792
260863 3.17631
260893 2.69419
260922 2.43328
260952 2.28006
261012 2.11625
261071 2.03416
261190 1.95276
261309 1.91001
261548 1.85822
261786 1.82133
262262 1.76162
262739 1.70981
263691 1.61733
264644 1.53407
266550 1.39258
267026 1.36612
267503 1.35083
267741 1.35503
267979 1.38655
268098 1.43288
268158 1.47549
268217 1.54387
268277 1.66140
268336 1.88168
268366 2.06832
268396 2.34768
268426 2.77754
268455 3.43772
268495 4.73572
268535 5.59892
268575 4.73198
268615 3.43527
268651 2.66647
268687 2.21039
268723 1.93407
268758 1.75869
268830 1.56055
268902 1.45853
268973 1.39913
269045 1.36148
269188 1.31763
269475 1.27877
269761 1.26233
270908 1.26394
273200 1.51390
274973 2.05448
276745 3.02643
278518 4.36793
280290 5.69602
283835 6.84620
287380 6.45336
290329 5.89206
293278 5.39412
296226 4.99687
299175 4.69297
302124 4.47577
305073 4.35798
308021 4.40207
309496 4.53620
310970 4.79562
313010 5.37927
315050 5.72850
319130 4.46474
320750 4.05326
322370 3.77051
325611 3.41867
328851 3.20067
332092 3.04131
338572 2.80032
341813 2.70069
343433 2.65588
344243 2.63994
344446 2.64064
344648 2.65113
344749 2.66784
344851 2.70989
344901 2.75644
344952 2.84785
345002 3.05553
345028 3.26195
345053 3.60228
345083 4.19950
345112 4.59648
345141 4.19890
345171 3.60338
345200 3.22044
345230 3.00516
345288 2.80416
345347 2.72008
345406 2.67770
345523 2.63747
345641 2.61865
345876 2.59973
346111 2.58870
347050 2.55973
348930 2.51365
352689 2.44178
354569 2.42276
356448 2.42763
357388 2.44588
358328 2.48210
358797 2.51059
359267 2.55069
359502 2.57857
359737 2.61817
359972 2.69277
360090 2.77491
360148 2.84700
360207 2.95817
360344 3.27666
360413 3.15669
360482 2.96810
360546 2.86054
360609 2.80420
360736 2.76377
360989 2.77429
361243 2.81832
361497 2.87658
362004 3.02748
362511 3.23090
363526 3.87382
364540 5.05043
365750 7.54586
366850 10.0546
367950 10.4199
369160 8.40719
370150 6.66152
371268 5.37473
372385 4.67572
373503 4.41492
374620 4.64993
375345 5.18649
376070 5.76124
376800 5.15171
377530 3.77534
378489 2.71102
379448 2.22824
380407 1.93910
381366 1.70233
382325 1.45840
383284 1.17086
384243 0.839686
384723 0.721157
384962 0.721440
385202 0.808035
385490 1.10740
385778 1.72129
386354 3.68781
386930 4.83222
387505 4.77765
388005 4.46004
388505 4.14911
389506 3.68637
391506 3.19659
395508 2.87124
399509 2.88241
403510 3.13963
405190 3.33120
410470 4.28987
415750 5.33138
417902 5.51346
418978 5.58847
419247 5.63890
419516 5.75106
419651 5.86563
419785 6.07399
419920 6.49267
419987 6.85998
420054 7.40144
420155 8.56396
420255 9.34572
420356 8.57275
420456 7.40462
420547 6.70432
420639 6.28922
420730 6.03762
420821 5.87718
421004 5.69326
421187 5.59456
421552 5.49125
421917 5.43371
423378 5.30095
426300 5.12919
429510 5.02498
436010 4.95196
442510 4.85663
449010 4.67389
455510 4.43791
466113 4.02507
468763 3.92387
471414 3.82971
472739 3.79274
474064 3.78184
474727 3.80517
475390 3.88416
475721 3.97102
476052 4.12522
476384 4.41107
476715 4.96107
477352 6.88532
477511 6.93572
477671 6.59437
477989 5.52918
478332 4.70670
478674 4.24937
479017 3.98686
479359 3.82284
480044 3.62919
480729 3.51157
482099 3.34702
483469 3.19914
484839 3.02786
486209 2.79509
486894 2.63789
487579 2.44370
488264 2.23290
488949 2.20973
488973 2.22037
489045 2.26019
489116 2.31363
489259 2.46893
489545 3.01209
489831 3.83432
490117 4.68201
490416 5.26690
491285 5.30051
491859 4.97784
492363 4.74192
492867 4.57610
493371 4.51517
493623 4.56768
493875 4.74630
494375 5.52359
494626 5.39344
494876 4.97976
495196 4.58830
495517 4.36106
495837 4.21912
496157 4.12095
496798 3.98842
497438 3.89744
500000 3.67834
503280 3.51425
507418 3.37160
511555 3.26034
513624 3.21553
515693 3.19184
517761 3.23457
519830 3.47640
521240 3.87988
523430 4.73354
523620 4.79209
524265 4.98431
524910 5.23977
526200 6.18511
527030 6.73377
528770 6.56097
530074 5.99537
531378 5.49999
532681 5.11536
533985 4.81877
536593 4.39845
539200 4.11691
542500 3.87364
544150 3.78471
544975 3.75109
545388 3.75230
545594 3.79741
545697 3.89957
545749 4.03712
545800 4.34410
545837 4.72854
545875 4.98650
545912 4.73452
545949 4.35484
545982 4.13038
546016 4.00071
546083 3.89237
546149 3.92331
546183 4.03780
546216 4.34149
546240 4.74571
546264 5.00981
546312 4.40657
546341 4.13678
546370 3.99223
546427 3.85833
546541 3.76805
546769 3.71552
547225 3.67992
548137 3.64457
549962 3.60200
553611 3.58433
557261 3.67871
560910 3.95242
569530 5.34682
573845 5.01053
578160 3.92306
581050 3.24015
582495 2.96715
583940 2.86462
585086 3.18250
585660 3.61702
585946 3.94289
586018 4.05620
586090 4.21582
586161 4.52786
586197 4.86976
586233 5.56943
586240 5.78284
586263 6.56128
586286 7.02922
586312 6.51045
586339 5.71188
586373 5.10620
586407 4.83719
586476 4.66574
586545 4.64875
586614 4.67775
586889 4.88145
587439 5.17961
588540 5.06392
589585 4.61055
590630 4.17812
591675 3.82450
592197 3.67371
592459 3.60393
592589 3.57102
592654 3.55760
592687 3.56074
592703 3.59435
592712 3.70078
592716 3.93778
592720 5.17992
592722 6.82062
592724 5.17677
592729 3.87091
592734 3.66333
592743 3.57152
592762 3.53751
592799 3.51997
592873 3.49963
593021 3.46349
593317 3.39469
593910 3.26687
595095 3.05085
596280 2.95121
596873 3.08174
597169 3.29530
597465 3.72278
597852 4.78863
598239 5.96237
598626 5.85112
599013 5.00162
599497 4.15630
599981 3.64354
600465 3.31833
600949 3.09310
601918 2.79099
602402 2.68412
602644 2.65375
602765 2.69318
602825 2.84557
602856 3.14654
602871 3.52260
602886 4.30648
602898 5.34448
602910 6.04556
602922 5.35767
602933 4.31299
602952 3.39344
602971 3.01796
603009 2.74729
603084 2.60736
603235 2.53568
603536 2.47167
604138 2.37614
605342 2.22140
607750 2.03646
609455 2.05834
611160 2.28855
614570 3.38320
617980 4.27119
621390 4.40019
626578 4.11937
631765 3.84369
634359 3.75854
636953 3.73577
639546 3.83012
642140 4.16871
644720 4.93676
647300 5.87062
650175 6.24160
651968 6.83242
652470 6.79917
653760 5.82201
654144 5.58659
654337 5.57745
654433 5.70508
654481 5.88515
654529 6.25625
654609 7.13261
654650 6.78454
654690 6.25546
654724 5.97554
654757 5.82416
654824 5.75367
654891 5.90607
654958 6.32401
655086 7.48509
655215 6.17868
655300 5.55076
655385 5.23811
655556 4.95216
655897 4.71898
656580 4.48526
657945 4.20017
660675 3.85801
663405 3.64222
666134 3.48739
671594 3.27113
677054 3.12029
682514 3.00584
687974 2.91816
693434 2.86273
696164 2.85833
697529 2.86748
698211 2.87573
698552 2.88094
698723 2.88853
698808 2.91340
698851 2.97638
698894 3.33885
698921 3.87154
698948 3.42043
698978 3.12450
699007 3.02328
699066 2.95719
699183 2.92692
699417 2.91957
699886 2.92994
700824 2.97221
701762 3.03940
702700 3.14460
703449 3.27639
704197 3.49510
704571 3.67123
704946 3.93858
705320 4.38323
705694 5.17792
706342 7.00659
706667 6.30469
706991 5.18735
707351 4.44188
707710 4.07559
708023 3.90581
708335 3.80197
708960 3.67520
710210 3.47905
711460 3.24082
712085 3.09404
712710 2.91542
713077 2.78694
713443 2.63360
713810 2.45682
714176 2.30831
714540 2.42362
714721 2.69712
714903 3.07927
715267 3.67563
715631 3.82207
715920 3.79022
716210 3.72358
716788 3.58654
717367 3.47533
717946 3.38803
719103 3.25995
720260 3.16712
722490 3.02080
723048 2.97942
723605 2.93022
724163 2.87911
724441 2.88245
724581 2.91891
724720 3.01159
724943 3.36001
725055 3.59402
725166 3.76884
725612 3.67012
725850 3.53101
726088 3.43139
726325 3.36122
726563 3.31026
727039 3.24217
727514 3.19903
728466 3.14771
729417 3.11869
733222 3.08020
740831 3.12648
748441 3.26557
752245 3.42892
754148 3.60224
756050 3.93383
759350 4.71187
762650 3.94429
762720 3.92808
762936 3.88018
763152 3.83555
763584 3.75582
764449 3.63267
764881 3.59063
765313 3.57074
765529 3.57978
765745 3.62461
765853 3.67961
765961 3.78619
766069 4.00871
766123 4.20735
766177 4.50358
766257 5.13947
766337 5.57128
766417 5.15346
766498 4.51558
766572 4.12619
766645 3.89595
766793 3.66734
766941 3.56514
767089 3.51053
767385 3.45531
767681 3.42841
768272 3.40604
768864 3.40606
770047 3.46311
771230 3.62200
774590 4.77612
777960 4.99838
779814 5.33029
780540 5.64750
782104 6.64085
784393 7.50521
786110 7.76224
786710 7.74765
787953 7.54617
789195 7.20971
791680 6.53806
795255 5.88998
798830 5.44877
805190 4.82111
808363 4.53164
811535 4.23278
814708 3.90245
816294 3.72734
817880 3.57577
818558 3.53778
819236 3.53480
819575 3.55470
819914 3.60116
820084 3.64525
820254 3.72546
820338 3.79720
820423 3.91764
820508 4.14550
820593 4.61764
820658 5.23055
820723 5.65325
820788 5.28492
820853 4.71230
820933 4.29035
821013 4.08854
821173 3.94203
821332 3.91204
821492 3.92077
821811 3.98025
822130 4.06061
823193 4.33935
824255 4.53671
826380 4.64579
828708 4.55917
831035 4.42750
833363 4.29923
835690 4.18423
840345 4.00615
842673 3.96597
843836 3.97744
845000 4.03559
845000 3.91901
848000 4.28400
849000 4.63800
850000 5.27200
850500 5.67300
851000 5.98700
851500 6.03700
852000 5.79400
853000 5.07100
854000 4.61300
855000 4.41900
856000 4.39900
857000 4.54300
859000 5.17800
859500 5.14400
860000 4.97200
861000 4.54000
862000 4.24800
863000 4.11300
864000 4.07800
864500 4.14700
865000 4.28700
866000 3.96800
868000 3.85500
870000 3.85100
872000 3.94600
874000 4.16500
875000 4.32260
875292 4.37004
875293 4.37006
876000 4.48600
877000 4.57300
878000 4.52200
882000 3.80600
885000 3.52200
890000 3.28600
895000 3.12500
900000 3.02900
905000 2.91400
908000 2.78700
910000 2.65800
912000 2.47600
914000 2.23000
915000 2.15700
915500 2.16600
916000 2.21900
916500 2.32400
917000 2.47500
918000 2.84400
919000 3.12500
920000 3.19600
921000 3.11200
922000 2.97900
924000 2.79200
925000 2.78800
926000 2.84300
927000 2.98900
928000 3.23700
929000 3.65300
930000 4.21100
930500 4.38500
931000 4.35800
931500 4.14700
932000 3.86100
933000 3.36300
934000 3.03600
936000 2.61200
937000 2.45600
938000 2.37900
939000 2.42300
940000 2.56400
942000 2.89700
944000 3.14100
946000 3.22700
950000 3.13500
955000 2.99400
964000 2.84600
966000 2.84800
968000 2.90500
969000 3.02200
969500 3.15700
970000 3.40800
970600 3.83400
970800 3.90100
971000 3.87400
971200 3.76600
971500 3.54600
972000 3.25200
972500 3.09400
973000 3.01500
974000 2.96800
976000 3.06700
979000 3.52100
980000 3.58800
981000 3.49100
984000 2.91800
986000 2.69900
990000 2.49700
995000 2.37300
1.00000E+06 2.36700
1.00500E+06 2.52300
1.01000E+06 2.88400
1.01600E+06 3.43400
1.01800E+06 3.57100
1.02000E+06 3.62600
1.02400E+06 3.52200
1.02500E+06 3.53800
1.02600E+06 3.61400
1.02650E+06 3.59000
1.02800E+06 3.22800
1.02900E+06 3.06400
1.03200E+06 2.80800
1.03400E+06 2.61100
1.03600E+06 2.46700
1.03800E+06 2.50600
1.03900E+06 2.64400
1.04000E+06 2.87400
1.04200E+06 3.49200
1.04300E+06 3.72700
1.04400E+06 3.81400
1.04500E+06 3.76300
1.04800E+06 3.39900
1.05000E+06 3.25700
1.05237E+06 3.14319
1.05238E+06 3.14314
1.06000E+06 2.79200
1.07500E+06 2.13600
1.08000E+06 2.01900
1.08200E+06 2.06900
1.08400E+06 2.25000
1.08600E+06 2.55400
1.09000E+06 3.29100
1.09200E+06 3.55100
1.09400E+06 3.58200
1.09800E+06 3.25400
1.10000E+06 3.11900
1.10200E+06 3.04500
1.10400E+06 3.06300
1.11000E+06 3.34600
1.11500E+06 3.53200
1.12000E+06 3.59900
1.14000E+06 3.56200
1.14500E+06 3.63500
1.14700E+06 3.72800
1.14800E+06 3.81400
1.14850E+06 3.88800
1.14900E+06 4.00500
1.14950E+06 4.22200
1.15000E+06 4.64400
1.15020E+06 4.83700
1.15040E+06 4.94200
1.15060E+06 4.89500
1.15100E+06 4.57100
1.15150E+06 4.29600
1.15200E+06 4.19500
1.15300E+06 4.18100
1.15400E+06 4.24300
1.16200E+06 5.16100
1.16400E+06 5.32300
1.16600E+06 5.37200
1.16800E+06 5.29700
1.17200E+06 4.89800
1.17400E+06 4.67400
1.17600E+06 4.50200
1.17800E+06 4.46600
1.17900E+06 4.51900
1.18000E+06 4.52100
1.18100E+06 4.36100
1.18200E+06 4.14900
1.18400E+06 3.86200
1.18600E+06 3.70300
1.19100E+06 3.48600
1.19200E+06 3.45700
1.19300E+06 3.53300
1.19500E+06 3.79700
1.19600E+06 3.70600
1.19700E+06 3.53800
1.19800E+06 3.42300
1.20000E+06 3.31400
1.21000E+06 3.14500
1.22500E+06 3.17500
1.23000E+06 3.14900
1.23500E+06 3.25500
1.23800E+06 3.40100
1.24000E+06 3.39500
1.24400E+06 3.12100
1.24800E+06 2.92200
1.25000E+06 3.03000
1.25100E+06 3.19300
1.25200E+06 3.43500
1.25300E+06 3.73100
1.25400E+06 3.91100
1.25500E+06 3.81600
1.25600E+06 3.61600
1.25700E+06 3.48700
1.25800E+06 3.45400
1.25900E+06 3.50100
1.26200E+06 3.85500
1.26300E+06 3.87800
1.26400E+06 3.79200
1.26600E+06 3.47800
1.26800E+06 3.23400
1.27000E+06 3.09900
1.27500E+06 2.99500
1.27800E+06 2.98100
1.28000E+06 2.88800
1.28300E+06 2.66100
1.28400E+06 2.60700
1.28500E+06 2.61400
1.28600E+06 2.68800
1.28700E+06 2.80900
1.28800E+06 2.96900
1.29000E+06 3.38200
1.29100E+06 3.32800
1.29200E+06 3.15900
1.29500E+06 2.95400
1.30000E+06 2.80800
1.31000E+06 2.60000
1.31400E+06 2.63100
1.31600E+06 2.68200
1.32000E+06 2.87400
1.32200E+06 2.86200
1.32500E+06 2.68400
1.33000E+06 2.52700
1.33500E+06 2.50600
1.34000E+06 2.61700
1.34100E+06 2.68500
1.34200E+06 2.78100
1.34350E+06 3.19700
1.34400E+06 3.26500
1.34450E+06 3.22900
1.34600E+06 2.83600
1.34700E+06 2.65600
1.34800E+06 2.50500
1.34900E+06 2.42000
1.35000E+06 2.40700
1.35100E+06 2.46900
1.35200E+06 2.59200
1.35300E+06 2.68800
1.35500E+06 2.98100
1.35600E+06 3.01700
1.35700E+06 2.89600
1.35800E+06 2.73000
1.36000E+06 2.51200
1.36200E+06 2.38900
1.36400E+06 2.30200
1.36600E+06 2.29200
1.36800E+06 2.36200
1.36900E+06 2.42600
1.37100E+06 2.62900
1.37400E+06 2.99300
1.37500E+06 3.08100
1.38000E+06 3.26400
1.38100E+06 3.21600
1.38700E+06 3.31800
1.39000E+06 3.45300
1.39500E+06 3.79300
1.39600E+06 4.00500
1.39700E+06 4.06100
1.39800E+06 4.04600
1.40000E+06 3.91500
1.40100E+06 3.85900
1.40300E+06 3.59000
1.40600E+06 3.29300
1.41000E+06 3.03500
1.41400E+06 2.87600
1.41800E+06 2.80300
1.42200E+06 2.81200
1.42400E+06 2.85400
1.42600E+06 2.95200
1.42700E+06 3.03000
1.43000E+06 3.43300
1.43400E+06 4.07600
1.43600E+06 4.29200
1.43800E+06 4.26900
1.44000E+06 4.04200
1.44200E+06 3.76200
1.44400E+06 3.53500
1.44600E+06 3.40900
1.44800E+06 3.44800
1.45000E+06 3.77400
1.45100E+06 3.82700
1.45300E+06 3.36400
1.45400E+06 3.19800
1.45600E+06 3.03200
1.46000E+06 2.92500
1.47000E+06 2.92000
1.48000E+06 2.84600
1.50000E+06 2.91000
1.51000E+06 2.99300
1.52000E+06 3.23500
1.52500E+06 3.28100
1.52800E+06 3.34400
1.53000E+06 3.43700
1.53200E+06 3.58500
1.53800E+06 4.21300
1.54000E+06 4.26600
1.54200E+06 4.12900
1.54400E+06 3.85600
1.54800E+06 3.25800
1.55000E+06 3.02200
1.55200E+06 2.83300
1.55400E+06 2.72400
1.55600E+06 2.70500
1.55850E+06 2.79800
1.55900E+06 2.85700
1.55940E+06 3.05900
1.55980E+06 3.36700
1.56000E+06 3.42600
1.56020E+06 3.34100
1.56060E+06 3.04800
1.56100E+06 2.87900
1.56150E+06 2.79100
1.56200E+06 2.75800
1.56400E+06 2.76000
1.56600E+06 2.81300
1.57500E+06 3.15700
1.58000E+06 3.09300
1.58500E+06 2.91700
1.59100E+06 2.77600
1.59500E+06 2.74800
1.59800E+06 2.82300
1.59900E+06 2.91600
1.60000E+06 3.10800
1.60100E+06 3.32300
1.60200E+06 3.47000
1.60300E+06 3.51400
1.60400E+06 3.49000
1.60500E+06 3.36100
1.61000E+06 3.09100
1.62000E+06 2.64300
1.62400E+06 2.59500
1.62500E+06 2.65600
1.62700E+06 2.96300
1.62800E+06 3.09200
1.62900E+06 3.09900
1.63000E+06 2.98200
1.63100E+06 2.83300
1.63200E+06 2.71400
1.63400E+06 2.61000
1.63600E+06 2.70600
1.63700E+06 2.79800
1.63800E+06 2.75400
1.64000E+06 2.52000
1.64200E+06 2.43400
1.64400E+06 2.39200
1.64800E+06 2.37300
1.65000E+06 2.37400
1.65400E+06 2.44800
1.65800E+06 2.58400
1.66400E+06 2.84600
1.66600E+06 2.97100
1.67000E+06 3.01100
1.67400E+06 2.80300
1.67600E+06 2.73800
1.67800E+06 2.76000
1.68200E+06 2.95100
1.70000E+06 3.18600
1.70800E+06 3.38300
1.72400E+06 3.44800
1.72800E+06 3.39200
1.73000E+06 3.29300
1.73150E+06 3.14300
1.73350E+06 2.83500
1.73400E+06 2.77600
1.73450E+06 2.75000
1.73500E+06 2.76700
1.73550E+06 2.82700
1.73650E+06 3.03200
1.73900E+06 3.58300
1.74300E+06 4.31700
1.74400E+06 4.41500
1.74500E+06 4.41000
1.74800E+06 4.09800
1.75000E+06 3.82521
1.75200E+06 3.56600
1.75400E+06 3.39300
1.75800E+06 3.16700
1.76200E+06 3.02300
1.77600E+06 2.66800
1.77800E+06 2.64600
1.78200E+06 2.65500
1.78400E+06 2.69000
1.78600E+06 2.62800
1.80000E+06 2.50000
1.82800E+06 2.27400
1.83850E+06 2.19400
1.84250E+06 2.10400
1.84600E+06 1.99200
1.84700E+06 1.99800
1.84800E+06 2.04900
1.84900E+06 2.15000
1.85050E+06 2.38000
1.85300E+06 2.88800
1.85450E+06 3.18000
1.85550E+06 3.30000
1.85650E+06 3.32200
1.85750E+06 3.24800
1.86100E+06 2.75100
1.86400E+06 2.43500
1.86600E+06 2.33800
1.87400E+06 2.40800
1.88000E+06 2.53400
1.88600E+06 2.70600
1.88800E+06 2.81500
1.89000E+06 2.85200
1.89200E+06 2.95000
1.89600E+06 3.30200
1.89691E+06 3.36961
1.89691E+06 3.36966
1.90000E+06 3.49600
1.90200E+06 3.47300
1.90400E+06 3.35000
1.90800E+06 3.04500
1.91000E+06 2.96500
1.91400E+06 2.91700
1.92000E+06 2.92100
1.92400E+06 2.99600
1.93000E+06 3.04100
1.93200E+06 3.08500
1.93800E+06 3.38600
1.94600E+06 3.46700
1.95000E+06 3.58600
1.95200E+06 3.59500
1.95400E+06 3.54000
1.95600E+06 3.40300
1.96000E+06 3.04300
1.96200E+06 2.90900
1.96800E+06 2.63700
1.97200E+06 2.44000
1.97400E+06 2.36200
1.97600E+06 2.36300
1.98000E+06 2.45600
1.98200E+06 2.52500
1.98400E+06 2.62900
1.99000E+06 3.07700
1.99200E+06 3.20700
1.99400E+06 3.27100
1.99600E+06 3.29200
1.99800E+06 3.23800
2.00000E+06 3.22500
2.00200E+06 3.30400
2.00400E+06 3.44200
2.00600E+06 3.62200
2.00800E+06 3.75900
2.01000E+06 3.82600
2.01200E+06 3.80400
2.01600E+06 3.65500
2.02400E+06 3.53900
2.03000E+06 3.36300
2.03400E+06 3.21100
2.03600E+06 3.06400
2.03800E+06 2.99300
2.04000E+06 3.06600
2.04200E+06 3.17000
2.04550E+06 3.48300
2.04750E+06 3.71300
2.04850E+06 3.75700
2.04950E+06 3.71800
2.05000E+06 3.67000
2.05450E+06 3.07900
2.06050E+06 2.38400
2.06150E+06 2.30800
2.06250E+06 2.28500
2.06350E+06 2.32100
2.06500E+06 2.46100
2.06850E+06 2.84400
2.07150E+06 3.05700
2.07600E+06 3.23900
2.08400E+06 3.42100
2.08600E+06 3.53200
2.08800E+06 3.56700
2.09200E+06 3.53900
2.09800E+06 3.35900
2.10000E+06 3.28700
2.10400E+06 3.15800
2.10600E+06 3.11500
2.10800E+06 3.11500
2.11200E+06 2.89200
2.11600E+06 2.86500
2.12200E+06 2.94300
2.12800E+06 2.99200
2.13600E+06 2.90800
2.13800E+06 2.91700
2.14000E+06 2.83200
2.14200E+06 2.85800
2.15000E+06 3.09900
2.16000E+06 3.46000
2.16400E+06 3.54000
2.16600E+06 3.66800
2.16800E+06 3.57300
2.17200E+06 3.29200
2.18200E+06 3.31000
2.18400E+06 3.25100
2.18800E+06 3.03600
2.19200E+06 2.89800
2.19400E+06 2.88300
2.19600E+06 2.91300
2.19800E+06 2.99200
2.20000E+06 3.12100
2.20400E+06 3.38600
2.20600E+06 3.44300
2.20800E+06 3.43600
2.21000E+06 3.33800
2.21400E+06 3.06500
2.21600E+06 2.96100
2.21800E+06 2.94300
2.22400E+06 3.04900
2.22800E+06 3.01400
2.23200E+06 2.89100
2.23600E+06 2.85800
2.24000E+06 2.91100
2.24600E+06 3.17500
2.25000E+06 3.21900
2.25400E+06 3.14000
2.25800E+06 3.03400
2.26600E+06 3.03100
2.27600E+06 3.17300
2.28000E+06 3.16500
2.28800E+06 3.05200
2.29376E+06 3.10301
2.29376E+06 3.10302
2.30000E+06 3.15900
2.31000E+06 3.25300
2.31200E+06 3.21700
2.31600E+06 3.03800
2.32200E+06 2.69500
2.32600E+06 2.58400
2.32800E+06 2.58500
2.33000E+06 2.62600
2.33200E+06 2.70800
2.33600E+06 2.93200
2.33800E+06 3.02100
2.34000E+06 3.06700
2.34400E+06 3.05600
2.34600E+06 2.95400
2.34800E+06 2.95400
2.35000E+06 3.02200
2.35200E+06 3.08700
2.35400E+06 3.07900
2.35600E+06 2.97100
2.35800E+06 2.78500
2.36200E+06 2.48900
2.36400E+06 2.38100
2.36600E+06 2.32600
2.37400E+06 2.25600
2.38000E+06 2.14700
2.38400E+06 2.13500
2.38800E+06 2.19100
2.39200E+06 2.32700
2.39800E+06 2.61200
2.40000E+06 2.68600
2.40200E+06 2.74500
2.40600E+06 2.77300
2.41200E+06 2.75100
2.41600E+06 2.79700
2.41800E+06 2.82800
2.42000E+06 2.90000
2.42200E+06 2.91700
2.42400E+06 2.84600
2.42600E+06 2.71100
2.43200E+06 2.40300
2.43400E+06 2.33800
2.44600E+06 2.13000
2.45000E+06 2.08600
2.45400E+06 2.07300
2.45800E+06 2.13100
2.46400E+06 2.33000
2.46800E+06 2.51000
2.48200E+06 3.30400
2.49000E+06 3.62700
2.50000E+06 3.96600
2.50200E+06 4.04700
2.50600E+06 4.08800
2.51000E+06 4.01300
2.51600E+06 3.83400
2.52000E+06 3.84700
2.52600E+06 3.86800
2.53000E+06 3.74400
2.53400E+06 3.50400
2.53600E+06 3.35400
2.54000E+06 3.19200
2.54600E+06 3.03800
2.54800E+06 3.01400
2.55000E+06 3.03100
2.55200E+06 3.10300
2.55400E+06 3.20800
2.55600E+06 3.36700
2.56200E+06 3.95800
2.56400E+06 4.08600
2.56600E+06 4.15400
2.57000E+06 4.14500
2.59000E+06 3.54800
2.60000E+06 3.15100
2.60500E+06 2.97900
2.61000E+06 2.86300
2.61500E+06 2.82500
2.62000E+06 2.85700
2.63000E+06 3.00100
2.63500E+06 2.99600
2.64000E+06 2.96100
2.64500E+06 2.99500
2.65000E+06 3.09900
2.65500E+06 3.25100
2.66000E+06 3.31600
2.66500E+06 3.21800
2.67000E+06 2.96500
2.67500E+06 2.61800
2.68000E+06 2.44300
2.68500E+06 2.45500
2.69500E+06 2.73700
2.70000E+06 2.77600
2.70500E+06 2.72900
2.71500E+06 2.78900
2.72500E+06 2.85900
2.73500E+06 2.75600
2.74000E+06 2.69600
2.74500E+06 2.72700
2.75000E+06 2.79300
2.75500E+06 2.84600
2.76500E+06 2.81900
2.77000E+06 2.99600
2.78000E+06 3.58900
2.78500E+06 3.63300
2.79000E+06 3.48600
2.79500E+06 3.27000
2.80000E+06 3.02100
2.80500E+06 2.79400
2.81000E+06 2.60800
2.82500E+06 2.42600
2.83704E+06 2.30311
2.84500E+06 2.22600
2.85000E+06 2.20199
2.85500E+06 2.19799
2.86000E+06 2.22699
2.86500E+06 2.36898
2.87000E+06 2.54998
2.87500E+06 2.64198
2.88000E+06 2.61597
2.88500E+06 2.49697
2.89000E+06 2.42397
2.89500E+06 2.52996
2.90000E+06 2.74596
2.90500E+06 2.93196
2.91000E+06 2.95795
2.91500E+06 2.83095
2.91838E+06 2.66558
2.91838E+06 2.66553
2.92000E+06 2.59095
2.92500E+06 2.44695
2.93000E+06 2.44196
2.93500E+06 2.49696
2.94000E+06 2.49296
2.94500E+06 2.43997
2.95000E+06 2.35997
2.95500E+06 2.38397
2.96500E+06 2.55898
2.97000E+06 2.58598
2.98000E+06 2.57299
2.98500E+06 2.63399
2.99500E+06 2.81500
3.00000E+06 2.88500
3.00500E+06 2.93700
3.01000E+06 2.94200
3.01500E+06 2.89600
3.02000E+06 2.72700
3.02500E+06 2.51500
3.03000E+06 2.39000
3.04500E+06 2.28000
3.05000E+06 2.21400
3.05500E+06 2.20100
3.06000E+06 2.27500
3.07000E+06 2.47800
3.08500E+06 2.53600
3.09254E+06 2.59919
3.09255E+06 2.59919
3.09500E+06 2.62000
3.10000E+06 2.63200
3.10500E+06 2.61100
3.11000E+06 2.55500
3.11630E+06 2.44851
3.11630E+06 2.44849
3.12000E+06 2.38800
3.12500E+06 2.37100
3.13000E+06 2.46000
3.13500E+06 2.62300
3.14000E+06 2.75000
3.14500E+06 2.79000
3.15000E+06 2.66700
3.15500E+06 2.41000
3.16000E+06 2.19900
3.16500E+06 2.07200
3.17000E+06 2.05400
3.17500E+06 2.13400
3.18500E+06 2.42600
3.19000E+06 2.53500
3.20000E+06 2.67800
3.20500E+06 2.73500
3.21000E+06 2.74400
3.21500E+06 2.68600
3.22500E+06 2.42300
3.23000E+06 2.37100
3.23500E+06 2.37800
3.24500E+06 2.51200
3.24735E+06 2.55221
3.24735E+06 2.55223
3.25000E+06 2.59800
3.26000E+06 2.75100
3.26500E+06 2.78400
3.27000E+06 2.76900
3.27500E+06 2.66700
3.28000E+06 2.53100
3.28500E+06 2.42300
3.29000E+06 2.38400
3.30000E+06 2.40100
3.30500E+06 2.33800
3.31000E+06 2.30500
3.32000E+06 2.31600
3.33000E+06 2.39600
3.35000E+06 2.55200
3.35500E+06 2.53900
3.36000E+06 2.55600
3.36500E+06 2.58200
3.37000E+06 2.65700
3.38000E+06 2.81300
3.38500E+06 2.85400
3.39000E+06 2.83400
3.39500E+06 2.76600
3.40000E+06 2.65200
3.41000E+06 2.47000
3.42000E+06 2.34200
3.42500E+06 2.29900
3.43500E+06 2.28500
3.45000E+06 2.39800
3.46000E+06 2.47200
3.46500E+06 2.48000
3.47000E+06 2.45800
3.48500E+06 2.46100
3.49000E+06 2.49600
3.49500E+06 2.53200
3.50000E+06 2.53500
3.51000E+06 2.46202
3.52000E+06 2.29504
3.52500E+06 2.24605
3.53000E+06 2.24306
3.53500E+06 2.27407
3.55500E+06 2.48211
3.56000E+06 2.51812
3.57500E+06 2.80515
3.58000E+06 2.87216
3.59000E+06 2.88418
3.60000E+06 2.78320
3.61000E+06 2.78722
3.62000E+06 2.86224
3.62500E+06 2.83625
3.63000E+06 2.77126
3.64000E+06 2.51728
3.64500E+06 2.41429
3.65000E+06 2.33730
3.65838E+06 2.26324
3.65839E+06 2.26323
3.66000E+06 2.25031
3.67000E+06 2.17528
3.67500E+06 2.15726
3.68000E+06 2.17924
3.68500E+06 2.22422
3.69500E+06 2.39119
3.70000E+06 2.48817
3.70500E+06 2.57816
3.71000E+06 2.64114
3.71500E+06 2.66512
3.72000E+06 2.65010
3.72500E+06 2.59609
3.73500E+06 2.42605
3.73730E+06 2.40076
3.73730E+06 2.40075
3.74000E+06 2.39403
3.75000E+06 2.45600
3.76500E+06 2.58700
3.78000E+06 2.62300
3.79500E+06 2.56300
3.80000E+06 2.52800
3.81000E+06 2.47400
3.81768E+06 2.46750
3.81768E+06 2.46750
3.82500E+06 2.45099
3.83170E+06 2.40950
3.83170E+06 2.40949
3.83500E+06 2.38197
3.84500E+06 2.28395
3.85000E+06 2.25193
3.86000E+06 2.23891
3.87500E+06 2.27288
3.88000E+06 2.26987
3.89000E+06 2.27885
3.89500E+06 2.32084
3.90000E+06 2.39083
3.90943E+06 2.50275
3.90943E+06 2.50275
3.91000E+06 2.50782
3.91500E+06 2.50483
3.93000E+06 2.39086
3.94500E+06 2.40089
3.95000E+06 2.41190
3.97000E+06 2.29494
3.98000E+06 2.30296
3.99000E+06 2.37198
3.99500E+06 2.41699
4.00000E+06 2.42800
4.02000E+06 2.47700
4.03000E+06 2.51100
4.05000E+06 2.45400
4.06500E+06 2.41100
4.07500E+06 2.43700
4.09000E+06 2.40100
4.10000E+06 2.32800
4.10472E+06 2.32423
4.10472E+06 2.32422
4.11000E+06 2.32000
4.12000E+06 2.40200
4.12500E+06 2.42300
4.13000E+06 2.41400
4.14000E+06 2.32100
4.14500E+06 2.27100
4.15000E+06 2.25600
4.15500E+06 2.27600
4.17000E+06 2.47000
4.17500E+06 2.51300
4.18500E+06 2.50200
4.20000E+06 2.30200
4.20586E+06 2.25423
4.20587E+06 2.25422
4.21500E+06 2.18200
4.24000E+06 2.13500
4.24500E+06 2.13800
4.25000E+06 2.16700
4.26000E+06 2.22300
4.27500E+06 2.22700
4.29000E+06 2.15400
4.29500E+06 2.15900
4.30000E+06 2.18700
4.32000E+06 2.36800
4.33000E+06 2.39500
4.34500E+06 2.34200
4.35000E+06 2.35100
4.37500E+06 2.42900
4.38000E+06 2.42500
4.39000E+06 2.33800
4.40000E+06 2.19800
4.42000E+06 1.95300
4.43000E+06 1.88000
4.44000E+06 1.87900
4.45000E+06 1.99000
4.46500E+06 2.22100
4.47000E+06 2.27600
4.47500E+06 2.27800
4.49500E+06 2.18400
4.50000E+06 2.18500
4.50500E+06 2.18000
4.52000E+06 2.25100
4.53000E+06 2.26800
4.54500E+06 2.10900
4.55000E+06 2.07900
4.56000E+06 2.06300
4.57000E+06 2.09400
4.57507E+06 2.09261
4.57507E+06 2.09261
4.60000E+06 2.08600
4.60500E+06 2.07900
4.62000E+06 2.13400
4.63500E+06 2.25000
4.63890E+06 2.28940
4.63890E+06 2.28941
4.64212E+06 2.32348
4.64212E+06 2.32349
4.64419E+06 2.34492
4.64419E+06 2.34493
4.64500E+06 2.35300
4.65000E+06 2.39500
4.66000E+06 2.39900
4.67891E+06 2.26530
4.67891E+06 2.26529
4.68000E+06 2.25800
4.70000E+06 2.15600
4.73000E+06 2.02600
4.74000E+06 2.06600
4.75000E+06 2.20000
4.75122E+06 2.22343
4.75122E+06 2.22345
4.76000E+06 2.39900
4.77000E+06 2.49000
4.78000E+06 2.47700
4.79000E+06 2.42400
4.80000E+06 2.32900
4.81644E+06 2.19762
4.81644E+06 2.19761
4.82000E+06 2.16800
4.83000E+06 2.06700
4.84000E+06 2.01200
4.85000E+06 2.00300
4.87000E+06 1.97700
4.88000E+06 2.00600
4.90000E+06 2.15300
4.91000E+06 2.21500
4.94000E+06 2.23400
4.95000E+06 2.16500
4.96000E+06 2.11200
4.97000E+06 2.10400
4.98000E+06 2.18500
4.99000E+06 2.29400
4.99158E+06 2.30556
5.00000E+06 2.36800
5.01000E+06 2.40297
5.03000E+06 2.33292
5.05000E+06 2.32587
5.07000E+06 2.25581
5.09000E+06 2.23276
5.10000E+06 2.25073
5.12255E+06 2.22087
5.12255E+06 2.22087
5.13000E+06 2.21269
5.15000E+06 2.20674
5.16247E+06 2.18675
5.16247E+06 2.18674
5.18000E+06 2.12682
5.20000E+06 1.98387
5.20328E+06 1.97033
5.21000E+06 1.95390
5.22000E+06 1.95692
5.23000E+06 2.00795
5.24000E+06 2.02997
5.25000E+06 2.03216
5.26000E+06 2.02500
5.27000E+06 1.99900
5.29000E+06 2.04800
5.30000E+06 2.09500
5.32000E+06 2.20600
5.33000E+06 2.27400
5.34906E+06 2.28727
5.34906E+06 2.28727
5.35000E+06 2.28600
5.37000E+06 2.23700
5.39000E+06 2.26000
5.40000E+06 2.23400
5.42000E+06 2.07900
5.43000E+06 2.01800
5.44000E+06 1.98300
5.44440E+06 1.99453
5.45192E+06 2.01466
5.47000E+06 2.06299
5.49000E+06 2.03599
5.50000E+06 1.99600
5.50213E+06 1.98753
5.50213E+06 1.98753
5.51000E+06 1.95812
5.51810E+06 1.94172
5.55000E+06 1.95433
5.56000E+06 1.96137
5.57000E+06 2.02141
5.58000E+06 2.13245
5.58916E+06 2.12618
5.58916E+06 2.12617
5.60000E+06 2.08532
5.61000E+06 2.03918
5.62252E+06 2.02075
5.62252E+06 2.02075
5.63590E+06 2.01590
5.64171E+06 2.01747
5.64171E+06 2.01747
5.66000E+06 2.03200
5.69000E+06 2.08000
5.70000E+06 2.07600
5.70540E+06 2.06384
5.70540E+06 2.06383
5.74000E+06 1.96300
5.75000E+06 1.94043
5.75821E+06 1.92841
5.75821E+06 1.92841
5.76000E+06 1.92700
5.78000E+06 1.98300
5.79788E+06 2.08816
5.79789E+06 2.08817
5.80000E+06 2.10000
5.81000E+06 2.14501
5.82434E+06 2.12089
5.82434E+06 2.12088
5.83000E+06 2.09701
5.84000E+06 2.04701
5.85000E+06 2.03101
5.85471E+06 2.03270
5.85471E+06 2.03271
5.86000E+06 2.05001
5.87885E+06 2.17013
5.89000E+06 2.23600
5.90000E+06 2.26500
5.90565E+06 2.26965
5.90565E+06 2.26965
5.92000E+06 2.26499
5.92611E+06 2.25829
5.95000E+06 2.20499
5.96630E+06 2.13533
5.96631E+06 2.13532
5.97000E+06 2.12000
6.00000E+06 2.11300
6.03000E+06 2.13700
6.04463E+06 2.08936
6.05000E+06 2.07300
6.06000E+06 2.06400
6.10000E+06 2.15000
6.11000E+06 2.15900
6.13000E+06 2.04500
6.14000E+06 1.96400
6.15000E+06 1.90900
6.17000E+06 1.85800
6.18000E+06 1.84700
6.18239E+06 1.84938
6.18239E+06 1.84938
6.20000E+06 1.89399
6.20184E+06 1.89701
6.20184E+06 1.89701
6.23000E+06 1.91300
6.25000E+06 1.99299
6.25960E+06 2.02519
6.26000E+06 2.02600
6.27362E+06 2.05171
6.27362E+06 2.05171
6.29000E+06 2.08300
6.30000E+06 2.07200
6.30729E+06 2.06506
6.30729E+06 2.06505
6.33647E+06 2.03619
6.34402E+06 2.02878
6.37000E+06 2.02000
6.38945E+06 2.04472
6.38945E+06 2.04472
6.40000E+06 2.06500
6.42000E+06 2.10501
6.45000E+06 2.21101
6.45953E+06 2.21361
6.45953E+06 2.21361
6.47000E+06 2.19901
6.48000E+06 2.17401
6.50000E+06 2.04700
6.52000E+06 1.96800
6.52203E+06 1.96591
6.54000E+06 1.97300
6.57000E+06 2.01899
6.58441E+06 2.02097
6.60000E+06 2.02199
6.61000E+06 2.02199
6.61991E+06 2.00180
6.65000E+06 1.86000
6.66000E+06 1.83400
6.68000E+06 1.86600
6.70000E+06 1.95200
6.70565E+06 1.97550
6.71945E+06 2.02819
6.72000E+06 2.03000
6.74531E+06 2.06818
6.75000E+06 2.06913
6.75524E+06 2.06652
6.77723E+06 2.03757
6.77723E+06 2.03756
6.78836E+06 2.01724
6.78836E+06 2.01724
6.79000E+06 2.01399
6.80000E+06 1.99099
6.83000E+06 1.95400
6.85000E+06 1.97000
6.85156E+06 1.97259
6.85223E+06 1.97383
6.89000E+06 2.05400
6.90000E+06 2.06300
6.90016E+06 2.06312
6.90016E+06 2.06312
6.90467E+06 2.06673
6.91000E+06 2.06698
6.94000E+06 1.99299
6.96000E+06 1.93400
6.96396E+06 1.92356
6.96396E+06 1.92356
6.97063E+06 1.90818
6.97063E+06 1.90818
6.99000E+06 1.89300
7.00000E+06 1.90500
7.01150E+06 1.91724
7.01150E+06 1.91724
7.01790E+06 1.92407
7.01790E+06 1.92407
7.02869E+06 1.93561
7.03000E+06 1.93700
7.04000E+06 1.93501
7.04055E+06 1.93399
7.04055E+06 1.93399
7.06669E+06 1.87197
7.06669E+06 1.87197
7.06894E+06 1.86596
7.06894E+06 1.86595
7.07000E+06 1.86300
7.07496E+06 1.84490
7.07496E+06 1.84490
7.07584E+06 1.84159
7.09000E+06 1.78499
7.10000E+06 1.81300
7.11287E+06 1.80653
7.11287E+06 1.80653
7.14000E+06 1.79300
7.20000E+06 1.84300
7.25000E+06 1.85873
7.26000E+06 1.85600
7.26225E+06 1.85484
7.26226E+06 1.85483
7.26226E+06 1.85483
7.26226E+06 1.85483
7.30000E+06 1.83400
7.32000E+06 1.82500
7.39000E+06 1.76100
7.40000E+06 1.76100
7.46000E+06 1.78400
7.50000E+06 1.82600
7.60000E+06 1.93200
7.66000E+06 1.92400
7.70000E+06 1.89300
7.75000E+06 1.82140
7.76000E+06 1.81100
7.80000E+06 1.79800
7.86000E+06 1.81100
7.88000E+06 1.77500
7.90000E+06 1.78100
7.92000E+06 1.84400
7.94000E+06 1.88800
7.98000E+06 1.88500
8.00000E+06 1.84200
8.08000E+06 1.74400
8.12000E+06 1.79000
8.14992E+06 1.75779
8.18000E+06 1.72800
8.20000E+06 1.72800
8.25000E+06 1.75338
8.30000E+06 1.77700
8.40000E+06 1.80100
8.50000E+06 1.80000
8.58137E+06 1.79269
8.58137E+06 1.79269
8.60000E+06 1.79100
8.70000E+06 1.76100
8.80000E+06 1.71400
8.95000E+06 1.67500
9.00000E+06 1.67200
9.20000E+06 1.68597
9.30000E+06 1.70695
9.32183E+06 1.71131
9.32183E+06 1.71131
9.40000E+06 1.72597
9.50000E+06 1.73100
9.60000E+06 1.72500
9.70000E+06 1.72700
9.80000E+06 1.73800
9.99607E+06 1.72372
1.00000E+07 1.72300
1.02000E+07 1.67799
1.02500E+07 1.66999
1.03500E+07 1.67699
1.03614E+07 1.68076
1.03614E+07 1.68076
1.04000E+07 1.69499
1.04670E+07 1.71392
1.05000E+07 1.72300
1.05500E+07 1.73500
1.06000E+07 1.72500
1.07535E+07 1.69563
1.07535E+07 1.69563
1.07675E+07 1.69301
1.07675E+07 1.69301
1.07860E+07 1.68956
1.07860E+07 1.68956
1.08000E+07 1.68699
1.09000E+07 1.68699
1.10000E+07 1.71600
1.11500E+07 1.75000
1.12000E+07 1.74700
1.12500E+07 1.75700
1.12887E+07 1.75002
1.12898E+07 1.74982
1.12898E+07 1.74982
1.13500E+07 1.73900
1.13571E+07 1.73810
1.13571E+07 1.73811
1.14000E+07 1.73999
1.14317E+07 1.74137
1.14317E+07 1.74137
1.15000E+07 1.74500
1.16000E+07 1.75899
1.17622E+07 1.74192
1.17622E+07 1.74191
1.18000E+07 1.73899
1.18967E+07 1.73489
1.18968E+07 1.73489
1.19522E+07 1.73271
1.20000E+07 1.73100
1.21764E+07 1.72621
1.22000E+07 1.72586
1.22028E+07 1.72583
1.23010E+07 1.73246
1.23010E+07 1.73246
1.24000E+07 1.73885
1.25000E+07 1.73585
1.26000E+07 1.73485
1.26278E+07 1.73468
1.26278E+07 1.73468
1.27635E+07 1.73401
1.27635E+07 1.73401
1.28000E+07 1.73391
1.29618E+07 1.73391
1.29618E+07 1.73391
1.30000E+07 1.73400
1.31421E+07 1.73451
1.32000E+07 1.73486
1.32697E+07 1.73547
1.33279E+07 1.73613
1.33279E+07 1.73613
1.34000E+07 1.73686
1.34084E+07 1.73690
1.35000E+07 1.73695
1.35450E+07 1.73790
1.35463E+07 1.73793
1.35464E+07 1.73793
1.36000E+07 1.73900
1.37500E+07 1.74130
1.37833E+07 1.74177
1.38000E+07 1.74200
1.39494E+07 1.74348
1.39494E+07 1.74348
1.40000E+07 1.74400
1.41298E+07 1.74704
1.41298E+07 1.74704
1.41953E+07 1.74800
1.41954E+07 1.74800
1.41956E+07 1.74800
1.41956E+07 1.74800
1.42000E+07 1.74800
1.42500E+07 1.74800
1.44000E+07 1.74800
1.44801E+07 1.74718
1.44801E+07 1.74718
1.45000E+07 1.74700
1.46000E+07 1.74700
1.47500E+07 1.74930
1.48000E+07 1.75000
1.48223E+07 1.75023
1.48223E+07 1.75023
1.48311E+07 1.75030
1.48311E+07 1.75030
1.50000E+07 1.75100
1.52000E+07 1.75317
1.52500E+07 1.75377
1.53437E+07 1.75475
1.53437E+07 1.75475
1.54000E+07 1.75536
1.55000E+07 1.75647
1.56000E+07 1.75757
1.58000E+07 1.75979
1.60000E+07 1.76190
1.62000E+07 1.76400
1.64000E+07 1.76610
1.65000E+07 1.76710
1.68000E+07 1.77010
1.70000E+07 1.77220
1.72000E+07 1.77410
1.72821E+07 1.77494
1.72822E+07 1.77494
1.74000E+07 1.77610
1.74279E+07 1.77638
1.74280E+07 1.77638
1.75000E+07 1.77710
1.76000E+07 1.77810
1.77810E+07 1.77982
1.78000E+07 1.78000
1.80000E+07 1.78190
1.82000E+07 1.78380
1.84000E+07 1.78570
1.85000E+07 1.78660
1.86000E+07 1.78750
1.88000E+07 1.78930
1.88945E+07 1.79026
1.90000E+07 1.79120
1.92000E+07 1.79293
1.94000E+07 1.79463
1.95000E+07 1.79548
1.95899E+07 1.79625
1.96000E+07 1.79634
2.00000E+07 1.80000
2.00000E+07 1.79999
2.09452E+07 1.81084
2.10000E+07 1.81148
2.13282E+07 1.81539
2.15394E+07 1.81795
2.20000E+07 1.82370
2.29082E+07 1.83515
2.30000E+07 1.83630
2.33497E+07 1.84068
2.40000E+07 1.84887
2.50000E+07 1.86102
2.53373E+07 1.86489
2.54920E+07 1.86662
2.55163E+07 1.86689
2.60000E+07 1.87213
2.70000E+07 1.88043
2.73136E+07 1.88223
2.80000E+07 1.88515
2.85532E+07 1.88636
2.90000E+07 1.88655
2.91676E+07 1.88647
3.00000E+07 1.88540
3.00414E+07 1.88533
3.10000E+07 1.88339
3.20000E+07 1.88085
3.20445E+07 1.88072
3.21504E+07 1.88041
3.30000E+07 1.87773
3.31217E+07 1.87731
3.33986E+07 1.87632
3.34659E+07 1.87607
3.37734E+07 1.87491
3.40000E+07 1.87401
3.48175E+07 1.87053
3.48303E+07 1.87047
3.50000E+07 1.86969
3.57643E+07 1.86535
3.60000E+07 1.86371
3.60437E+07 1.86339
3.67303E+07 1.85780
3.68945E+07 1.85631
3.70000E+07 1.85532
3.80000E+07 1.84492
3.90000E+07 1.83285
4.00000E+07 1.81943
4.08955E+07 1.80691
4.10000E+07 1.80546
4.16422E+07 1.79648
4.20000E+07 1.79148
4.29023E+07 1.77881
4.30000E+07 1.77744
4.38518E+07 1.76540
4.40000E+07 1.76330
4.46713E+07 1.75373
4.50000E+07 1.74902
4.60000E+07 1.73453
4.60540E+07 1.73374
4.62345E+07 1.73110
4.68100E+07 1.72264
4.70000E+07 1.71983
4.76784E+07 1.70977
4.80000E+07 1.70499
4.80189E+07 1.70470
4.85376E+07 1.69696
4.87769E+07 1.69338
4.90000E+07 1.69004
4.96833E+07 1.67980
4.97153E+07 1.67932
5.00000E+07 1.67505
5.10000E+07 1.65963
5.20000E+07 1.64354
5.25696E+07 1.63414
5.30000E+07 1.62696
5.40000E+07 1.61006
5.50000E+07 1.59300
5.53837E+07 1.58646
5.60000E+07 1.57603
5.70000E+07 1.55930
5.75286E+07 1.55052
5.80000E+07 1.54274
5.81285E+07 1.54062
5.90000E+07 1.52632
5.90699E+07 1.52518
6.00000E+07 1.51000
6.03172E+07 1.50484
6.10000E+07 1.49373
6.20000E+07 1.47752
6.30000E+07 1.46146
6.34321E+07 1.45457
6.40000E+07 1.44559
6.50000E+07 1.42996
6.60000E+07 1.41467
6.70000E+07 1.39968
6.80000E+07 1.38482
6.81426E+07 1.38271
6.84924E+07 1.37752
6.90000E+07 1.36998
7.00000E+07 1.35503
7.10000E+07 1.33994
7.20000E+07 1.32482
7.30000E+07 1.30973
7.39278E+07 1.29584
7.40000E+07 1.29476
7.50000E+07 1.27997
7.60000E+07 1.26549
7.70000E+07 1.25135
7.80000E+07 1.23745
7.90000E+07 1.22370
8.00000E+07 1.21002
8.10000E+07 1.19657
8.20000E+07 1.18355
8.30000E+07 1.17094
8.40000E+07 1.15874
8.50000E+07 1.14695
8.60000E+07 1.13558
8.70000E+07 1.12454
8.80000E+07 1.11368
8.90000E+07 1.10288
9.00000E+07 1.09200
9.10000E+07 1.08103
9.20000E+07 1.07006
9.30000E+07 1.05918
9.40000E+07 1.04846
9.50000E+07 1.03796
9.60000E+07 1.02768
9.70000E+07 1.01756
9.80000E+07 1.00759
9.90000E+07 0.997735
1.00000E+08 0.987990
1.02000E+08 0.968227
1.04000E+08 0.948348
1.06000E+08 0.929136
1.08000E+08 0.911192
1.10000E+08 0.894970
1.12000E+08 0.880203
1.14000E+08 0.866260
1.16000E+08 0.852989
1.18000E+08 0.840265
1.20000E+08 0.827990
1.22000E+08 0.816133
1.24000E+08 0.804714
1.26000E+08 0.793729
1.28000E+08 0.783172
1.30000E+08 0.773040
1.32000E+08 0.762112
1.34000E+08 0.750039
1.36000E+08 0.737942
1.38000E+08 0.726703
1.40000E+08 0.717000
1.42000E+08 0.708704
1.44000E+08 0.701244
1.46000E+08 0.694527
1.48000E+08 0.688470
1.50000E+08 0.683000