Si-28(n,tot) ENDF/B-VII.1
Energy(eV) XS(b)
1.00000E-05 10.4632
1.25000E-05 9.56502
1.50000E-05 8.90205
2.00000E-05 7.97146
2.75000E-05 7.08600
3.50000E-05 6.50325
4.25000E-05 6.08256
5.00000E-05 5.76050
6.25000E-05 5.35885
7.50000E-05 5.06236
0.000100000 4.64618
0.000125000 4.36217
0.000150000 4.15252
0.000200000 3.85824
0.000275000 3.57823
0.000350000 3.39395
0.000425000 3.26092
0.000500000 3.15908
0.000625000 3.03206
0.000750000 2.93830
0.00100000 2.80670
0.00125000 2.71688
0.00150000 2.65059
0.00200000 2.55753
0.00275000 2.46898
0.00350000 2.41071
0.00425000 2.36864
0.00500000 2.33643
0.00625000 2.29627
0.00750000 2.26662
0.0100000 2.22500
0.0125000 2.19660
0.0150000 2.17563
0.0200000 2.14621
0.0253000 2.12511
0.0314750 2.10762
0.0376500 2.09463
0.0500000 2.07629
0.0625000 2.06359
0.0750000 2.05421
0.100000 2.04105
0.125000 2.03207
0.150000 2.02544
0.200000 2.01613
0.275000 2.00728
0.350000 2.00145
0.500000 1.99402
0.750000 1.98704
1.00000 1.98287
1.50000 1.97793
2.00000 1.97499
2.75000 1.97218
3.50000 1.97033
5.00000 1.96797
7.50000 1.96574
10.0000 1.96440
15.0000 1.96279
20.0000 1.96182
27.5000 1.96087
35.0000 1.96022
50.0000 1.95934
75.0000 1.95842
100.000 1.95778
150.000 1.95684
200.000 1.95610
275.000 1.95516
350.000 1.95430
500.000 1.95273
750.000 1.95026
1000.00 1.94788
1500.00 1.94321
2000.00 1.93857
2750.00 1.93161
3500.00 1.92460
5000.00 1.91041
7500.00 1.88614
10000.0 1.86094
15000.0 1.80726
20000.0 1.74803
25869.8 1.66860
28804.6 1.62324
30272.1 1.59868
31005.8 1.58585
31372.6 1.57929
31556.1 1.57599
31647.8 1.57441
31693.6 1.57393
31716.6 1.57494
31728.0 1.58013
31733.8 1.59951
31736.6 1.66313
31738.1 1.83394
31738.8 2.17440
31739.1 2.62616
31739.5 3.60944
31740.0 5.64770
31740.5 3.60952
31741.1 2.33335
31741.6 1.93722
31742.7 1.70886
31745.0 1.61479
31749.4 1.58424
31758.3 1.57538
31776.2 1.57274
31811.8 1.57148
31883.2 1.57001
32025.8 1.56733
32311.1 1.56199
32881.7 1.55109
34022.9 1.52838
36305.4 1.47855
40870.3 1.35301
45435.1 1.16021
47717.6 1.00845
48858.8 0.905637
50000.0 0.774039
51337.5 0.563639
52006.3 0.426105
52675.0 0.263242
53343.8 0.0889696
53510.9 0.0512318
53678.1 0.0215764
53761.7 0.0115810
53845.3 0.00619168
53928.9 0.00682706
54012.5 0.0153345
54096.1 0.0341380
54179.7 0.0664312
54263.3 0.116486
54346.9 0.190030
54430.5 0.294897
54514.1 0.441829
54597.7 0.645872
54681.3 0.928328
54764.9 1.31990
54848.4 1.86529
54932.0 2.63121
55015.6 3.71782
55099.2 5.27823
55182.8 7.54480
55266.4 10.8636
55350.0 15.7080
55513.5 31.1262
55677.0 47.9724
55758.8 49.9355
55840.5 46.6105
56004.0 34.3637
56187.2 23.5390
56370.5 17.0584
56553.7 13.1460
56736.9 10.6434
56920.1 8.94722
57103.4 7.74026
57469.8 6.16191
57836.3 5.19090
58202.7 4.54035
58935.6 3.73091
59668.5 3.25032
60401.4 2.93254
61867.2 2.53674
63333.0 2.29714
64798.8 2.13355
66264.6 2.01232
66631.1 1.98646
66997.5 1.96200
67364.0 1.93922
67547.2 1.93169
67638.8 1.94492
67661.7 1.96405
67684.6 2.02130
67696.1 2.10046
67707.5 2.31329
67713.3 2.58424
67719.0 3.24254
67721.8 3.99276
67724.7 5.55673
67726.1 7.04738
67727.6 9.57522
67729.0 14.1854
67730.4 22.9719
67731.7 35.7646
67733.0 44.4523
67734.3 36.1206
67735.6 23.3894
67737.1 14.2437
67738.6 9.55433
67740.1 7.02482
67741.6 5.55534
67744.6 4.01447
67747.6 3.27744
67753.5 2.62313
67759.5 2.35076
67771.5 2.13053
67783.5 2.04464
67807.4 1.97737
67831.3 1.95104
67927.1 1.91902
68118.6 1.90022
68501.6 1.87685
68884.6 1.85640
69267.5 1.83719
70033.5 1.80133
70416.5 1.78447
70608.0 1.77629
70703.7 1.77232
70751.6 1.77060
70775.6 1.77072
70787.5 1.77450
70793.5 1.78970
70796.5 1.84007
70798.0 1.97799
70798.7 2.25558
70799.5 3.47094
70800.0 5.17496
70800.5 3.47095
70801.5 2.13146
70802.5 1.90993
70804.4 1.81361
70808.3 1.78084
70816.1 1.77099
70831.8 1.76777
70863.0 1.76580
70925.5 1.76305
71050.4 1.75789
71300.4 1.74780
71800.2 1.72827
72799.9 1.69142
74799.2 1.62473
78798.0 1.50984
82796.7 1.40896
84796.0 1.36141
85795.7 1.33803
86295.6 1.32631
86545.5 1.32042
86670.4 1.31815
86732.9 1.32127
86764.2 1.34189
86779.8 1.42458
86787.6 1.69788
86791.5 2.40618
86793.4 3.70315
86794.4 5.28208
86795.4 8.46713
86796.2 12.8122
86797.0 15.8106
86797.8 12.9712
86798.6 8.65961
86799.4 5.86154
86800.2 4.28342
86801.8 2.81971
86805.1 1.90862
86811.5 1.51196
86824.4 1.37540
86850.2 1.33287
86901.8 1.31908
87004.9 1.31276
87211.2 1.30668
87623.7 1.29675
88448.8 1.27779
90099.0 1.24045
93399.3 1.16643
100000 1.01748
116043 0.630583
132085 0.216139
136096 0.124155
140106 0.0508144
142112 0.0257087
143114 0.0171705
144117 0.0118583
145120 0.0102529
146122 0.0129027
147125 0.0204307
148128 0.0335427
149130 0.0530447
150133 0.0798478
152138 0.159627
154144 0.282906
156149 0.462451
158154 0.714330
160159 1.05838
164170 2.12128
168533 4.05733
172895 6.95300
177258 10.4225
181620 13.3498
185983 14.7447
190345 14.6518
199070 12.5704
205297 10.9863
211523 9.68904
217750 8.67175
223976 7.87547
236429 6.73695
248882 5.97638
261335 5.43728
273788 5.03611
286242 4.72550
292468 4.59462
295581 4.53387
297138 4.50450
297916 4.49067
298305 4.48689
298500 4.49723
298597 4.54798
298622 4.59845
298646 4.73126
298658 4.89870
298670 5.29852
298676 5.75265
298682 6.70054
298686 7.62340
298689 9.13988
298692 11.8863
298695 17.2232
298697 24.9263
298700 29.9678
298703 24.9408
298705 17.2330
298708 12.5434
298711 9.87461
298716 7.24055
298721 6.12215
298726 5.55967
298736 5.04297
298746 4.82360
298766 4.64297
298787 4.57256
298868 4.49773
299031 4.47477
299356 4.46313
300006 4.44779
300657 4.42849
300982 4.40751
301144 4.37449
301226 4.31432
301266 4.20222
301287 4.00394
301297 3.69120
301302 3.30523
301307 2.78716
301309 3.35392
301310 4.97781
301313 6.23908
301320 5.39189
301326 5.03685
301339 4.77436
301365 4.61384
301417 4.52470
301521 4.47664
301729 4.44938
302145 4.43030
302978 4.41022
304642 4.37963
307972 4.32502
314630 4.22546
327948 4.05219
341265 3.90523
347924 3.83957
351253 3.80849
352918 3.79364
353750 3.78752
354166 3.78923
354374 3.80828
354478 3.88408
354504 3.95660
354530 4.14157
354543 4.36512
354556 4.87651
354563 5.41833
354569 6.45979
354576 8.77517
354579 11.0834
354582 14.8278
354586 21.3974
354590 25.8961
354594 21.4193
354598 14.8465
354601 11.5591
354603 9.36800
354609 6.97959
354614 5.81252
354620 5.17386
354631 4.54525
354642 4.26029
354664 4.01805
354686 3.92078
354730 3.84461
354774 3.81579
354950 3.78528
355302 3.77452
356007 3.76634
357415 3.75355
360233 3.72934
365868 3.68300
377139 3.59700
388409 3.51859
394044 3.48181
396862 3.46393
398271 3.45502
398975 3.45043
399327 3.44780
399503 3.44585
399591 3.44380
399635 3.44130
399657 3.43976
399668 3.44761
399674 3.49635
399677 3.67627
399679 6.96002
399680 11.1297
399681 7.62466
399683 4.06523
399685 3.69450
399689 3.53719
399697 3.48095
399713 3.46043
399746 3.45233
399810 3.44863
399940 3.44634
400199 3.44405
400718 3.44055
401754 3.43408
403828 3.42152
407975 3.39703
416270 3.35000
432859 3.26252
466036 3.10831
499214 2.98049
507509 2.95702
515803 2.94412
519950 2.94670
524098 2.96495
526171 2.98873
527208 3.00930
528245 3.04163
529282 3.09823
529800 3.14539
530318 3.21851
530837 3.34463
531096 3.44752
531355 3.60223
531614 3.85411
531874 4.31263
532003 4.70035
532133 5.29273
532262 6.24927
532392 7.86196
532660 13.1769
532727 13.0806
532794 11.7421
532928 8.06645
533034 6.04537
533140 4.85023
533247 4.14845
533353 3.72315
533565 3.27777
533777 3.07478
533990 2.97238
534202 2.91721
534626 2.86895
535051 2.85452
535475 2.85274
536325 2.86213
538023 2.89271
539721 2.92690
543118 3.01215
546514 3.14517
549911 3.37656
553307 3.81432
556704 4.71868
558402 5.52155
560100 6.72170
565580 12.4739
568320 11.4011
571060 8.59758
573061 7.02085
575062 5.92996
577062 5.17981
579063 4.64853
581064 4.25440
583065 3.94203
585065 3.66514
586066 3.52921
586316 3.50291
586566 3.50050
586691 3.52935
586816 3.62333
586879 3.73109
586941 3.93408
587004 4.34361
587035 4.69937
587066 5.22028
587170 7.82574
587196 7.81837
587222 7.33735
587274 5.99958
587317 5.17063
587360 4.63374
587403 4.28655
587446 4.05357
587532 3.77055
587618 3.60789
587790 3.42337
587962 3.30948
588650 2.95888
588994 2.72811
589166 2.57317
589338 2.37421
589510 2.10890
589682 1.74535
589854 1.26627
589940 1.02500
590026 0.903892
590092 1.04819
590158 1.58061
590224 2.56415
590290 3.75299
590422 5.30376
590554 5.56919
590647 5.46141
590740 5.29736
590926 4.97998
591111 4.73152
591297 4.54359
591483 4.39879
591669 4.28438
592040 4.11494
592412 3.99449
592783 3.90341
593526 3.77203
594269 3.67894
595013 3.60741
596499 3.50064
597985 3.42138
599471 3.35830
600957 3.30724
601700 3.29111
602072 3.30794
602165 3.33211
602257 3.39858
602304 3.48165
602350 3.67483
602374 3.88214
602397 4.28525
602420 5.19628
602432 6.10099
602443 7.59375
602457 10.2109
602470 11.9521
602484 10.2255
602497 7.63197
602511 5.93271
602524 4.99386
602551 4.12484
602579 3.76654
602606 3.58991
602660 3.42857
602715 3.35948
602824 3.30151
602933 3.27723
603368 3.24314
604240 3.21479
605983 3.17303
607726 3.13722
609468 3.10530
616440 3.00379
630382 2.86854
658268 2.69976
686153 2.57590
700096 2.52065
707067 2.49423
710553 2.48131
712295 2.47484
713167 2.47141
713602 2.46929
713820 2.46747
713929 2.46529
713984 2.46260
714011 2.46140
714025 2.47133
714031 2.52023
714038 3.54569
714040 4.98405
714042 3.91251
714049 2.63139
714056 2.53521
714070 2.49566
714098 2.48016
714154 2.47366
714267 2.47051
714492 2.46844
714943 2.46624
715843 2.46276
717644 2.45632
721247 2.44394
728452 2.42082
742862 2.38536
757273 2.38449
764478 2.41553
768080 2.44660
769882 2.46937
770782 2.48889
771233 2.52206
771345 2.54897
771458 2.61556
771514 2.69635
771570 2.88629
771599 3.09646
771627 3.52230
771655 4.56958
771669 5.72229
771683 7.80612
771697 11.0025
771710 13.1561
771724 11.0364
771737 7.82939
771750 5.87266
771762 4.73467
771787 3.64122
771813 3.17569
771838 2.94157
771888 2.72715
771938 2.63626
772038 2.56360
772139 2.53669
772540 2.51411
773344 2.52070
774950 2.55079
778163 2.63222
784589 2.90376
791014 3.43190
797440 4.45594
804965 6.64922
812490 8.89944
820015 8.57952
827540 6.92403
836285 5.44023
840658 4.94652
841751 4.84865
842844 4.77178
843390 4.75381
843937 4.78199
844210 4.84711
844347 4.91161
844484 5.01798
844620 5.20229
844757 5.54521
844893 6.24769
844962 6.87201
845030 7.80334
845130 9.77447
845230 11.1147
845330 9.82197
845430 7.84460
845535 6.52030
845640 5.79392
845745 5.37934
845850 5.12640
846060 4.84753
846270 4.70309
846479 4.61564
846689 4.55626
847109 4.47745
847949 4.38036
848788 4.31031
852146 4.09858
858862 3.78862
865577 3.56126
868935 3.46871
870614 3.42737
871454 3.41057
871874 3.41243
872083 3.44736
872188 3.57157
872241 3.91569
872267 4.62254
872280 5.60575
872293 7.99905
872302 10.7315
872310 12.6231
872318 10.7913
872327 8.00839
872336 6.14619
872344 5.13500
872362 4.23227
872397 3.69641
872467 3.47481
872607 3.40169
872887 3.37645
873448 3.35937
874569 3.33374
876811 3.28618
881296 3.19773
890265 3.02599
899234 2.77762
901476 2.67637
903719 2.55672
904840 2.50878
905961 2.52215
907082 2.76541
907643 3.12282
908203 3.81404
909122 6.05398
909581 7.45035
910040 8.43951
910959 8.44831
911877 7.38603
912630 6.61742
913382 6.04644
914888 5.32591
917899 4.67696
923920 4.32149
943075 4.75932
962230 5.57116
981115 5.41293
1.00000E+06 4.67794
1.00050E+06 4.65889
1.00158E+06 4.61823
1.00266E+06 4.57820
1.00482E+06 4.50017
1.00913E+06 4.35290
1.01345E+06 4.21887
1.01560E+06 4.16054
1.01668E+06 4.14391
1.01722E+06 4.16825
1.01736E+06 4.19768
1.01749E+06 4.27278
1.01756E+06 4.36258
1.01763E+06 4.56026
1.01766E+06 4.76917
1.01769E+06 5.15241
1.01773E+06 6.02062
1.01775E+06 6.87409
1.01776E+06 8.17375
1.01780E+06 12.2147
1.01782E+06 10.5057
1.01784E+06 8.03523
1.01786E+06 6.13047
1.01789E+06 5.27251
1.01794E+06 4.58925
1.01798E+06 4.34523
1.01803E+06 4.23481
1.01813E+06 4.14240
1.01822E+06 4.10609
1.01861E+06 4.06507
1.01938E+06 4.04052
1.02091E+06 4.00171
1.02399E+06 3.92704
1.03014E+06 3.79317
1.03628E+06 3.70056
1.03782E+06 3.70121
1.03936E+06 3.74678
1.04013E+06 3.82044
1.04051E+06 3.88980
1.04089E+06 4.00314
1.04128E+06 4.20112
1.04166E+06 4.58199
1.04185E+06 4.91232
1.04205E+06 5.41920
1.04224E+06 6.22549
1.04243E+06 7.52176
1.04267E+06 9.90429
1.04290E+06 11.5639
1.04314E+06 9.98262
1.04337E+06 7.52920
1.04353E+06 6.34091
1.04370E+06 5.55441
1.04402E+06 4.67251
1.04435E+06 4.23765
1.04468E+06 3.99872
1.04500E+06 3.85352
1.04533E+06 3.75903
1.04598E+06 3.64565
1.04729E+06 3.53867
1.04859E+06 3.48441
1.05121E+06 3.41911
1.05382E+06 3.37179
1.06427E+06 3.22367
1.07471E+06 3.09691
1.07994E+06 3.03241
1.08255E+06 2.98881
1.08320E+06 2.97123
1.08386E+06 2.94300
1.08418E+06 2.91834
1.08451E+06 2.87331
1.08467E+06 2.83075
1.08484E+06 2.75114
1.08500E+06 2.54345
1.08508E+06 2.23709
1.08512E+06 1.89863
1.08516E+06 1.37694
1.08518E+06 1.39541
1.08520E+06 2.22465
1.08522E+06 3.27395
1.08524E+06 3.70581
1.08530E+06 3.62977
1.08536E+06 3.45111
1.08548E+06 3.27430
1.08573E+06 3.14712
1.08598E+06 3.09607
1.08622E+06 3.06795
1.08671E+06 3.03626
1.08720E+06 3.01757
1.08819E+06 2.99374
1.08917E+06 2.97688
1.09310E+06 2.92757
1.10095E+06 2.84649
1.11667E+06 2.69054
1.13238E+06 2.51207
1.14024E+06 2.39549
1.14417E+06 2.32122
1.14613E+06 2.27719
1.14712E+06 2.25286
1.14761E+06 2.24023
1.14785E+06 2.23435
1.14798E+06 2.23315
1.14804E+06 2.23778
1.14807E+06 2.25676
1.14808E+06 2.31344
1.14809E+06 2.47854
1.14810E+06 5.01289
1.14810E+06 7.76642
1.14810E+06 4.98663
1.14811E+06 2.47835
1.14812E+06 2.31212
1.14813E+06 2.24583
1.14815E+06 2.22760
1.14821E+06 2.22258
1.14831E+06 2.21933
1.14851E+06 2.21366
1.14892E+06 2.20169
1.14974E+06 2.17593
1.15137E+06 2.11670
1.15465E+06 1.94877
1.15628E+06 1.81796
1.15792E+06 1.62123
1.15874E+06 1.48006
1.15955E+06 1.29447
1.16037E+06 1.05454
1.16119E+06 0.799653
1.16157E+06 0.739415
1.16195E+06 0.799429
1.16232E+06 1.06440
1.16270E+06 1.55073
1.16346E+06 2.61174
1.16421E+06 3.05777
1.16508E+06 3.08880
1.16595E+06 2.98901
1.16682E+06 2.87797
1.16768E+06 2.77955
1.16942E+06 2.62333
1.17116E+06 2.50498
1.17463E+06 2.32579
1.17811E+06 2.18004
1.18158E+06 2.04745
1.18505E+06 1.92882
1.18853E+06 1.85570
1.19200E+06 1.93114
1.19545E+06 2.30509
1.19890E+06 2.59131
1.19950E+06 2.63070
1.20035E+06 2.89170
1.20120E+06 3.56705
1.20235E+06 4.60058
1.20350E+06 5.00415
1.20525E+06 4.90896
1.20700E+06 4.62875
1.20954E+06 4.24260
1.21209E+06 3.93208
1.21463E+06 3.68445
1.21718E+06 3.48181
1.22226E+06 3.15862
1.22735E+06 2.88816
1.23244E+06 2.62226
1.23753E+06 2.31672
1.24261E+06 1.91958
1.24770E+06 1.42197
1.24988E+06 1.25039
1.25205E+06 1.21975
1.25423E+06 1.43231
1.25640E+06 1.87625
1.26019E+06 2.74439
1.26114E+06 2.94242
1.26209E+06 3.17970
1.26256E+06 3.35797
1.26303E+06 3.66090
1.26327E+06 3.92149
1.26351E+06 4.34097
1.26374E+06 5.07700
1.26398E+06 6.43627
1.26440E+06 9.73540
1.26461E+06 8.47899
1.26482E+06 6.44206
1.26496E+06 5.48637
1.26510E+06 4.84278
1.26533E+06 4.22222
1.26555E+06 3.88201
1.26577E+06 3.68221
1.26600E+06 3.55821
1.26645E+06 3.42345
1.26689E+06 3.35980
1.26779E+06 3.30947
1.26869E+06 3.29405
1.27227E+06 3.27868
1.27586E+06 3.25400
1.27945E+06 3.21970
1.28662E+06 3.14454
1.29379E+06 3.07403
1.30814E+06 2.95560
1.32248E+06 2.85965
1.35118E+06 2.69720
1.36552E+06 2.61315
1.37269E+06 2.56445
1.37628E+06 2.53732
1.37807E+06 2.52410
1.37897E+06 2.52170
1.37942E+06 2.53474
1.37964E+06 2.58468
1.37975E+06 2.72298
1.37981E+06 3.01013
1.37984E+06 3.41773
1.37987E+06 4.44750
1.37990E+06 6.41014
1.37992E+06 5.66230
1.37993E+06 4.47183
1.37996E+06 3.45474
1.37998E+06 3.02723
1.38003E+06 2.71805
1.38014E+06 2.56896
1.38034E+06 2.51671
1.38074E+06 2.49928
1.38154E+06 2.48863
1.38315E+06 2.47191
1.38638E+06 2.43528
1.38960E+06 2.39189
1.39282E+06 2.33955
1.39604E+06 2.27645
1.39926E+06 2.20791
1.40087E+06 2.18427
1.40248E+06 2.19795
1.40409E+06 2.33514
1.40490E+06 2.52268
1.40570E+06 2.87572
1.40700E+06 4.04113
1.40830E+06 5.66714
1.40960E+06 6.07803
1.41090E+06 5.42382
1.41195E+06 4.85753
1.41300E+06 4.42071
1.41405E+06 4.09993
1.41510E+06 3.86282
1.41721E+06 3.54510
1.41931E+06 3.34654
1.42141E+06 3.21208
1.42351E+06 3.11538
1.42771E+06 2.98529
1.43192E+06 2.90118
1.43612E+06 2.84173
1.44453E+06 2.76250
1.45293E+06 2.71393
1.46134E+06 2.69203
1.46554E+06 2.69954
1.46764E+06 2.71404
1.46974E+06 2.74320
1.47185E+06 2.80202
1.47395E+06 2.93147
1.47500E+06 3.05762
1.47605E+06 3.27461
1.47710E+06 3.67820
1.47815E+06 4.47118
1.47990E+06 6.35117
1.48078E+06 5.63496
1.48165E+06 4.45462
1.48202E+06 4.07461
1.48221E+06 3.91542
1.48230E+06 3.84070
1.48235E+06 3.80076
1.48240E+06 3.76429
1.48240E+06 3.88124
1.48241E+06 3.89318
1.48243E+06 3.77411
1.48246E+06 3.74451
1.48252E+06 3.70114
1.48264E+06 3.62624
1.48287E+06 3.49744
1.48334E+06 3.29496
1.48427E+06 3.03356
1.48520E+06 2.88120
1.48614E+06 2.78606
1.48800E+06 2.67912
1.48987E+06 2.62326
1.49360E+06 2.56763
1.49733E+06 2.53978
1.50479E+06 2.51249
1.50852E+06 2.51182
1.51039E+06 2.52668
1.51132E+06 2.56398
1.51179E+06 2.64738
1.51202E+06 2.82787
1.51214E+06 3.17987
1.51220E+06 3.71020
1.51222E+06 4.28425
1.51225E+06 5.40368
1.51230E+06 7.88645
1.51232E+06 6.76260
1.51235E+06 4.83546
1.51238E+06 3.45877
1.51241E+06 2.90500
1.51246E+06 2.53941
1.51258E+06 2.41397
1.51281E+06 2.41208
1.51328E+06 2.43865
1.51421E+06 2.46151
1.51607E+06 2.47901
1.51793E+06 2.49345
1.51979E+06 2.51625
1.52166E+06 2.56133
1.52259E+06 2.60171
1.52352E+06 2.66568
1.52445E+06 2.77324
1.52538E+06 2.96847
1.52631E+06 3.35697
1.52678E+06 3.69287
1.52724E+06 4.18351
1.52797E+06 5.29745
1.52870E+06 6.09539
1.52943E+06 5.43633
1.53016E+06 4.35650
1.53094E+06 3.60904
1.53171E+06 3.19643
1.53249E+06 2.96006
1.53327E+06 2.81577
1.53482E+06 2.65721
1.53637E+06 2.57632
1.53793E+06 2.52872
1.53948E+06 2.49766
1.54258E+06 2.45922
1.54879E+06 2.41811
1.55501E+06 2.39197
1.56122E+06 2.37032
1.56743E+06 2.35225
1.57053E+06 2.34841
1.57364E+06 2.36022
1.57519E+06 2.38510
1.57675E+06 2.45171
1.57752E+06 2.52687
1.57830E+06 2.67699
1.57869E+06 2.81297
1.57907E+06 3.03214
1.57946E+06 3.40685
1.57985E+06 4.07047
1.58060E+06 5.82257
1.58098E+06 5.15043
1.58135E+06 4.01617
1.58172E+06 3.30142
1.58208E+06 2.90891
1.58245E+06 2.69027
1.58281E+06 2.56311
1.58354E+06 2.43879
1.58428E+06 2.39518
1.58574E+06 2.41529
1.58720E+06 2.53878
1.59000E+06 3.15134
1.59280E+06 4.25186
1.59519E+06 5.71333
1.59620E+06 6.89460
1.59720E+06 7.68044
1.59840E+06 6.83502
1.59921E+06 6.04156
1.60024E+06 5.33413
1.60126E+06 4.89528
1.60331E+06 4.42780
1.60536E+06 4.20728
1.60741E+06 4.10034
1.61151E+06 4.06271
1.61561E+06 4.17325
1.61970E+06 4.40714
1.62380E+06 4.77471
1.62790E+06 5.30330
1.63200E+06 6.02031
1.63580E+06 6.83108
1.63770E+06 7.22641
1.63960E+06 7.46284
1.64030E+06 7.43017
1.64116E+06 7.17583
1.64203E+06 6.45822
1.64289E+06 4.92504
1.64375E+06 2.89262
1.64418E+06 2.34258
1.64461E+06 2.41246
1.64548E+06 3.70282
1.64634E+06 5.08068
1.64720E+06 6.02447
1.64818E+06 6.67045
1.64915E+06 7.02888
1.65110E+06 7.25128
1.65278E+06 7.13177
1.65446E+06 6.82995
1.65530E+06 6.62131
1.65614E+06 6.37093
1.65698E+06 6.08185
1.65740E+06 5.95777
1.65782E+06 5.97608
1.65821E+06 6.39103
1.65860E+06 7.09652
1.65938E+06 7.07673
1.66001E+06 6.66844
1.66064E+06 6.35245
1.66127E+06 6.10376
1.66190E+06 5.89480
1.66265E+06 5.67789
1.66340E+06 5.48278
1.66414E+06 5.31033
1.66452E+06 5.28001
1.66471E+06 5.41249
1.66480E+06 5.69914
1.66485E+06 6.02646
1.66489E+06 6.59561
1.66495E+06 7.68494
1.66500E+06 8.44341
1.66511E+06 6.97397
1.66519E+06 6.13469
1.66528E+06 5.73732
1.66544E+06 5.39667
1.66561E+06 5.24561
1.66577E+06 5.15454
1.66611E+06 5.03555
1.66644E+06 4.94870
1.66710E+06 4.80787
1.66776E+06 4.68622
1.66909E+06 4.47119
1.67042E+06 4.28139
1.67307E+06 3.95662
1.67572E+06 3.68921
1.68103E+06 3.27983
1.68633E+06 2.98650
1.69694E+06 2.60208
1.70755E+06 2.36243
1.72878E+06 2.06715
1.75000E+06 1.87366
1.75000E+06 1.84200
1.75075E+06 1.83988
1.75234E+06 1.82526
1.75393E+06 1.83238
1.75553E+06 1.86263
1.75713E+06 1.83537
1.75873E+06 1.84284
1.76034E+06 1.85111
1.76194E+06 1.84747
1.76355E+06 1.85035
1.76516E+06 1.83089
1.76677E+06 1.82556
1.76839E+06 1.80832
1.77001E+06 1.83087
1.77162E+06 1.78864
1.77325E+06 1.77773
1.77487E+06 1.75993
1.77650E+06 1.77040
1.77812E+06 1.72399
1.77975E+06 1.77777
1.78139E+06 1.77071
1.78237E+06 1.77366
1.78269E+06 1.71872
1.78302E+06 1.76151
1.78335E+06 1.86291
1.78368E+06 1.92576
1.78400E+06 1.96866
1.78433E+06 2.07194
1.78466E+06 2.05862
1.78499E+06 2.23981
1.78531E+06 2.19082
1.78564E+06 2.10045
1.78597E+06 2.01384
1.78630E+06 1.86848
1.78663E+06 1.81670
1.78695E+06 1.80360
1.78728E+06 1.70700
1.78761E+06 1.77230
1.78794E+06 1.70342
1.78860E+06 1.72619
1.78958E+06 1.68173
1.79057E+06 1.72116
1.79156E+06 1.72056
1.79255E+06 1.70420
1.79354E+06 1.75481
1.79453E+06 1.75656
1.79552E+06 1.79983
1.79651E+06 1.79606
1.79751E+06 1.81174
1.79850E+06 1.80262
1.79950E+06 1.82306
1.80049E+06 1.86264
1.80149E+06 1.85583
1.80215E+06 1.87033
1.80249E+06 1.92810
1.80282E+06 2.00024
1.80315E+06 1.97180
1.80348E+06 2.05836
1.80382E+06 2.27029
1.80415E+06 2.15482
1.80448E+06 2.43380
1.80482E+06 2.66023
1.80515E+06 2.88539
1.80548E+06 3.31726
1.80582E+06 3.36251
1.80615E+06 3.09213
1.80648E+06 2.78731
1.80682E+06 2.59907
1.80715E+06 2.22732
1.80748E+06 1.96055
1.80782E+06 1.94176
1.80815E+06 1.86404
1.80849E+06 1.64794
1.80932E+06 1.77615
1.81066E+06 1.81008
1.81200E+06 1.84461
1.81334E+06 1.85869
1.81469E+06 1.86537
1.81603E+06 1.93070
1.81738E+06 1.96121
1.81872E+06 2.09209
1.82007E+06 2.13747
1.82142E+06 2.23391
1.82278E+06 2.32989
1.82413E+06 2.47029
1.82548E+06 2.50959
1.82701E+06 2.62594
1.82871E+06 2.82690
1.83041E+06 3.05028
1.83211E+06 3.29773
1.83382E+06 3.58215
1.83518E+06 3.84331
1.83621E+06 3.99655
1.83724E+06 4.26509
1.83826E+06 4.61739
1.83929E+06 4.92826
1.84032E+06 5.27373
1.84135E+06 5.63459
1.84238E+06 6.01932
1.84310E+06 6.32423
1.84314E+06 6.33229
1.84340E+06 6.45128
1.84341E+06 6.45552
1.84390E+06 6.59188
1.84444E+06 6.74216
1.84548E+06 6.98393
1.84651E+06 7.27919
1.84755E+06 7.35957
1.84858E+06 7.70012
1.84962E+06 7.85187
1.85066E+06 7.76919
1.85170E+06 7.82144
1.85274E+06 7.98372
1.85378E+06 8.21185
1.85482E+06 8.18179
1.85586E+06 7.91681
1.85690E+06 7.69503
1.85770E+06 7.49683
1.85795E+06 7.43490
1.85899E+06 7.12113
1.86004E+06 7.08833
1.86108E+06 6.93606
1.86213E+06 6.75273
1.86290E+06 6.71005
1.86353E+06 6.67513
1.86528E+06 6.37363
1.86703E+06 6.09954
1.86730E+06 6.05151
1.86878E+06 5.78814
1.87054E+06 5.53838
1.87230E+06 5.32829
1.87406E+06 5.11365
1.87582E+06 4.88326
1.87759E+06 4.75150
1.87936E+06 4.53649
1.88113E+06 4.35873
1.88291E+06 4.11731
1.88468E+06 3.90673
1.88646E+06 3.74492
1.88824E+06 3.59067
1.89003E+06 3.31951
1.89182E+06 3.22995
1.89361E+06 3.04287
1.89540E+06 2.86792
1.89719E+06 2.69808
1.89760E+06 2.66441
1.89899E+06 2.55024
1.90079E+06 2.42022
1.90223E+06 2.26920
1.90280E+06 2.21216
1.90331E+06 2.16111
1.90440E+06 2.20056
1.90548E+06 2.11937
1.90656E+06 2.19107
1.90765E+06 2.17380
1.90874E+06 2.23550
1.90983E+06 2.35475
1.91091E+06 2.61220
1.91200E+06 2.78235
1.91309E+06 3.09244
1.91437E+06 3.32061
1.91583E+06 3.73617
1.91728E+06 4.01138
1.91874E+06 4.21326
1.92021E+06 4.34020
1.92100E+06 4.36494
1.92167E+06 4.38589
1.92314E+06 4.46521
1.92460E+06 4.56623
1.92570E+06 4.55002
1.92644E+06 4.61740
1.92717E+06 4.74171
1.92791E+06 5.13189
1.92865E+06 5.17160
1.92938E+06 4.81656
1.93012E+06 4.38128
1.93086E+06 4.23849
1.93159E+06 4.11940
1.93233E+06 4.13351
1.93307E+06 4.12447
1.93381E+06 4.05484
1.93510E+06 3.92928
1.93696E+06 3.89918
1.93881E+06 3.85565
1.94067E+06 3.76017
1.94253E+06 3.66675
1.94360E+06 3.66631
1.94439E+06 3.66598
1.94625E+06 3.65303
1.94812E+06 3.60188
1.94999E+06 3.61767
1.95186E+06 3.58221
1.95374E+06 3.58347
1.95562E+06 3.62280
1.95750E+06 3.68324
1.95938E+06 3.74475
1.96108E+06 3.88593
1.96259E+06 3.96444
1.96410E+06 4.10785
1.96562E+06 4.33500
1.96713E+06 4.51581
1.96865E+06 4.83306
1.97017E+06 4.98247
1.97169E+06 5.24375
1.97220E+06 5.26473
1.97321E+06 5.30629
1.97474E+06 5.33049
1.97626E+06 5.04431
1.97779E+06 4.90955
1.97932E+06 4.58824
1.98086E+06 4.23585
1.98239E+06 3.96229
1.98392E+06 3.78151
1.98546E+06 3.64627
1.98662E+06 3.47587
1.98739E+06 3.37997
1.98816E+06 3.49800
1.98893E+06 3.64473
1.98970E+06 3.62056
1.99047E+06 3.35865
1.99124E+06 3.12066
1.99202E+06 3.02271
1.99279E+06 2.93558
1.99356E+06 2.96760
1.99434E+06 2.96893
1.99511E+06 2.91994
1.99589E+06 2.88031
1.99724E+06 2.81812
1.99730E+06 2.81666
1.99918E+06 2.77095
2.00000E+06 2.74694
2.00113E+06 2.71384
2.00308E+06 2.62237
2.00503E+06 2.58102
2.00698E+06 2.47573
2.00893E+06 2.48695
2.01089E+06 2.39581
2.01285E+06 2.38589
2.01482E+06 2.35635
2.01678E+06 2.34004
2.01875E+06 2.29327
2.02073E+06 2.28185
2.02270E+06 2.24246
2.02468E+06 2.23865
2.02666E+06 2.17186
2.02865E+06 2.12157
2.03063E+06 2.10923
2.03262E+06 2.07771
2.03280E+06 2.07189
2.03462E+06 2.01304
2.03661E+06 1.93865
2.03801E+06 1.90357
2.03881E+06 1.69894
2.03961E+06 1.59587
2.04041E+06 1.42587
2.04122E+06 1.30869
2.04202E+06 1.46051
2.04282E+06 1.68319
2.04362E+06 1.97629
2.04443E+06 2.03907
2.04523E+06 2.07237
2.04644E+06 2.02409
2.04805E+06 2.05838
2.04930E+06 2.00327
2.04966E+06 1.98739
2.05128E+06 1.91919
2.05289E+06 1.98739
2.05451E+06 2.00990
2.05613E+06 2.01794
2.05735E+06 2.06618
2.05800E+06 2.14960
2.05816E+06 2.17014
2.05897E+06 2.29353
2.05978E+06 2.44011
2.06060E+06 2.55155
2.06141E+06 2.88447
2.06222E+06 3.12062
2.06304E+06 3.13658
2.06385E+06 2.61831
2.06400E+06 2.54848
2.06467E+06 2.23651
2.06548E+06 2.07092
2.06630E+06 2.02595
2.06752E+06 1.92265
2.06916E+06 1.90138
2.07010E+06 1.87120
2.07080E+06 1.84871
2.07244E+06 1.81346
2.07360E+06 1.86306
2.07408E+06 1.88360
2.07572E+06 1.88391
2.07737E+06 1.97260
2.07902E+06 2.03859
2.08025E+06 2.04026
2.08108E+06 2.22600
2.08190E+06 2.40795
2.08273E+06 2.74181
2.08356E+06 3.23052
2.08438E+06 3.51642
2.08521E+06 3.45938
2.08604E+06 3.10214
2.08660E+06 3.13628
2.08687E+06 3.15274
2.08770E+06 3.30718
2.08853E+06 3.71131
2.08936E+06 4.02391
2.09019E+06 4.45707
2.09102E+06 4.52561
2.09185E+06 4.44376
2.09268E+06 4.22597
2.09351E+06 4.15633
2.09435E+06 4.11736
2.09440E+06 4.11818
2.09518E+06 4.13103
2.09601E+06 4.07119
2.09727E+06 4.06360
2.09870E+06 4.01555
2.09894E+06 4.00749
2.10061E+06 3.93219
2.10229E+06 3.88648
2.10396E+06 3.81642
2.10560E+06 3.74284
2.10564E+06 3.74105
2.10732E+06 3.73463
2.10901E+06 3.70621
2.11027E+06 3.84034
2.11111E+06 3.82695
2.11196E+06 3.89427
2.11280E+06 4.08609
2.11364E+06 4.28278
2.11449E+06 4.67752
2.11520E+06 4.99731
2.11534E+06 5.06036
2.11618E+06 5.62701
2.11703E+06 5.79726
2.11788E+06 5.61727
2.11872E+06 5.21538
2.11957E+06 4.92355
2.12042E+06 4.34329
2.12120E+06 4.09379
2.12127E+06 4.07140
2.12212E+06 3.89880
2.12297E+06 3.71489
2.12382E+06 3.53426
2.12467E+06 3.57432
2.12574E+06 3.39127
2.12701E+06 3.24287
2.12829E+06 3.10324
2.13000E+06 3.08879
2.13214E+06 2.94514
2.13420E+06 2.85853
2.13428E+06 2.85517
2.13643E+06 2.75385
2.13858E+06 2.73877
2.14073E+06 2.65518
2.14288E+06 2.60675
2.14504E+06 2.58613
2.14720E+06 2.61730
2.14936E+06 2.65866
2.15153E+06 2.57820
2.15370E+06 2.49917
2.15588E+06 2.49115
2.15805E+06 2.50580
2.16023E+06 2.48766
2.16242E+06 2.43373
2.16280E+06 2.43631
2.16461E+06 2.44862
2.16636E+06 2.44672
2.16767E+06 2.56079
2.16899E+06 2.72024
2.17031E+06 2.90705
2.17163E+06 3.13339
2.17295E+06 3.15846
2.17427E+06 3.02326
2.17559E+06 2.99094
2.17692E+06 2.89987
2.17824E+06 2.85694
2.17930E+06 2.69604
2.17957E+06 2.65506
2.18134E+06 2.65603
2.18356E+06 2.58442
2.18578E+06 2.50892
2.18800E+06 2.45585
2.19022E+06 2.38152
2.19245E+06 2.37418
2.19469E+06 2.37869
2.19490E+06 2.37834
2.19692E+06 2.37499
2.19916E+06 2.34323
2.20141E+06 2.31313
2.20365E+06 2.30510
2.20590E+06 2.30583
2.20816E+06 2.35604
2.21042E+06 2.29734
2.21220E+06 2.31323
2.21268E+06 2.31751
2.21494E+06 2.40424
2.21660E+06 2.48411
2.21721E+06 2.51346
2.21903E+06 2.59431
2.22039E+06 2.66653
2.22175E+06 2.83981
2.22312E+06 3.00921
2.22440E+06 3.19404
2.22449E+06 3.20703
2.22586E+06 3.55629
2.22723E+06 3.74189
2.22860E+06 3.74720
2.22960E+06 3.64246
2.22997E+06 3.60371
2.23135E+06 3.38101
2.23272E+06 3.04562
2.23410E+06 2.84282
2.23548E+06 2.65227
2.23560E+06 2.63084
2.23686E+06 2.40576
2.23824E+06 2.33592
2.24008E+06 2.24630
2.24239E+06 2.12264
2.24470E+06 2.06955
2.24701E+06 2.01481
2.24933E+06 1.98565
2.24950E+06 1.98802
2.25165E+06 2.01792
2.25397E+06 1.94048
2.25630E+06 1.93870
2.25863E+06 1.93197
2.25900E+06 1.93250
2.26097E+06 1.93533
2.26330E+06 1.91517
2.26565E+06 2.00785
2.26799E+06 2.06498
2.26860E+06 2.10515
2.27034E+06 2.21973
2.27270E+06 2.43813
2.27505E+06 2.58384
2.27550E+06 2.61093
2.27741E+06 2.72593
2.27978E+06 2.93533
2.28215E+06 3.28498
2.28330E+06 3.26758
2.28452E+06 3.24912
2.28689E+06 3.56984
2.28927E+06 3.69336
2.29166E+06 3.75141
2.29280E+06 3.68277
2.29404E+06 3.60809
2.29643E+06 3.37142
2.29883E+06 3.22807
2.30123E+06 3.15252
2.30363E+06 3.08515
2.30500E+06 3.01810
2.30603E+06 2.96771
2.30844E+06 2.91346
2.31086E+06 2.80907
2.31327E+06 2.72462
2.31569E+06 2.58407
2.31812E+06 2.52434
2.32055E+06 2.49669
2.32298E+06 2.45859
2.32541E+06 2.42793
2.32785E+06 2.37207
2.33030E+06 2.41019
2.33140E+06 2.38939
2.33274E+06 2.36407
2.33519E+06 2.22799
2.33740E+06 2.29729
2.33937E+06 2.33725
2.34134E+06 2.27771
2.34331E+06 2.36631
2.34529E+06 2.31964
2.34726E+06 2.30177
2.34924E+06 2.42410
2.35122E+06 2.36753
2.35321E+06 2.36630
2.35519E+06 2.36321
2.35630E+06 2.37166
2.35718E+06 2.37834
2.35917E+06 2.41528
2.36117E+06 2.42608
2.36316E+06 2.41434
2.36516E+06 2.48093
2.36667E+06 2.59058
2.36767E+06 2.60555
2.36867E+06 2.66536
2.36967E+06 2.86014
2.37040E+06 2.99647
2.37068E+06 3.04877
2.37168E+06 3.40219
2.37268E+06 3.78013
2.37369E+06 4.00317
2.37470E+06 4.02558
2.37570E+06 3.77648
2.37671E+06 3.39898
2.37690E+06 3.34853
2.37772E+06 3.13076
2.37873E+06 2.84435
2.37974E+06 2.73168
2.38075E+06 2.62249
2.38176E+06 2.53580
2.38327E+06 2.45070
2.38530E+06 2.35439
2.38732E+06 2.30167
2.38780E+06 2.30314
2.38935E+06 2.30780
2.39139E+06 2.29109
2.39342E+06 2.14934
2.39546E+06 2.14580
2.39750E+06 2.15733
2.39954E+06 2.17981
2.40159E+06 2.14196
2.40290E+06 2.19414
2.40364E+06 2.22361
2.40569E+06 2.13401
2.40774E+06 2.18030
2.40980E+06 2.06279
2.41186E+06 2.07701
2.41392E+06 2.10232
2.41598E+06 2.07756
2.41805E+06 2.06665
2.42012E+06 2.03105
2.42219E+06 2.03796
2.42427E+06 2.09252
2.42570E+06 2.08199
2.42634E+06 2.07728
2.42842E+06 2.06920
2.43051E+06 2.11629
2.43259E+06 2.08264
2.43468E+06 1.96304
2.43677E+06 1.93478
2.43886E+06 1.81067
2.44096E+06 1.66226
2.44190E+06 1.64786
2.44306E+06 1.63010
2.44516E+06 1.78229
2.44726E+06 1.99507
2.44937E+06 2.41969
2.45148E+06 2.63406
2.45359E+06 3.01108
2.45571E+06 3.30722
2.45783E+06 3.49188
2.45930E+06 3.57863
2.45995E+06 3.61698
2.46207E+06 3.59717
2.46250E+06 3.57186
2.46420E+06 3.47181
2.46633E+06 3.34807
2.46846E+06 3.19563
2.47059E+06 3.07668
2.47273E+06 3.10767
2.47487E+06 2.97459
2.47660E+06 2.99862
2.47701E+06 3.00430
2.47916E+06 3.08516
2.48131E+06 3.13522
2.48346E+06 3.22997
2.48530E+06 3.28686
2.48561E+06 3.29644
2.48723E+06 3.38487
2.48831E+06 3.46664
2.48939E+06 3.53094
2.49047E+06 3.67975
2.49155E+06 3.91316
2.49263E+06 4.16792
2.49372E+06 4.31837
2.49390E+06 4.36584
2.49480E+06 4.60322
2.49588E+06 5.00171
2.49697E+06 5.17554
2.49805E+06 5.38484
2.49914E+06 5.19195
2.50023E+06 5.11934
2.50131E+06 4.75818
2.50240E+06 4.39174
2.50349E+06 4.18345
2.50458E+06 3.99736
2.50594E+06 3.80597
2.50690E+06 3.70530
2.50758E+06 3.63399
2.50922E+06 3.58345
2.51086E+06 3.51113
2.51250E+06 3.33311
2.51415E+06 3.27015
2.51579E+06 3.30987
2.51744E+06 3.24193
2.51909E+06 3.09732
2.52074E+06 3.13429
2.52294E+06 2.99835
2.52570E+06 3.01968
2.52846E+06 2.97699
2.52860E+06 2.97726
2.53123E+06 2.98249
2.53400E+06 3.07469
2.53677E+06 2.93696
2.53955E+06 2.98249
2.54234E+06 2.92724
2.54513E+06 2.95705
2.54792E+06 3.09259
2.55072E+06 3.02096
2.55140E+06 3.01467
2.55353E+06 2.99496
2.55633E+06 3.04449
2.55915E+06 3.05158
2.56196E+06 3.02412
2.56478E+06 3.05013
2.56540E+06 3.05062
2.56761E+06 3.05235
2.57044E+06 3.16079
2.57328E+06 3.00367
2.57612E+06 2.96370
2.57840E+06 2.95466
2.57896E+06 2.95244
2.58181E+06 2.88195
2.58467E+06 2.90411
2.58753E+06 2.89866
2.59039E+06 2.88046
2.59326E+06 2.94611
2.59614E+06 2.99625
2.59900E+06 3.10379
2.59902E+06 3.10454
2.60190E+06 3.14642
2.60421E+06 3.06474
2.60594E+06 2.95432
2.60768E+06 2.86971
2.60942E+06 2.86803
2.61116E+06 2.80841
2.61290E+06 2.90677
2.61464E+06 2.76234
2.61639E+06 2.82404
2.61813E+06 2.86261
2.61988E+06 2.78497
2.62163E+06 2.74567
2.62290E+06 2.73773
2.62339E+06 2.73466
2.62514E+06 2.76360
2.62690E+06 2.74611
2.62865E+06 2.65175
2.63041E+06 2.76512
2.63217E+06 2.64523
2.63340E+06 2.64241
2.63394E+06 2.64117
2.63570E+06 2.63156
2.63747E+06 2.65205
2.63924E+06 2.63873
2.64100E+06 2.68520
2.64101E+06 2.68546
2.64278E+06 2.66699
2.64455E+06 2.63826
2.64633E+06 2.65011
2.64810E+06 2.55614
2.64988E+06 2.61313
2.65166E+06 2.59706
2.65344E+06 2.64066
2.65493E+06 2.81116
2.65612E+06 2.77375
2.65731E+06 2.84541
2.65850E+06 3.36696
2.65970E+06 3.85257
2.66070E+06 4.03585
2.66089E+06 4.07067
2.66208E+06 4.05107
2.66328E+06 3.36566
2.66448E+06 2.98206
2.66567E+06 2.78893
2.66687E+06 2.61240
2.66807E+06 2.57285
2.66927E+06 2.52518
2.67077E+06 2.54718
2.67257E+06 2.50583
2.67280E+06 2.51314
2.67437E+06 2.56310
2.67618E+06 2.49352
2.67799E+06 2.49756
2.67960E+06 2.43535
2.67979E+06 2.42801
2.68161E+06 2.39914
2.68342E+06 2.34873
2.68523E+06 2.36221
2.68705E+06 2.36161
2.68887E+06 2.44886
2.69069E+06 2.41111
2.69251E+06 2.52370
2.69433E+06 2.69617
2.69616E+06 2.81772
2.69799E+06 2.89036
2.69930E+06 2.86376
2.69982E+06 2.85320
2.70165E+06 2.82642
2.70348E+06 2.75716
2.70531E+06 2.67670
2.70715E+06 2.61753
2.70899E+06 2.61462
2.71083E+06 2.50093
2.71267E+06 2.49417
2.71300E+06 2.50418
2.71452E+06 2.55026
2.71636E+06 2.48469
2.71821E+06 2.49620
2.72006E+06 2.41670
2.72191E+06 2.38695
2.72377E+06 2.37699
2.72562E+06 2.28704
2.72748E+06 2.18038
2.72934E+06 2.06659
2.73120E+06 2.02113
2.73307E+06 2.09245
2.73493E+06 2.20021
2.73680E+06 2.27682
2.73800E+06 2.29763
2.73867E+06 2.30922
2.74054E+06 2.34478
2.74241E+06 2.30641
2.74429E+06 2.43410
2.74554E+06 2.34063
2.74554E+06 2.34055
2.74616E+06 2.29426
2.74804E+06 2.33664
2.74992E+06 2.37941
2.75180E+06 2.35849
2.75400E+06 2.32641
2.75652E+06 2.39509
2.75904E+06 2.38247
2.76000E+06 2.34129
2.76156E+06 2.27441
2.76409E+06 2.22960
2.76460E+06 2.23900
2.76662E+06 2.27623
2.76915E+06 2.30015
2.77169E+06 2.35284
2.77423E+06 2.44863
2.77677E+06 2.47670
2.77932E+06 2.54712
2.78000E+06 2.54349
2.78187E+06 2.53342
2.78443E+06 2.55083
2.78698E+06 2.55182
2.78880E+06 2.58578
2.78955E+06 2.59977
2.79211E+06 2.57080
2.79468E+06 2.58933
2.79725E+06 2.57149
2.79983E+06 2.51242
2.80000E+06 2.51165
2.80241E+06 2.50065
2.80499E+06 2.53140
2.80758E+06 2.59104
2.80860E+06 2.57554
2.81017E+06 2.55169
2.81276E+06 2.65841
2.81536E+06 2.61342
2.81796E+06 2.66819
2.82000E+06 2.66672
2.82056E+06 2.66631
2.82317E+06 2.76317
2.82578E+06 2.85836
2.82750E+06 2.82625
2.82840E+06 2.80943
2.83101E+06 2.93834
2.83364E+06 3.06675
2.83626E+06 3.15131
2.83889E+06 3.22422
2.84153E+06 3.44264
2.84270E+06 3.45438
2.84416E+06 3.46903
2.84681E+06 3.57142
2.84945E+06 3.69269
2.85210E+06 3.78707
2.85410E+06 3.83290
2.85475E+06 3.84780
2.85741E+06 3.71831
2.86007E+06 3.77799
2.86273E+06 3.83987
2.86390E+06 3.84546
2.86539E+06 3.85258
2.86807E+06 3.80451
2.87074E+06 3.73834
2.87308E+06 3.51787
2.87509E+06 3.24619
2.87680E+06 3.06579
2.87711E+06 3.03309
2.87912E+06 2.92196
2.88114E+06 2.78223
2.88316E+06 2.60338
2.88518E+06 2.57623
2.88720E+06 2.46056
2.88890E+06 2.41350
2.88923E+06 2.40437
2.89125E+06 2.38901
2.89328E+06 2.28651
2.89532E+06 2.29975
2.89735E+06 2.26984
2.89939E+06 2.28356
2.90143E+06 2.18659
2.90340E+06 2.25593
2.90347E+06 2.25839
2.90551E+06 2.20318
2.90755E+06 2.12359
2.90960E+06 2.10246
2.91165E+06 2.09022
2.91370E+06 2.08707
2.91575E+06 2.11216
2.91630E+06 2.10260
2.91747E+06 2.08228
2.91884E+06 2.07403
2.92021E+06 2.03132
2.92158E+06 2.09238
2.92296E+06 2.09650
2.92433E+06 2.19127
2.92571E+06 2.25127
2.92709E+06 2.25118
2.92847E+06 2.33842
2.92985E+06 2.41944
2.93123E+06 2.54404
2.93261E+06 2.59128
2.93399E+06 2.75377
2.93537E+06 2.91301
2.93676E+06 3.12209
2.93814E+06 3.45366
2.93900E+06 3.39180
2.93953E+06 3.35367
2.94000E+06 3.36640
2.94091E+06 3.39104
2.94230E+06 3.12693
2.94369E+06 2.95527
2.94508E+06 2.67072
2.94647E+06 2.46618
2.94786E+06 2.27257
2.94926E+06 2.16837
2.95065E+06 2.05936
2.95205E+06 2.00969
2.95414E+06 1.88430
2.95693E+06 1.82896
2.95974E+06 1.79194
2.96000E+06 1.78869
2.96254E+06 1.75706
2.96535E+06 1.69074
2.96550E+06 1.68990
2.96816E+06 1.67490
2.97097E+06 1.59751
2.97379E+06 1.58134
2.97662E+06 1.59667
2.97945E+06 1.50932
2.98228E+06 1.46923
2.98511E+06 1.59139
2.98530E+06 1.58546
2.98795E+06 1.50274
2.99080E+06 1.55270
2.99329E+06 1.63529
2.99543E+06 1.69392
2.99757E+06 1.85342
2.99971E+06 1.96380
3.00000E+06 1.97224
3.00186E+06 2.02635
3.00400E+06 2.19538
3.00615E+06 2.34166
3.00831E+06 2.51309
3.01046E+06 2.60780
3.01262E+06 2.81685
3.01478E+06 2.83877
3.01694E+06 2.78178
3.01910E+06 2.81026
3.02000E+06 2.78321
3.02127E+06 2.74504
3.02344E+06 2.63738
3.02561E+06 2.56174
3.02778E+06 2.52816
3.02996E+06 2.42972
3.03213E+06 2.44372
3.03431E+06 2.44311
3.03650E+06 2.51401
3.03868E+06 2.46183
3.04087E+06 2.47890
3.04210E+06 2.53038
3.04306E+06 2.57058
3.04525E+06 2.40498
3.04745E+06 2.38630
3.04964E+06 2.32000
3.05184E+06 2.24044
3.05404E+06 2.21473
3.05588E+06 2.24384
3.05735E+06 2.35555
3.05882E+06 2.52647
3.06000E+06 2.80665
3.06029E+06 2.87551
3.06177E+06 3.09234
3.06324E+06 3.22539
3.06390E+06 3.09842
3.06472E+06 2.94067
3.06619E+06 2.58063
3.06767E+06 2.29634
3.06915E+06 2.05234
3.07063E+06 2.00856
3.07285E+06 1.96841
3.07582E+06 1.92162
3.07879E+06 1.87222
3.08000E+06 1.87709
3.08176E+06 1.88417
3.08450E+06 1.95893
3.08474E+06 1.96548
3.08773E+06 1.98726
3.09072E+06 2.07116
3.09371E+06 2.22438
3.09595E+06 2.22143
3.09745E+06 2.36404
3.09896E+06 2.40712
3.10000E+06 2.44492
3.10046E+06 2.46164
3.10196E+06 2.79380
3.10346E+06 2.78366
3.10497E+06 2.83949
3.10510E+06 2.86699
3.10647E+06 3.15689
3.10798E+06 3.15270
3.10949E+06 3.23795
3.11100E+06 3.41367
3.11251E+06 3.23160
3.11402E+06 3.20389
3.11553E+06 3.19085
3.11650E+06 3.04823
3.11705E+06 2.96734
3.11856E+06 2.91668
3.12000E+06 2.86789
3.12008E+06 2.86518
3.12159E+06 2.83606
3.12311E+06 2.63889
3.12463E+06 2.56438
3.12615E+06 2.56686
3.12767E+06 2.48955
3.12920E+06 2.34713
3.13072E+06 2.29598
3.13224E+06 2.65815
3.13377E+06 2.96260
3.13490E+06 3.23832
3.13530E+06 3.33591
3.13682E+06 3.59184
3.13835E+06 3.69978
3.13989E+06 3.68288
3.14000E+06 3.68399
3.14142E+06 3.69822
3.14295E+06 3.91166
3.14448E+06 3.99466
3.14602E+06 3.90734
3.14755E+06 3.92124
3.14909E+06 3.67004
3.15063E+06 3.43177
3.15217E+06 3.15475
3.15371E+06 2.86658
3.15525E+06 2.71086
3.15679E+06 2.72117
3.15834E+06 2.58922
3.15988E+06 2.49615
3.16000E+06 2.48541
3.16143E+06 2.35747
3.16298E+06 2.42978
3.16452E+06 2.30655
3.16607E+06 2.31384
3.16762E+06 2.27427
3.16918E+06 2.21288
3.17060E+06 2.34148
3.17073E+06 2.35327
3.17228E+06 2.48692
3.17384E+06 2.56660
3.17540E+06 2.49378
3.17600E+06 2.38687
3.17695E+06 2.21759
3.17851E+06 2.34682
3.18000E+06 2.23274
3.18085E+06 2.16767
3.18398E+06 2.11855
3.18711E+06 2.09887
3.19024E+06 2.05670
3.19338E+06 2.01972
3.19652E+06 1.97844
3.19967E+06 1.95560
3.20000E+06 1.95822
3.20100E+06 1.96613
3.20282E+06 1.98055
3.20598E+06 1.95797
3.20914E+06 2.00921
3.21191E+06 2.03809
3.21429E+06 2.03186
3.21667E+06 2.09338
3.21905E+06 2.25529
3.21940E+06 2.25612
3.22143E+06 2.26096
3.22382E+06 2.34612
3.22621E+06 2.46328
3.22861E+06 2.73867
3.23100E+06 3.21556
3.23130E+06 3.23833
3.23340E+06 3.39771
3.23580E+06 3.44799
3.23620E+06 3.44055
3.23821E+06 3.40317
3.24000E+06 3.28804
3.24061E+06 3.24880
3.24302E+06 3.08533
3.24543E+06 2.78458
3.24760E+06 2.78772
3.24785E+06 2.78808
3.25026E+06 2.50240
3.25269E+06 2.40279
3.25511E+06 2.25439
3.25753E+06 2.26676
3.26000E+06 2.21766
3.26037E+06 2.21031
3.26330E+06 2.10772
3.26361E+06 2.09685
3.26686E+06 2.14741
3.27011E+06 2.09447
3.27337E+06 2.12541
3.27663E+06 2.09744
3.27989E+06 2.12397
3.28000E+06 2.12998
3.28317E+06 2.30337
3.28644E+06 2.49015
3.28972E+06 2.23950
3.29040E+06 2.21053
3.29301E+06 2.09936
3.29630E+06 2.15854
3.29960E+06 2.12094
3.30000E+06 2.11456
3.30290E+06 2.06826
3.30621E+06 2.08425
3.30952E+06 2.05949
3.31283E+06 2.09483
3.31616E+06 2.15151
3.31948E+06 2.13495
3.32281E+06 2.09562
3.32615E+06 2.02872
3.32670E+06 2.03436
3.32949E+06 2.06298
3.33284E+06 2.21375
3.33619E+06 2.19817
3.33954E+06 2.13852
3.34000E+06 2.15069
3.34291E+06 2.22769
3.34627E+06 2.15376
3.34964E+06 2.19608
3.35120E+06 2.21993
3.35163E+06 2.22649
3.35163E+06 2.22653
3.35302E+06 2.24772
3.35500E+06 2.32411
3.35640E+06 2.37812
3.35979E+06 2.32192
3.36000E+06 2.32144
3.36110E+06 2.31893
3.36318E+06 2.31420
3.36658E+06 2.36025
3.36998E+06 2.37128
3.37339E+06 2.46355
3.37638E+06 2.59323
3.37894E+06 2.55227
3.38000E+06 2.62546
3.38151E+06 2.72973
3.38407E+06 2.79718
3.38664E+06 2.74325
3.38922E+06 2.37691
3.39180E+06 2.31030
3.39438E+06 2.16221
3.39696E+06 2.14973
3.39955E+06 2.15984
3.40214E+06 2.11606
3.40473E+06 2.21689
3.40530E+06 2.21888
3.40732E+06 2.22595
3.40992E+06 2.32016
3.41252E+06 2.38025
3.41513E+06 2.39293
3.41773E+06 2.39334
3.42000E+06 2.44795
3.42034E+06 2.45613
3.42296E+06 2.64260
3.42557E+06 2.75931
3.42819E+06 3.07548
3.42870E+06 3.07331
3.43081E+06 3.06435
3.43344E+06 2.78646
3.43606E+06 2.63732
3.43870E+06 2.36718
3.44000E+06 2.37396
3.44133E+06 2.38090
3.44441E+06 2.25649
3.44690E+06 2.18068
3.44793E+06 2.14933
3.45145E+06 2.20832
3.45499E+06 2.10096
3.45853E+06 2.21020
3.46000E+06 2.24240
3.46163E+06 2.27811
3.46429E+06 2.52390
3.46695E+06 2.49928
3.46962E+06 2.42243
3.47229E+06 2.28970
3.47496E+06 2.27198
3.47550E+06 2.27361
3.47763E+06 2.28003
3.48031E+06 2.10197
3.48300E+06 2.17717
3.48568E+06 2.14601
3.48837E+06 2.14423
3.49106E+06 2.13003
3.49375E+06 2.19112
3.49500E+06 2.23600
3.49645E+06 2.28806
3.49915E+06 2.48383
3.50186E+06 2.66346
3.50456E+06 2.82805
3.50727E+06 2.74365
3.50999E+06 2.52226
3.51270E+06 2.33265
3.51542E+06 2.32850
3.51815E+06 2.15792
3.51840E+06 2.16410
3.52087E+06 2.22511
3.52360E+06 2.27382
3.52633E+06 2.30801
3.52907E+06 2.15579
3.53181E+06 2.21305
3.53400E+06 2.35023
3.53409E+06 2.35587
3.53592E+06 2.33395
3.53775E+06 2.61612
3.53959E+06 2.72600
3.54142E+06 2.65827
3.54326E+06 2.34245
3.54509E+06 2.31801
3.54693E+06 2.04471
3.54923E+06 2.09242
3.55199E+06 2.13136
3.55476E+06 2.13469
3.55753E+06 2.17744
3.56000E+06 2.21182
3.56030E+06 2.21600
3.56307E+06 2.13300
3.56585E+06 2.13485
3.56863E+06 2.23350
3.57142E+06 2.19137
3.57421E+06 2.16165
3.57430E+06 2.15433
3.57700E+06 1.93476
3.57979E+06 1.96316
3.58259E+06 1.82809
3.58539E+06 1.89317
3.58820E+06 1.83360
3.59054E+06 1.90895
3.59241E+06 1.88374
3.59429E+06 1.90233
3.59616E+06 2.04001
3.59804E+06 2.12207
3.59992E+06 2.00792
3.60000E+06 2.00568
3.60180E+06 1.95509
3.60368E+06 1.76251
3.60557E+06 1.52083
3.60745E+06 1.55727
3.60934E+06 1.38473
3.61170E+06 1.28594
3.61453E+06 1.23051
3.61737E+06 1.21963
3.62000E+06 1.28853
3.62022E+06 1.29430
3.62306E+06 1.33456
3.62500E+06 1.30132
3.62591E+06 1.28572
3.62876E+06 1.29320
3.63162E+06 1.25189
3.63448E+06 1.26344
3.63734E+06 1.23916
3.63800E+06 1.24896
3.64000E+06 1.27865
3.64021E+06 1.28177
3.64308E+06 1.27050
3.64595E+06 1.34874
3.64883E+06 1.32338
3.65171E+06 1.25873
3.65459E+06 1.21381
3.65748E+06 1.24868
3.66000E+06 1.29479
3.66037E+06 1.30156
3.66326E+06 1.33286
3.66616E+06 1.41651
3.66906E+06 1.38355
3.67196E+06 1.36870
3.67440E+06 1.32520
3.67487E+06 1.31682
3.67778E+06 1.20436
3.68000E+06 1.19514
3.68069E+06 1.19227
3.68361E+06 1.28467
3.68604E+06 1.33498
3.68799E+06 1.27694
3.68994E+06 1.30096
3.69189E+06 1.41719
3.69385E+06 1.46428
3.69580E+06 1.68539
3.69776E+06 1.89307
3.69972E+06 2.13167
3.70000E+06 2.14443
3.70168E+06 2.22104
3.70364E+06 2.15856
3.70560E+06 2.02791
3.70757E+06 1.84598
3.70953E+06 1.77880
3.71150E+06 1.64193
3.71347E+06 1.58876
3.71593E+06 1.52317
3.71889E+06 1.38885
3.71990E+06 1.41585
3.72000E+06 1.41852
3.72186E+06 1.46823
3.72482E+06 1.54617
3.72779E+06 1.56295
3.73077E+06 1.65305
3.73374E+06 1.69295
3.73672E+06 1.80264
3.73971E+06 2.00309
3.74270E+06 2.18463
3.74569E+06 2.25373
3.74868E+06 2.31438
3.74900E+06 2.32702
3.75168E+06 2.43292
3.75240E+06 2.41721
3.75469E+06 2.36726
3.75520E+06 2.36625
3.75569E+06 2.36527
3.75569E+06 2.36526
3.75769E+06 2.36130
3.76000E+06 2.39791
3.76070E+06 2.40900
3.76372E+06 2.37326
3.76673E+06 2.44111
3.76975E+06 2.52847
3.77278E+06 2.51243
3.77450E+06 2.51433
3.77580E+06 2.51577
3.77884E+06 2.50673
3.78187E+06 2.48730
3.78491E+06 2.58729
3.78795E+06 2.52331
3.79100E+06 2.27362
3.79405E+06 2.27817
3.79660E+06 2.28001
3.79710E+06 2.28036
3.80000E+06 2.18740
3.80016E+06 2.18227
3.80322E+06 2.13482
3.80629E+06 2.16453
3.80936E+06 2.12032
3.81243E+06 2.22248
3.81350E+06 2.23474
3.81499E+06 2.25182
3.81704E+06 2.51544
3.81910E+06 2.76069
3.82115E+06 2.69330
3.82321E+06 2.59501
3.82527E+06 2.30431
3.82784E+06 2.10952
3.83094E+06 2.17072
3.83404E+06 2.17593
3.83662E+06 2.45321
3.83869E+06 2.61515
3.84000E+06 2.58450
3.84076E+06 2.56672
3.84284E+06 2.24182
3.84491E+06 2.03310
3.84699E+06 1.68843
3.84907E+06 1.76953
3.85115E+06 1.63236
3.85375E+06 1.59663
3.85687E+06 1.60283
3.86000E+06 1.58990
3.86314E+06 1.62328
3.86530E+06 1.64384
3.86628E+06 1.65317
3.86942E+06 1.69469
3.87256E+06 1.62044
3.87571E+06 1.65347
3.87886E+06 1.69149
3.88000E+06 1.69774
3.88202E+06 1.70881
3.88480E+06 1.76160
3.88518E+06 1.76882
3.88835E+06 1.76259
3.89152E+06 1.84847
3.89469E+06 1.79494
3.89786E+06 1.87356
3.90000E+06 1.94146
3.90104E+06 1.97446
3.90423E+06 2.18136
3.90742E+06 2.26335
3.91061E+06 2.31031
3.91380E+06 2.18290
3.91700E+06 2.34468
3.92021E+06 2.42436
3.92341E+06 2.51779
3.92380E+06 2.53383
3.92663E+06 2.65022
3.92984E+06 2.70083
3.93306E+06 2.53243
3.93628E+06 2.52499
3.93940E+06 2.52484
3.93951E+06 2.52484
3.94000E+06 2.52563
3.94274E+06 2.53004
3.94598E+06 2.48581
3.94922E+06 2.58133
3.95246E+06 2.77359
3.95571E+06 2.89912
3.95896E+06 2.68014
3.96000E+06 2.64555
3.96222E+06 2.57171
3.96547E+06 2.48672
3.96870E+06 2.37560
3.96874E+06 2.37422
3.97201E+06 2.29601
3.97528E+06 2.28089
3.97855E+06 2.14076
3.98183E+06 2.12895
3.98512E+06 2.13294
3.98840E+06 2.11758
3.99170E+06 2.12330
3.99499E+06 2.21078
3.99829E+06 2.23900
3.99916E+06 2.25367
3.99917E+06 2.25375
4.00000E+06 2.26783
4.00160E+06 2.29479
4.00490E+06 2.20411
4.00822E+06 2.10507
4.01153E+06 2.12017
4.01485E+06 2.13030
4.01818E+06 2.22708
4.02151E+06 2.22768
4.02270E+06 2.29683
4.02484E+06 2.42120
4.02818E+06 2.33074
4.03070E+06 2.44714
4.03128E+06 2.47395
4.03128E+06 2.47408
4.03152E+06 2.48502
4.03486E+06 2.58812
4.03821E+06 2.61082
4.04000E+06 2.65669
4.04157E+06 2.69692
4.04493E+06 2.73598
4.04829E+06 2.95798
4.05165E+06 3.05451
4.05502E+06 3.02162
4.05840E+06 2.79048
4.06130E+06 2.57431
4.06178E+06 2.53853
4.06460E+06 2.35650
4.06686E+06 2.30590
4.06911E+06 2.09608
4.07138E+06 2.22872
4.07364E+06 2.22688
4.07590E+06 2.25343
4.07817E+06 2.38520
4.08000E+06 2.53149
4.08044E+06 2.56666
4.08271E+06 2.38115
4.08498E+06 2.26838
4.08783E+06 1.93270
4.09124E+06 1.72292
4.09466E+06 1.64205
4.09640E+06 1.65969
4.09809E+06 1.67682
4.10000E+06 1.64299
4.10152E+06 1.61607
4.10438E+06 1.73349
4.10667E+06 1.76168
4.10896E+06 1.93410
4.11125E+06 1.96580
4.11355E+06 2.23206
4.11585E+06 2.39844
4.11815E+06 2.54325
4.12045E+06 2.44223
4.12276E+06 2.21551
4.12506E+06 2.14262
4.12795E+06 2.05725
4.13141E+06 2.01308
4.13489E+06 1.92557
4.13640E+06 1.93565
4.13836E+06 1.94874
4.14000E+06 1.88414
4.14184E+06 1.81166
4.14532E+06 1.73277
4.14881E+06 1.71330
4.15231E+06 1.66766
4.15522E+06 1.69438
4.15755E+06 1.77734
4.15989E+06 1.86277
4.16223E+06 2.01387
4.16457E+06 2.12551
4.16691E+06 2.06882
4.16925E+06 2.05395
4.17160E+06 1.78506
4.17394E+06 1.45599
4.17629E+06 1.21660
4.17864E+06 1.10813
4.18000E+06 1.12705
4.18100E+06 1.14096
4.18335E+06 1.24802
4.18571E+06 1.27241
4.18610E+06 1.29661
4.18807E+06 1.41885
4.19043E+06 1.63428
4.19279E+06 1.74098
4.19516E+06 1.89236
4.19753E+06 2.00788
4.19990E+06 2.26837
4.20227E+06 2.60959
4.20464E+06 2.62437
4.20702E+06 2.93902
4.20939E+06 3.30546
4.21177E+06 3.63583
4.21415E+06 3.71743
4.21654E+06 3.82604
4.21892E+06 3.58915
4.22000E+06 3.61090
4.22100E+06 3.63107
4.22131E+06 3.63729
4.22370E+06 3.59520
4.22609E+06 3.49108
4.22849E+06 3.31659
4.23088E+06 3.18459
4.23328E+06 2.94698
4.23568E+06 2.99681
4.23868E+06 2.81827
4.24000E+06 2.79272
4.24229E+06 2.74840
4.24590E+06 2.65370
4.24952E+06 2.64820
4.25314E+06 2.73240
4.25676E+06 2.71628
4.25930E+06 2.78350
4.26000E+06 2.80203
4.26039E+06 2.81235
4.26403E+06 2.86658
4.26767E+06 3.04688
4.27131E+06 2.96911
4.27496E+06 2.95984
4.27862E+06 2.77075
4.28228E+06 2.51503
4.28360E+06 2.49102
4.28594E+06 2.44843
4.28961E+06 2.46459
4.29328E+06 2.33785
4.29696E+06 2.52554
4.30000E+06 2.44179
4.30064E+06 2.42416
4.30433E+06 2.41055
4.30802E+06 2.43770
4.30900E+06 2.45844
4.31171E+06 2.51578
4.31541E+06 2.25538
4.31912E+06 2.14739
4.32283E+06 2.12449
4.32655E+06 2.06387
4.33027E+06 2.30607
4.33399E+06 2.56632
4.33772E+06 2.59983
4.34000E+06 2.51414
4.34146E+06 2.45926
4.34210E+06 2.46165
4.34520E+06 2.47319
4.34894E+06 2.57329
4.35269E+06 2.55307
4.35582E+06 2.82780
4.35832E+06 2.91715
4.36000E+06 2.79739
4.36083E+06 2.73824
4.36334E+06 2.59910
4.36648E+06 2.45555
4.37025E+06 2.20226
4.37403E+06 2.17074
4.37781E+06 2.04010
4.38160E+06 1.96163
4.38410E+06 1.85970
4.38539E+06 1.80710
4.38919E+06 1.81873
4.39299E+06 1.86270
4.39679E+06 2.03085
4.40000E+06 2.15405
4.40061E+06 2.17746
4.40442E+06 2.29881
4.40824E+06 2.39200
4.41207E+06 2.26243
4.41566E+06 2.49818
4.41590E+06 2.51394
4.41710E+06 2.47403
4.41974E+06 2.38623
4.42100E+06 2.40213
4.42358E+06 2.43470
4.42743E+06 2.47332
4.43128E+06 2.35623
4.43513E+06 2.28049
4.43900E+06 2.39997
4.44286E+06 2.38146
4.44673E+06 2.29262
4.45061E+06 2.44727
4.45449E+06 2.51176
4.45838E+06 2.49610
4.46210E+06 2.35738
4.46227E+06 2.35105
4.46617E+06 2.18721
4.47007E+06 2.33286
4.47398E+06 2.45086
4.47789E+06 2.50640
4.48000E+06 2.52297
4.48181E+06 2.53719
4.48573E+06 2.59740
4.48966E+06 2.79146
4.49359E+06 2.68828
4.49753E+06 2.67791
4.50000E+06 2.54689
4.50148E+06 2.46838
4.50300E+06 2.50749
4.50542E+06 2.56978
4.50938E+06 2.41245
4.51268E+06 2.28981
4.51532E+06 2.47210
4.51796E+06 2.56688
4.52000E+06 2.71972
4.52061E+06 2.76542
4.52326E+06 3.05757
4.52591E+06 3.02056
4.52600E+06 3.02562
4.52856E+06 3.16939
4.53122E+06 3.04694
4.53388E+06 3.00850
4.53654E+06 2.90699
4.53920E+06 3.00268
4.54000E+06 3.00626
4.54187E+06 3.01463
4.54453E+06 2.73596
4.54720E+06 2.57597
4.54988E+06 2.14298
4.55255E+06 2.08111
4.55523E+06 1.99528
4.55791E+06 1.99537
4.56000E+06 1.99030
4.56059E+06 1.98887
4.56327E+06 1.99489
4.56596E+06 2.17909
4.56865E+06 2.34614
4.57134E+06 2.24831
4.57260E+06 2.10405
4.57403E+06 1.94033
4.57673E+06 1.78718
4.57943E+06 1.71049
4.58000E+06 1.73639
4.58213E+06 1.83319
4.58551E+06 1.73177
4.58957E+06 1.96456
4.59363E+06 1.96340
4.59770E+06 2.02927
4.60000E+06 1.99934
4.60178E+06 1.97619
4.60586E+06 2.17093
4.60995E+06 2.29031
4.61404E+06 2.40324
4.61814E+06 2.45915
4.62000E+06 2.48723
4.62224E+06 2.52107
4.62635E+06 2.61634
4.63047E+06 2.67310
4.63459E+06 2.74098
4.63871E+06 2.70652
4.64000E+06 2.75545
4.64285E+06 2.86355
4.64698E+06 2.89932
4.65112E+06 2.71509
4.65527E+06 2.77760
4.65943E+06 2.74088
4.66000E+06 2.73700
4.66359E+06 2.71260
4.66360E+06 2.71305
4.66775E+06 2.89740
4.67192E+06 2.69406
4.67610E+06 2.58409
4.68028E+06 2.49528
4.68446E+06 2.39629
4.68866E+06 2.52155
4.69216E+06 2.49515
4.69496E+06 2.65560
4.69776E+06 2.66307
4.70000E+06 2.85968
4.70057E+06 2.90969
4.70338E+06 3.07953
4.70619E+06 3.27735
4.70900E+06 3.29738
4.71182E+06 3.02404
4.71464E+06 2.72799
4.71746E+06 2.48444
4.72000E+06 2.34153
4.72028E+06 2.32577
4.72311E+06 2.05038
4.72320E+06 2.05070
4.72594E+06 2.06022
4.72877E+06 2.02952
4.73160E+06 2.30878
4.73444E+06 2.83065
4.73728E+06 3.19103
4.74000E+06 3.27673
4.74012E+06 3.28051
4.74297E+06 3.11366
4.74653E+06 3.08383
4.75080E+06 3.04555
4.75509E+06 3.14242
4.75937E+06 3.35307
4.76367E+06 3.42223
4.76797E+06 3.67513
4.77227E+06 3.67329
4.77560E+06 3.53837
4.77658E+06 3.49867
4.77740E+06 3.48336
4.78000E+06 3.43486
4.78090E+06 3.41807
4.78138E+06 3.42979
4.78139E+06 3.42987
4.78350E+06 3.46447
4.78523E+06 3.52385
4.78955E+06 3.51151
4.79317E+06 3.18457
4.79606E+06 2.87016
4.79895E+06 2.71419
4.80000E+06 2.73178
4.80185E+06 2.76279
4.80475E+06 2.76529
4.80766E+06 2.66861
4.80990E+06 2.73447
4.81056E+06 2.75388
4.81347E+06 2.89936
4.81638E+06 2.93969
4.81929E+06 2.86339
4.82000E+06 2.85128
4.82221E+06 2.81358
4.82513E+06 2.46171
4.82805E+06 2.16570
4.83098E+06 2.15307
4.83390E+06 2.04750
4.83683E+06 2.02639
4.83977E+06 2.23619
4.84000E+06 2.23907
4.84240E+06 2.26912
4.84270E+06 2.27287
4.84564E+06 2.39526
4.84858E+06 2.43310
4.85152E+06 2.58140
4.85447E+06 2.94157
4.85741E+06 3.27301
4.86000E+06 3.47961
4.86037E+06 3.50912
4.86332E+06 3.65625
4.86400E+06 3.59543
4.86628E+06 3.39151
4.86924E+06 3.33728
4.87220E+06 3.03343
4.87516E+06 2.79485
4.87813E+06 2.47783
4.88000E+06 2.33472
4.88110E+06 2.25053
4.88407E+06 2.07712
4.88705E+06 2.19628
4.89077E+06 2.05823
4.89524E+06 2.16503
4.89650E+06 2.18874
4.89972E+06 2.24935
4.90000E+06 2.26260
4.90346E+06 2.42627
4.90646E+06 2.82349
4.90945E+06 3.04861
4.91245E+06 3.13847
4.91545E+06 3.09650
4.91846E+06 3.01417
4.92146E+06 2.87859
4.92447E+06 2.57435
4.92749E+06 2.34984
4.93050E+06 2.23841
4.93427E+06 2.33170
4.93881E+06 2.23680
4.94000E+06 2.23727
4.94335E+06 2.23858
4.94789E+06 2.19742
4.95245E+06 2.41929
4.95400E+06 2.43631
4.95700E+06 2.46926
4.96000E+06 2.45073
4.96157E+06 2.44103
4.96614E+06 2.23481
4.97072E+06 2.03570
4.97530E+06 1.93123
4.97989E+06 1.97498
4.98000E+06 1.97727
4.98449E+06 2.07081
4.98909E+06 2.21476
4.99370E+06 2.39132
4.99832E+06 2.59535
5.00000E+06 2.60971
5.00294E+06 2.63484
5.00621E+06 2.79297
5.00660E+06 2.81181
5.00757E+06 2.85872
5.01220E+06 2.77524
5.01685E+06 2.82785
5.02000E+06 2.76762
5.02149E+06 2.73913
5.02615E+06 2.42493
5.02980E+06 2.18209
5.03081E+06 2.11489
5.03470E+06 2.01848
5.03781E+06 1.87751
5.04000E+06 1.85894
5.04093E+06 1.85105
5.04405E+06 1.86275
5.04717E+06 1.84264
5.04900E+06 1.82699
5.04972E+06 1.82083
5.04972E+06 1.82080
5.05030E+06 1.81587
5.05343E+06 1.84653
5.05656E+06 1.88932
5.05970E+06 2.00157
5.06283E+06 2.15722
5.06598E+06 2.36048
5.06912E+06 2.54997
5.07227E+06 2.65676
5.07542E+06 2.81480
5.07857E+06 2.98748
5.08000E+06 2.87611
5.08172E+06 2.74217
5.08488E+06 2.52604
5.08883E+06 2.51033
5.09358E+06 2.21328
5.09834E+06 2.16306
5.10000E+06 2.19496
5.10310E+06 2.25453
5.10787E+06 2.52605
5.11110E+06 2.59872
5.11264E+06 2.63337
5.11743E+06 2.77558
5.12222E+06 2.66770
5.12701E+06 2.31659
5.13101E+06 2.32723
5.13422E+06 2.05891
5.13743E+06 2.39191
5.14000E+06 2.63032
5.14064E+06 2.68969
5.14385E+06 3.00997
5.14707E+06 3.06284
5.15010E+06 3.05929
5.15029E+06 3.05908
5.15351E+06 3.43556
5.15400E+06 3.43445
5.15674E+06 3.42821
5.15850E+06 3.32445
5.15851E+06 3.32391
5.15996E+06 3.23838
5.16000E+06 3.23526
5.16320E+06 2.98609
5.16643E+06 2.80070
5.16967E+06 2.66485
5.17291E+06 2.37602
5.17697E+06 2.27516
5.18184E+06 2.28995
5.18672E+06 2.27214
5.19161E+06 2.42412
5.19450E+06 2.57106
5.19650E+06 2.67275
5.20000E+06 2.88861
5.20140E+06 2.97495
5.20631E+06 3.06787
5.21122E+06 2.79941
5.21614E+06 2.40448
5.21720E+06 2.37755
5.22000E+06 2.30640
5.22107E+06 2.27920
5.22601E+06 2.12357
5.23095E+06 2.12903
5.23590E+06 2.22885
5.24000E+06 2.31375
5.24086E+06 2.33155
5.24582E+06 2.24682
5.25000E+06 2.12372
5.25079E+06 2.10047
5.25577E+06 1.96217
5.26000E+06 2.00588
5.26076E+06 2.01373
5.26575E+06 1.98835
5.27075E+06 2.01751
5.27250E+06 2.06633
5.27575E+06 2.15698
5.28000E+06 2.07984
5.28077E+06 2.06587
5.28579E+06 1.97744
5.29082E+06 1.77948
5.29585E+06 1.75025
5.30000E+06 2.09261
5.30089E+06 2.16603
5.30594E+06 2.47558
5.31100E+06 2.56628
5.31606E+06 2.52906
5.32000E+06 2.19688
5.32114E+06 2.10077
5.32621E+06 1.82705
5.33130E+06 1.83114
5.33639E+06 1.74161
5.34000E+06 1.64385
5.34149E+06 1.60350
5.34660E+06 1.48507
5.35172E+06 1.43535
5.35210E+06 1.43065
5.35684E+06 1.37199
5.36000E+06 1.35376
5.36197E+06 1.34239
5.36711E+06 1.49390
5.37225E+06 1.59926
5.37540E+06 1.78420
5.37741E+06 1.90222
5.38256E+06 1.80066
5.38773E+06 1.79106
5.39291E+06 1.86207
5.39809E+06 1.78998
5.39920E+06 1.80359
5.40000E+06 1.81340
5.40010E+06 1.81462
5.40198E+06 1.83767
5.40198E+06 1.83768
5.40328E+06 1.85361
5.40847E+06 1.90329
5.41368E+06 1.94218
5.41889E+06 1.91138
5.42090E+06 1.91666
5.42166E+06 1.91865
5.42167E+06 1.91866
5.42411E+06 1.92507
5.42847E+06 1.91973
5.43195E+06 1.71647
5.43545E+06 1.46547
5.43894E+06 1.46770
5.44000E+06 1.39799
5.44244E+06 1.23753
5.44594E+06 1.15521
5.44945E+06 1.21937
5.44950E+06 1.22001
5.45295E+06 1.26415
5.45647E+06 1.22176
5.45998E+06 1.52620
5.46000E+06 1.52671
5.46350E+06 1.61666
5.46702E+06 1.81702
5.47055E+06 1.93694
5.47408E+06 1.80294
5.47761E+06 1.90657
5.48115E+06 1.93597
5.48469E+06 1.89208
5.48823E+06 2.02863
5.49177E+06 2.09993
5.49500E+06 1.98274
5.49532E+06 1.97113
5.49888E+06 2.11607
5.50000E+06 2.13714
5.50243E+06 2.18286
5.50599E+06 2.36652
5.50956E+06 2.41507
5.51000E+06 2.41517
5.51312E+06 2.41586
5.51669E+06 2.05966
5.52000E+06 2.13163
5.52027E+06 2.13750
5.52385E+06 2.12498
5.52832E+06 2.01654
5.53370E+06 1.94469
5.53909E+06 1.92968
5.54000E+06 1.93980
5.54448E+06 1.98957
5.54988E+06 2.21345
5.55530E+06 2.25923
5.56000E+06 2.24563
5.56071E+06 2.24356
5.56614E+06 2.33991
5.57158E+06 2.44342
5.57702E+06 2.31773
5.58000E+06 2.20668
5.58150E+06 2.15078
5.58225E+06 2.12284
5.58225E+06 2.12269
5.58247E+06 2.11464
5.58793E+06 1.93569
5.59000E+06 1.89185
5.59339E+06 1.82006
5.59887E+06 1.90538
5.60000E+06 1.95138
5.60435E+06 2.12846
5.60810E+06 2.31232
5.60984E+06 2.39763
5.61000E+06 2.39614
5.61534E+06 2.34635
5.62000E+06 2.27149
5.62085E+06 2.25785
5.62636E+06 2.07805
5.63189E+06 2.27061
5.63410E+06 2.20860
5.63742E+06 2.11545
5.64000E+06 2.02056
5.64296E+06 1.91170
5.64680E+06 1.95288
5.64752E+06 1.96059
5.64753E+06 1.96064
5.64851E+06 1.97121
5.65406E+06 2.08617
5.65963E+06 2.09256
5.66000E+06 2.09870
5.66520E+06 2.18498
5.67000E+06 2.21837
5.67078E+06 2.22380
5.67637E+06 2.29866
5.67680E+06 2.30373
5.67757E+06 2.31282
5.67757E+06 2.31283
5.67990E+06 2.34031
5.68068E+06 2.34952
5.68197E+06 2.36474
5.68757E+06 2.57440
5.69000E+06 2.58290
5.69319E+06 2.59406
5.69881E+06 2.81595
5.70000E+06 2.85186
5.70444E+06 2.98583
5.71008E+06 3.04655
5.71572E+06 2.88208
5.72000E+06 2.83207
5.72120E+06 2.81804
5.72138E+06 2.81595
5.72705E+06 2.75650
5.73272E+06 2.54967
5.73840E+06 2.56176
5.74000E+06 2.52672
5.74409E+06 2.43713
5.74979E+06 2.44874
5.75000E+06 2.44768
5.75549E+06 2.41982
5.76000E+06 2.34937
5.76121E+06 2.33047
5.76693E+06 2.46524
5.77060E+06 2.44238
5.77266E+06 2.42955
5.77841E+06 2.41957
5.78000E+06 2.41609
5.78415E+06 2.40700
5.78991E+06 2.52469
5.79568E+06 2.50026
5.80000E+06 2.51688
5.80146E+06 2.52250
5.80724E+06 2.35317
5.81303E+06 2.43165
5.81740E+06 2.35637
5.81883E+06 2.33174
5.82000E+06 2.36367
5.82464E+06 2.49020
5.83046E+06 2.49756
5.83480E+06 2.49474
5.83629E+06 2.49376
5.84000E+06 2.55437
5.84213E+06 2.58917
5.84797E+06 2.53995
5.85285E+06 2.62615
5.85676E+06 2.90679
5.86000E+06 2.98238
5.86067E+06 2.99801
5.86458E+06 3.05365
5.86850E+06 2.84664
5.87242E+06 2.47434
5.87635E+06 2.20352
5.88000E+06 2.09073
5.88028E+06 2.08208
5.88421E+06 1.98311
5.88815E+06 2.01759
5.89209E+06 2.14877
5.89604E+06 2.15763
5.89999E+06 2.14705
5.90000E+06 2.14659
5.90394E+06 1.96177
5.90790E+06 1.82612
5.91186E+06 1.92485
5.91583E+06 1.93343
5.91980E+06 1.88108
5.92000E+06 1.88537
5.92377E+06 1.96625
5.92775E+06 2.03983
5.93173E+06 2.03420
5.93572E+06 2.08170
5.93971E+06 2.22680
5.94000E+06 2.20410
5.94370E+06 1.91447
5.94770E+06 1.85381
5.95170E+06 1.84683
5.95571E+06 1.58406
5.95972E+06 1.70879
5.96000E+06 1.71490
5.96373E+06 1.79627
5.96876E+06 1.96575
5.97479E+06 2.12149
5.98000E+06 2.12457
5.98084E+06 2.12507
5.98690E+06 2.05404
5.99296E+06 1.87524
5.99903E+06 1.87418
6.00000E+06 1.89097
6.00512E+06 1.97962
6.00990E+06 2.09151
6.01121E+06 2.12217
6.01731E+06 2.16331
6.02000E+06 2.21285
6.02342E+06 2.27582
6.02954E+06 2.23206
6.03567E+06 2.30285
6.04000E+06 2.42937
6.04181E+06 2.48226
6.04796E+06 2.37990
6.05412E+06 2.36070
6.05670E+06 2.39086
6.06000E+06 2.42943
6.06028E+06 2.43270
6.06646E+06 2.45283
6.07265E+06 2.25305
6.07884E+06 2.16225
6.08505E+06 2.19530
6.08660E+06 2.18629
6.09126E+06 2.15922
6.09749E+06 2.18998
6.10000E+06 2.12132
6.10372E+06 2.01956
6.10996E+06 1.78542
6.11622E+06 1.55507
6.12000E+06 1.51174
6.12248E+06 1.48332
6.12875E+06 1.44135
6.13503E+06 1.55201
6.14000E+06 1.59523
6.14133E+06 1.60679
6.14763E+06 1.61696
6.15394E+06 1.77031
6.16000E+06 1.91337
6.16026E+06 1.91951
6.16765E+06 1.98191
6.17610E+06 2.07207
6.18000E+06 2.00596
6.18458E+06 1.92833
6.19307E+06 1.90728
6.20000E+06 1.91873
6.20159E+06 1.92136
6.21011E+06 1.93843
6.21340E+06 2.04038
6.21528E+06 2.09863
6.21528E+06 2.09872
6.21866E+06 2.20338
6.22000E+06 2.22493
6.22210E+06 2.25870
6.22722E+06 2.34105
6.23581E+06 2.52947
6.23610E+06 2.53900
6.24000E+06 2.66705
6.24441E+06 2.81187
6.25000E+06 2.86511
6.25302E+06 2.89387
6.26000E+06 2.91922
6.26166E+06 2.92524
6.26730E+06 2.96941
6.27000E+06 2.99055
6.27031E+06 2.99299
6.27250E+06 2.98810
6.27330E+06 2.98631
6.27330E+06 2.98631
6.27870E+06 2.97427
6.27898E+06 2.97365
6.28000E+06 2.97504
6.28055E+06 2.97579
6.28055E+06 2.97579
6.28180E+06 2.97750
6.28262E+06 2.97861
6.28263E+06 2.97862
6.28550E+06 2.98254
6.28985E+06 3.11930
6.29000E+06 3.11643
6.29420E+06 3.03596
6.29856E+06 2.95088
6.30000E+06 2.89921
6.30292E+06 2.79443
6.30630E+06 2.70334
6.30729E+06 2.67665
6.31000E+06 2.53672
6.31166E+06 2.45101
6.31604E+06 2.28509
6.32000E+06 2.10458
6.32042E+06 2.08544
6.32480E+06 2.03461
6.32919E+06 1.97853
6.33359E+06 1.96926
6.33799E+06 1.92476
6.34000E+06 1.91089
6.34239E+06 1.89440
6.34680E+06 1.82048
6.35121E+06 1.98054
6.35308E+06 2.02345
6.35330E+06 2.02850
6.35563E+06 2.08196
6.36000E+06 2.23785
6.36005E+06 2.23963
6.36448E+06 2.36159
6.36891E+06 2.19456
6.37000E+06 2.17549
6.37335E+06 2.11687
6.37779E+06 2.15500
6.38000E+06 2.16005
6.38224E+06 2.16517
6.38669E+06 2.17448
6.38820E+06 2.17612
6.39114E+06 2.17931
6.39560E+06 2.00294
6.40000E+06 1.82147
6.40007E+06 1.81858
6.40453E+06 1.88087
6.40901E+06 1.98645
6.41349E+06 1.91739
6.41797E+06 2.10084
6.42000E+06 2.10282
6.42246E+06 2.10521
6.42695E+06 2.14627
6.43145E+06 2.35138
6.43595E+06 2.37256
6.44000E+06 2.55041
6.44046E+06 2.57062
6.44497E+06 2.26382
6.44948E+06 2.01875
6.45401E+06 1.92397
6.45853E+06 1.98788
6.46000E+06 1.91187
6.46306E+06 1.75363
6.46440E+06 1.72621
6.46987E+06 1.61430
6.47896E+06 1.52794
6.48000E+06 1.52709
6.48807E+06 1.52053
6.49720E+06 1.45339
6.50000E+06 1.53968
6.50230E+06 1.61057
6.50634E+06 1.73508
6.51551E+06 1.80970
6.52450E+06 1.77352
6.52470E+06 1.77272
6.53390E+06 1.74381
6.54000E+06 1.67621
6.54313E+06 1.64152
6.55238E+06 1.52848
6.56000E+06 1.50614
6.56164E+06 1.50133
6.57093E+06 1.36847
6.57290E+06 1.36541
6.57376E+06 1.36408
6.58000E+06 1.35439
6.58023E+06 1.35403
6.58955E+06 1.23147
6.59260E+06 1.23864
6.59890E+06 1.25344
6.60000E+06 1.26413
6.60826E+06 1.34441
6.61765E+06 1.59312
6.62000E+06 1.62012
6.62705E+06 1.70113
6.63648E+06 1.88789
6.64000E+06 1.97388
6.64592E+06 2.11849
6.65302E+06 2.25717
6.65776E+06 2.15121
6.66250E+06 2.22166
6.66725E+06 2.29590
6.67000E+06 2.30823
6.67200E+06 2.31719
6.67230E+06 2.31522
6.67322E+06 2.30918
6.67676E+06 2.28592
6.68000E+06 2.26796
6.68152E+06 2.25954
6.68629E+06 2.56502
6.69000E+06 2.55709
6.69106E+06 2.55482
6.69584E+06 2.66887
6.70063E+06 2.68764
6.70541E+06 2.54850
6.70890E+06 2.48060
6.71000E+06 2.45921
6.71021E+06 2.45511
6.71070E+06 2.44982
6.71501E+06 2.40319
6.71981E+06 2.26812
6.72000E+06 2.26927
6.72462E+06 2.29729
6.72944E+06 2.24476
6.73000E+06 2.23817
6.73425E+06 2.18817
6.73908E+06 2.17279
6.74000E+06 2.19202
6.74391E+06 2.27373
6.74995E+06 2.18800
6.75000E+06 2.18754
6.75092E+06 2.17921
6.75092E+06 2.17919
6.75722E+06 2.12220
6.76000E+06 2.12578
6.76450E+06 2.13157
6.77178E+06 2.21819
6.77300E+06 2.22577
6.77909E+06 2.26362
6.78000E+06 2.25339
6.78640E+06 2.18142
6.79040E+06 2.11428
6.79372E+06 2.05855
6.79440E+06 2.05379
6.79444E+06 2.05354
6.80000E+06 2.01459
6.80106E+06 2.00717
6.80840E+06 1.91419
6.81576E+06 1.79964
6.82000E+06 1.87133
6.82314E+06 1.92442
6.83052E+06 1.95705
6.83792E+06 1.79109
6.84000E+06 1.79656
6.84532E+06 1.81054
6.85274E+06 1.89330
6.85780E+06 2.02646
6.85970E+06 2.07644
6.85971E+06 2.07663
6.86000E+06 2.08433
6.86018E+06 2.08908
6.86762E+06 2.15251
6.87508E+06 1.99611
6.88254E+06 1.94823
6.89003E+06 1.99635
6.89752E+06 2.03029
6.90502E+06 1.91134
6.91254E+06 1.85366
6.92000E+06 1.76936
6.92007E+06 1.76857
6.92761E+06 1.70079
6.93220E+06 1.63100
6.93223E+06 1.63053
6.93517E+06 1.58585
6.93740E+06 1.61005
6.94000E+06 1.63827
6.94274E+06 1.66800
6.95000E+06 1.61063
6.95032E+06 1.60810
6.95190E+06 1.65972
6.95192E+06 1.66024
6.95791E+06 1.85606
6.96000E+06 1.90307
6.96551E+06 2.02701
6.97313E+06 2.14937
6.98000E+06 2.07145
6.98076E+06 2.06282
6.98840E+06 1.92043
6.99606E+06 1.84606
7.00000E+06 1.83469
7.00150E+06 1.83036
7.00372E+06 1.82395
7.01140E+06 1.91165
7.01910E+06 2.10070
7.02000E+06 2.10893
7.02680E+06 2.17113
7.03452E+06 2.16886
7.04000E+06 2.22150
7.04225E+06 2.24312
7.04960E+06 2.19280
7.04999E+06 2.19013
7.05775E+06 2.15794
7.06000E+06 2.17678
7.06682E+06 2.23390
7.07720E+06 2.21785
7.08000E+06 2.13606
7.08760E+06 1.91404
7.09190E+06 1.82397
7.09385E+06 1.78312
7.09386E+06 1.78302
7.09803E+06 1.69556
7.10000E+06 1.66552
7.10730E+06 1.55419
7.10732E+06 1.55382
7.10848E+06 1.53619
7.10980E+06 1.52757
7.11570E+06 1.48904
7.11896E+06 1.46775
7.12000E+06 1.46932
7.12700E+06 1.47993
7.12701E+06 1.47994
7.12946E+06 1.48365
7.13500E+06 1.50992
7.13740E+06 1.52130
7.13998E+06 1.53354
7.14000E+06 1.53372
7.15052E+06 1.62917
7.16000E+06 1.80337
7.16109E+06 1.82340
7.16190E+06 1.83526
7.17168E+06 1.97843
7.17670E+06 2.00819
7.17674E+06 2.00843
7.18230E+06 2.04139
7.19293E+06 2.06568
7.20000E+06 2.07343
7.20360E+06 2.07738
7.21400E+06 2.16268
7.21428E+06 2.16498
7.21720E+06 2.18071
7.22000E+06 2.19579
7.22499E+06 2.22266
7.23573E+06 2.05828
7.24000E+06 2.08433
7.24514E+06 2.11569
7.25322E+06 2.17482
7.26000E+06 2.12731
7.26132E+06 2.11806
7.26170E+06 2.12085
7.26610E+06 2.15311
7.26943E+06 2.17753
7.27755E+06 2.16398
7.28000E+06 2.17801
7.28569E+06 2.21060
7.29384E+06 2.21344
7.30000E+06 2.20288
7.30200E+06 2.19945
7.31018E+06 2.05158
7.31837E+06 2.20502
7.32658E+06 2.33605
7.33480E+06 2.40642
7.34000E+06 2.29265
7.34303E+06 2.22635
7.35128E+06 2.24973
7.35954E+06 2.19091
7.36000E+06 2.18900
7.36781E+06 2.15664
7.37610E+06 2.25060
7.38000E+06 2.27669
7.38441E+06 2.30619
7.39272E+06 2.28083
7.40000E+06 2.15555
7.40105E+06 2.13748
7.40940E+06 2.07044
7.41776E+06 2.09164
7.42000E+06 2.10886
7.42613E+06 2.15597
7.43452E+06 2.27732
7.44000E+06 2.32594
7.44292E+06 2.35184
7.45134E+06 2.27224
7.46000E+06 2.15118
7.46259E+06 2.11497
7.47668E+06 1.94289
7.48000E+06 1.93680
7.49081E+06 1.91697
7.50000E+06 1.96474
7.50498E+06 1.99063
7.51460E+06 1.94841
7.51919E+06 1.92826
7.52000E+06 1.93455
7.53345E+06 2.03901
7.54000E+06 2.01227
7.54774E+06 1.98068
7.55000E+06 1.98675
7.56208E+06 2.01918
7.57645E+06 1.97521
7.57880E+06 1.98618
7.58000E+06 1.99178
7.59087E+06 2.04252
7.60000E+06 2.03660
7.60533E+06 2.03315
7.61983E+06 1.96087
7.62000E+06 1.95903
7.62640E+06 1.88991
7.63437E+06 1.80382
7.64000E+06 1.90025
7.64710E+06 2.02186
7.64711E+06 2.02200
7.64895E+06 2.05355
7.64900E+06 2.05423
7.66000E+06 2.20480
7.66358E+06 2.25380
7.67825E+06 2.12505
7.68000E+06 2.10609
7.68200E+06 2.08443
7.68300E+06 2.07359
7.68440E+06 2.05843
7.68441E+06 2.05837
7.69296E+06 1.96570
7.70000E+06 1.95709
7.70771E+06 1.94766
7.71860E+06 2.10050
7.72000E+06 2.12014
7.72250E+06 2.15523
7.73734E+06 2.32083
7.74000E+06 2.29736
7.75222E+06 2.18953
7.76000E+06 2.18255
7.76715E+06 2.17613
7.78000E+06 2.14290
7.78211E+06 2.13744
7.79712E+06 2.22040
7.80000E+06 2.19813
7.80330E+06 2.17260
7.81218E+06 2.10392
7.82000E+06 2.07732
7.83484E+06 2.02684
7.84000E+06 2.03821
7.86000E+06 2.08229
7.86522E+06 2.09379
7.89577E+06 2.21179
7.90000E+06 2.22793
7.90750E+06 2.25655
7.92000E+06 2.30424
7.92650E+06 2.32904
7.94000E+06 2.26995
7.95741E+06 2.19375
7.96000E+06 2.19031
7.96760E+06 2.18023
7.98000E+06 2.16376
7.98850E+06 2.15248
8.00000E+06 2.13829
8.01978E+06 2.11386
8.03000E+06 2.04926
8.05124E+06 1.91499
8.06000E+06 1.87169
8.07180E+06 1.81336
8.08000E+06 1.77283
8.08020E+06 1.77184
8.08288E+06 1.75859
8.10000E+06 1.75193
8.11472E+06 1.74621
8.12000E+06 1.75621
8.14000E+06 1.79407
8.14674E+06 1.80683
8.16000E+06 1.78908
8.17610E+06 1.76752
8.17895E+06 1.76371
8.21136E+06 1.95485
8.21900E+06 1.97260
8.21901E+06 1.97262
8.22000E+06 1.97491
8.24000E+06 2.02136
8.24396E+06 2.03055
8.26000E+06 2.00219
8.27676E+06 1.97255
8.28000E+06 1.96813
8.30000E+06 1.94084
8.30975E+06 1.92754
8.32000E+06 1.94709
8.34294E+06 1.99085
8.36000E+06 2.04370
8.37633E+06 2.09429
8.40000E+06 2.11111
8.40993E+06 2.11817
8.42000E+06 2.06860
8.44372E+06 1.95183
8.46000E+06 1.97652
8.47773E+06 2.00342
8.48000E+06 2.00092
8.50000E+06 1.97887
8.51193E+06 1.96570
8.52000E+06 1.97536
8.54000E+06 1.99929
8.54635E+06 2.00689
8.55680E+06 2.00827
8.56000E+06 2.00870
8.58000E+06 2.01134
8.58098E+06 2.01147
8.58490E+06 2.01390
8.60000E+06 2.02328
8.61582E+06 2.03310
8.62000E+06 2.02271
8.62830E+06 2.00209
8.64000E+06 1.97301
8.65087E+06 1.94600
8.66000E+06 1.95886
8.68000E+06 1.98705
8.68614E+06 1.99570
8.70000E+06 1.91771
8.71630E+06 1.82599
8.71631E+06 1.82591
8.72162E+06 1.79606
8.74000E+06 1.73846
8.74530E+06 1.72186
8.75733E+06 1.68416
8.76000E+06 1.68409
8.77000E+06 1.68382
8.78000E+06 1.68355
8.79325E+06 1.68320
8.80000E+06 1.69805
8.82000E+06 1.74204
8.82940E+06 1.76272
8.85100E+06 1.84516
8.85100E+06 1.84516
8.86577E+06 1.90153
8.89870E+06 1.98158
8.90237E+06 1.99050
8.93919E+06 2.01465
8.97625E+06 2.08951
8.98000E+06 2.09749
8.98180E+06 2.10132
9.00000E+06 2.14005
9.01354E+06 2.16886
9.05106E+06 2.13072
9.08882E+06 1.96519
9.12681E+06 1.88420
9.13010E+06 1.87803
9.16505E+06 1.81248
9.20353E+06 1.81588
9.22500E+06 1.69242
9.22502E+06 1.69233
9.24225E+06 1.59323
9.28122E+06 1.68939
9.32043E+06 1.96195
9.32450E+06 1.96289
9.33860E+06 1.96615
9.35001E+06 1.96879
9.36980E+06 1.73180
9.38966E+06 1.82125
9.40959E+06 2.00406
9.42957E+06 2.05210
9.45967E+06 2.02860
9.50000E+06 1.87972
9.50003E+06 1.87961
9.54065E+06 1.95569
9.57510E+06 1.85587
9.58153E+06 1.83724
9.62268E+06 1.73192
9.66409E+06 1.68849
9.69880E+06 1.70730
9.70577E+06 1.71108
9.74773E+06 1.77887
9.78996E+06 1.86594
9.80000E+06 1.86740
9.81260E+06 1.86923
9.83246E+06 1.87212
9.87525E+06 1.85676
9.93995E+06 1.93281
1.00000E+07 1.87628
1.00272E+07 1.85068
1.01157E+07 1.90557
1.02053E+07 1.91375
1.02961E+07 1.83614
1.03460E+07 1.88855
1.03881E+07 1.93277
1.04814E+07 1.68359
1.05000E+07 1.70437
1.05200E+07 1.72672
1.05400E+07 1.74907
1.05760E+07 1.78929
1.05800E+07 1.78443
1.06000E+07 1.76013
1.06718E+07 1.67290
1.07690E+07 1.83882
1.08000E+07 1.84996
1.08500E+07 1.86793
1.08675E+07 1.87422
1.08800E+07 1.87234
1.09000E+07 1.86933
1.09400E+07 1.86331
1.09530E+07 1.86136
1.09600E+07 1.86030
1.09674E+07 1.85919
1.09800E+07 1.85110
1.10000E+07 1.83825
1.10686E+07 1.79418
1.11600E+07 1.68259
1.11713E+07 1.66879
1.12000E+07 1.68782
1.12754E+07 1.73781
1.13000E+07 1.75607
1.13800E+07 1.81544
1.13810E+07 1.81618
1.14000E+07 1.82281
1.14400E+07 1.83674
1.14600E+07 1.84372
1.14800E+07 1.85069
1.14881E+07 1.85351
1.15600E+07 1.85677
1.15967E+07 1.85843
1.17069E+07 1.80314
1.17250E+07 1.80173
1.18187E+07 1.79435
1.18250E+07 1.79540
1.19000E+07 1.80790
1.19321E+07 1.81325
1.19750E+07 1.82227
1.20000E+07 1.82752
1.20040E+07 1.82836
1.20471E+07 1.83742
1.21000E+07 1.86580
1.21638E+07 1.90003
1.22823E+07 1.88689
1.24024E+07 1.91122
1.24450E+07 1.84998
1.25000E+07 1.77092
1.25244E+07 1.73585
1.26482E+07 1.93347
1.27738E+07 1.95014
1.29014E+07 1.91725
1.30000E+07 1.95033
1.30308E+07 1.96067
1.31623E+07 1.87371
1.32957E+07 1.79173
1.34313E+07 1.91127
1.34500E+07 1.89714
1.35689E+07 1.80729
1.37086E+07 1.76360
1.38506E+07 1.96157
1.39000E+07 1.88963
1.39947E+07 1.75173
1.40000E+07 1.75456
1.41412E+07 1.82987
1.42899E+07 1.85276
1.44411E+07 1.88475
1.45000E+07 1.82276
1.45120E+07 1.81013
1.45947E+07 1.72310
1.47500E+07 1.72616
1.47507E+07 1.72617
1.49094E+07 1.81896
1.50000E+07 1.74709
1.50705E+07 1.69116
1.52344E+07 1.82461
1.54009E+07 1.79912
1.55703E+07 1.72979
1.57424E+07 1.73064
1.57500E+07 1.73586
1.59175E+07 1.85093
1.60000E+07 1.85587
1.60955E+07 1.86158
1.61320E+07 1.85556
1.62765E+07 1.83172
1.64606E+07 1.77297
1.66479E+07 1.95782
1.68385E+07 1.85684
1.70000E+07 1.87019
1.70324E+07 1.87287
1.72296E+07 1.85254
1.74304E+07 1.84849
1.75000E+07 1.82841
1.76347E+07 1.78954
1.77500E+07 1.80432
1.77940E+07 1.80997
1.77970E+07 1.81035
1.78426E+07 1.81620
1.80000E+07 1.88183
1.80543E+07 1.90447
1.81470E+07 1.87915
1.82698E+07 1.84560
1.84892E+07 1.80049
1.87127E+07 1.94135
1.89403E+07 1.90233
1.90000E+07 1.88729
1.91720E+07 1.84397
1.92500E+07 1.84052
1.94081E+07 1.83353
1.95000E+07 1.83552
1.96487E+07 1.83874
2.00000E+07 1.86902
2.00000E+07 1.84000
2.01512E+07 1.84421
2.06042E+07 1.85576
2.10000E+07 1.86400
2.20000E+07 1.88000
2.30000E+07 1.89360
2.40000E+07 1.90600
2.48970E+07 1.91566
2.50000E+07 1.91666
2.60000E+07 1.92500
2.61795E+07 1.92622
2.64639E+07 1.92793
2.65345E+07 1.92832
2.70000E+07 1.93056
2.71925E+07 1.93134
2.74715E+07 1.93236
2.80000E+07 1.93400
2.85194E+07 1.93525
2.90000E+07 1.93607
2.92624E+07 1.93640
2.94080E+07 1.93655
3.00000E+07 1.93700
3.09984E+07 1.93699
3.10000E+07 1.93699
3.15900E+07 1.93649
3.20000E+07 1.93594
3.23171E+07 1.93542
3.29207E+07 1.93419
3.30000E+07 1.93401
3.40000E+07 1.93132
3.48812E+07 1.92842
3.50000E+07 1.92800
3.51570E+07 1.92741
3.53239E+07 1.92673
3.60000E+07 1.92341
3.70000E+07 1.91710
3.74690E+07 1.91365
3.74860E+07 1.91352
3.80000E+07 1.90941
3.80003E+07 1.90940
3.90000E+07 1.90062
3.92809E+07 1.89799
3.98980E+07 1.89201
4.00000E+07 1.89100
4.10000E+07 1.88061
4.10936E+07 1.87960
4.11255E+07 1.87925
4.20000E+07 1.86947
4.20052E+07 1.86941
4.30000E+07 1.85774
4.40000E+07 1.84554
4.40058E+07 1.84547
4.48035E+07 1.83549
4.50000E+07 1.83300
4.50816E+07 1.83197
4.53581E+07 1.82844
4.57324E+07 1.82362
4.60000E+07 1.82015
4.60621E+07 1.81934
4.65449E+07 1.81299
4.67752E+07 1.80993
4.70000E+07 1.80693
4.80000E+07 1.79333
4.90000E+07 1.77936
4.95280E+07 1.77182
5.00000E+07 1.76500
5.08320E+07 1.75276
5.10000E+07 1.75025
5.17139E+07 1.73944
5.19292E+07 1.73613
5.20000E+07 1.73503
5.30000E+07 1.71929
5.40000E+07 1.70296
5.48247E+07 1.68902
5.50000E+07 1.68600
5.57170E+07 1.67363
5.60000E+07 1.66875
5.66164E+07 1.65814
5.70000E+07 1.65154
5.80000E+07 1.63436
5.90000E+07 1.61718
6.00000E+07 1.60000
6.06696E+07 1.58856
6.10000E+07 1.58297
6.20000E+07 1.56624
6.22088E+07 1.56279
6.30000E+07 1.54984
6.40000E+07 1.53376
6.50000E+07 1.51800
6.53070E+07 1.51324
6.60000E+07 1.50268
6.70000E+07 1.48769
6.80000E+07 1.47275
6.90000E+07 1.45759
7.00000E+07 1.44200
7.10000E+07 1.42595
7.16193E+07 1.41591
7.20000E+07 1.40972
7.30000E+07 1.39352
7.40000E+07 1.37756
7.50000E+07 1.36200
7.60000E+07 1.34689
7.70000E+07 1.33211
7.80000E+07 1.31759
7.90000E+07 1.30324
8.00000E+07 1.28900
8.10000E+07 1.27449
8.20000E+07 1.25965
8.30000E+07 1.24489
8.40000E+07 1.23057
8.50000E+07 1.21700
8.60000E+07 1.20439
8.70000E+07 1.19246
8.80000E+07 1.18081
8.90000E+07 1.16910
9.00000E+07 1.15700
9.10000E+07 1.14472
9.20000E+07 1.13267
9.30000E+07 1.12085
9.40000E+07 1.10929
9.50000E+07 1.09800
9.60000E+07 1.08694
9.70000E+07 1.07608
9.80000E+07 1.06546
9.90000E+07 1.05509
1.00000E+08 1.04500
1.02000E+08 1.02563
1.04000E+08 1.00719
1.06000E+08 0.989531
1.08000E+08 0.972505
1.10000E+08 0.956000
1.12000E+08 0.939979
1.14000E+08 0.924474
1.16000E+08 0.909481
1.18000E+08 0.894992
1.20000E+08 0.881000
1.22000E+08 0.867579
1.24000E+08 0.854746
1.26000E+08 0.842419
1.28000E+08 0.830525
1.30000E+08 0.819000
1.32000E+08 0.807898
1.34000E+08 0.797286
1.36000E+08 0.787122
1.38000E+08 0.777371
1.40000E+08 0.768000
1.42000E+08 0.759095
1.44000E+08 0.750710
1.46000E+08 0.742774
1.48000E+08 0.735223
1.50000E+08 0.728000