Si-30(n,tot) ENDF/B-VII.1
Energy(eV) XS(b)
1.00000E-05 7.84334
1.25000E-05 7.27472
1.50000E-05 6.85499
2.00000E-05 6.26582
2.75000E-05 5.70522
3.50000E-05 5.33628
4.25000E-05 5.06994
5.00000E-05 4.86604
6.25000E-05 4.61174
7.50000E-05 4.42403
0.000100000 4.16055
0.000125000 3.98074
0.000150000 3.84800
0.000200000 3.66169
0.000275000 3.48442
0.000350000 3.36775
0.000425000 3.28352
0.000500000 3.21904
0.000625000 3.13863
0.000750000 3.07927
0.00100000 2.99595
0.00125000 2.93909
0.00150000 2.89711
0.00200000 2.83820
0.00275000 2.78214
0.00350000 2.74524
0.00425000 2.71861
0.00500000 2.69822
0.00625000 2.67279
0.00750000 2.65402
0.0100000 2.62767
0.0125000 2.60969
0.0150000 2.59641
0.0200000 2.57778
0.0253000 2.56443
0.0314750 2.55335
0.0376500 2.54513
0.0500000 2.53352
0.0625000 2.52548
0.0750000 2.51954
0.100000 2.51121
0.125000 2.50552
0.150000 2.50133
0.200000 2.49543
0.275000 2.48983
0.350000 2.48614
0.500000 2.48144
0.750000 2.47701
1.00000 2.47438
1.50000 2.47125
2.00000 2.46939
2.75000 2.46761
3.50000 2.46644
5.00000 2.46495
7.50000 2.46355
10.0000 2.46270
15.0000 2.46170
20.0000 2.46110
27.5000 2.46051
35.0000 2.46012
50.0000 2.45960
75.0000 2.45908
100.000 2.45874
150.000 2.45826
200.000 2.45792
275.000 2.45750
350.000 2.45714
500.000 2.45651
750.000 2.45560
1000.00 2.45477
1250.00 2.45406
1500.00 2.45362
1625.00 2.45366
1750.00 2.45417
1812.50 2.45481
1875.00 2.45595
1937.50 2.45811
2000.00 2.46253
2029.29 2.46626
2058.59 2.47212
2087.88 2.48201
2117.18 2.50046
2131.82 2.51627
2146.47 2.54074
2161.12 2.58143
2175.76 2.65639
2183.09 2.72005
2190.41 2.81788
2197.73 2.97939
2205.06 3.27420
2208.72 3.52262
2212.38 3.90164
2216.04 4.52154
2219.70 5.63848
2221.53 6.56805
2223.37 7.96944
2225.20 10.2245
2227.03 14.1924
2227.94 17.4212
2228.86 22.1740
2229.77 29.5970
2230.69 42.0845
2231.60 65.5338
2232.06 85.7723
2232.52 117.176
2232.98 169.636
2233.43 265.064
2233.66 344.065
2233.89 459.947
2234.12 634.003
2234.35 893.962
2234.68 1429.58
2235.00 1784.91
2235.33 1427.83
2235.65 894.300
2235.99 544.212
2236.32 351.302
2236.66 241.503
2236.99 175.154
2237.33 132.368
2237.66 103.539
2238.33 68.3660
2239.00 48.6948
2239.67 36.6379
2241.00 23.2775
2242.34 16.4427
2243.68 12.4945
2245.02 10.0092
2246.36 8.34462
2249.03 6.32271
2251.71 5.18908
2254.39 4.49011
2257.06 4.02891
2262.42 3.47710
2267.77 3.17210
2273.12 2.98582
2278.47 2.86375
2289.18 2.71863
2299.88 2.63885
2310.59 2.59028
2321.29 2.55849
2342.70 2.52073
2364.11 2.49994
2385.52 2.48724
2406.93 2.47889
2449.75 2.46890
2492.57 2.46330
2535.39 2.45982
2578.21 2.45748
2663.85 2.45455
2749.49 2.45278
2920.77 2.45068
3092.05 2.44937
3263.33 2.44837
3605.90 2.44681
3948.46 2.44551
4291.02 2.44449
4462.30 2.44425
4633.58 2.44479
4719.22 2.44613
4762.04 2.44767
4804.86 2.45064
4847.68 2.45728
4869.09 2.46405
4890.50 2.47658
4901.20 2.48725
4911.91 2.50366
4922.61 2.53079
4933.32 2.58038
4938.67 2.62221
4944.02 2.68609
4949.38 2.79072
4954.73 2.97965
4957.41 3.13724
4960.08 3.37522
4962.76 3.75924
4965.43 4.43819
4966.77 4.99289
4968.11 5.81317
4969.45 7.10009
4970.79 9.28502
4972.13 13.4348
4972.79 17.0628
4973.46 22.7848
4974.13 32.5160
4974.80 50.8122
4975.14 66.4398
4975.47 89.9923
4975.81 126.856
4976.14 184.509
4976.57 293.934
4977.00 366.664
4977.43 293.705
4977.86 184.596
4978.21 125.324
4978.55 88.1229
4978.90 64.5947
4979.25 49.1884
4979.94 31.3029
4980.63 21.8826
4981.32 16.3778
4982.01 12.9019
4983.40 8.94339
4984.78 6.86429
4986.16 5.64217
4987.55 4.86414
4988.93 4.33903
4991.70 3.69551
4994.47 3.33171
4997.23 3.10615
5000.00 2.95672
5004.88 2.79302
5009.77 2.69669
5014.65 2.63525
5019.53 2.59366
5029.30 2.54257
5039.06 2.51355
5048.83 2.49548
5058.59 2.48346
5078.13 2.46895
5097.66 2.46082
5117.19 2.45580
5156.25 2.45013
5195.31 2.44713
5234.38 2.44532
5312.50 2.44326
5468.75 2.44132
5625.00 2.44024
5937.50 2.43875
6250.00 2.43753
7500.00 2.43309
10000.0 2.42450
15000.0 2.40721
20000.0 2.38952
27500.0 2.36208
35000.0 2.33334
50000.0 2.27094
75000.0 2.14535
100000 1.97159
119623 1.76688
129434 1.62175
139245 1.42690
149056 1.15006
153962 0.963804
158868 0.732460
163773 0.448334
168679 0.137154
169905 0.0719349
170518 0.0455256
171132 0.0252778
171745 0.0132657
172051 0.0111558
172358 0.0121638
172665 0.0167473
172971 0.0254264
173278 0.0387931
173584 0.0575206
174198 0.114227
174811 0.203024
175424 0.333561
176037 0.518236
176650 0.772825
177264 1.11709
178490 2.17525
179740 3.96376
180990 6.64457
183490 13.0553
184740 14.7620
185990 14.8919
188490 12.8121
191408 10.1718
194325 8.34794
197243 7.13832
200161 6.30738
203078 5.71113
205996 5.26626
211831 4.65138
217666 4.24885
223502 3.96567
229337 3.75678
230796 3.71399
232254 3.67693
232984 3.66352
233348 3.66027
233713 3.66246
234078 3.67776
234260 3.69721
234443 3.73529
234625 3.81742
234716 3.89650
234807 4.03242
234898 4.29342
234944 4.52293
234990 4.88626
235035 5.50658
235081 6.67825
235104 7.68132
235126 9.20323
235149 11.5886
235172 15.3286
235201 22.3927
235230 27.0822
235259 22.3765
235288 15.3464
235321 10.3931
235354 7.82783
235387 6.42955
235420 5.60741
235453 5.08867
235486 4.74456
235552 4.33133
235617 4.10266
235683 3.96350
235815 3.80919
235947 3.72930
236078 3.68200
236342 3.62952
236605 3.60086
236868 3.58215
237395 3.55717
237922 3.53916
238448 3.52412
239502 3.49803
241608 3.45265
243715 3.41182
252142 3.27512
268996 3.07997
285849 2.94254
294276 2.88419
296383 2.86988
298490 2.85687
299543 2.85373
300070 2.85555
300596 2.86373
301123 2.88902
301386 2.91793
301650 2.97324
301913 3.09097
302045 3.20261
302176 3.39014
302308 3.73400
302440 4.44500
302506 5.10854
302571 6.19728
302637 8.08574
302703 11.4497
302772 17.0280
302840 21.1598
302909 18.0054
302977 12.6186
303031 9.65819
303084 7.74136
303137 6.49513
303191 5.66010
303298 4.66409
303404 4.12214
303511 3.79639
303618 3.58534
303832 3.33657
304045 3.19985
304259 3.11590
304686 3.02069
305113 2.96934
305541 2.93757
306395 2.90019
307250 2.87836
308104 2.86344
309813 2.84297
313231 2.81618
316649 2.79602
330320 2.73394
357664 2.63953
385007 2.56214
391843 2.54410
398678 2.52788
402096 2.52345
403805 2.52473
405514 2.53223
407223 2.55564
408078 2.58161
408932 2.62921
409787 2.72350
410214 2.80637
410641 2.93494
411068 3.14509
411496 3.51075
411923 4.19314
412350 5.52369
412745 7.59568
413140 9.20904
413535 8.14727
413930 6.20381
414381 4.75001
414833 3.96773
415284 3.52909
415736 3.26424
416187 3.09318
416638 2.97637
417541 2.83101
418444 2.74653
419347 2.69240
421152 2.62803
422958 2.59124
424763 2.56723
428374 2.53686
435597 2.50268
442819 2.48045
471707 2.41962
529485 2.32825
587262 2.24762
616150 2.20813
623373 2.19838
630595 2.18909
634206 2.18514
637817 2.18325
639622 2.18513
641428 2.19488
642331 2.21007
642782 2.22529
643233 2.25235
643685 2.30663
643911 2.35651
644136 2.43909
644362 2.58957
644475 2.71539
644588 2.90451
644701 3.20548
644813 3.71677
644926 4.65293
645039 6.44706
645140 9.03204
645240 10.7740
645341 9.07396
645441 6.49540
645557 4.65811
645673 3.71232
645788 3.20000
645904 2.90051
646020 2.71247
646136 2.58769
646367 2.43820
646599 2.35576
646830 2.30561
647293 2.25022
647756 2.22176
648219 2.20507
649145 2.18693
650071 2.17742
650997 2.17151
652848 2.16419
656552 2.15558
660255 2.14932
667663 2.13889
675070 2.13005
682477 2.12325
689884 2.12015
693587 2.12120
697291 2.12596
699143 2.13167
700995 2.14491
701920 2.16093
702383 2.17584
702846 2.20153
703309 2.25213
703541 2.29834
703772 2.37471
704004 2.51386
704119 2.63006
704235 2.80472
704351 3.08217
704467 3.55175
704582 4.40550
704698 6.02351
704804 8.40878
704910 10.0196
705016 8.47885
705122 6.13703
705186 5.11964
705251 4.39919
705380 3.52994
705508 3.06822
705637 2.80153
705766 2.63538
705895 2.52570
706152 2.39501
706410 2.32352
706667 2.28046
707182 2.23399
707697 2.21148
708212 2.19963
709242 2.19023
710272 2.18959
711302 2.19330
713362 2.20856
717481 2.26467
721601 2.36569
725721 2.54684
729841 2.88730
733960 3.57053
738080 5.00799
741765 7.33625
745450 9.42446
749135 8.60559
752820 6.56281
755564 5.39705
758307 4.59245
763794 3.65501
769281 3.16730
774768 2.88125
780254 2.69535
785741 2.56291
788485 2.50825
791228 2.45763
793972 2.40946
794658 2.40044
795343 2.40212
795686 2.41817
796029 2.47169
796201 2.53746
796372 2.67198
796458 2.79220
796544 2.97845
796629 3.27555
796715 3.75412
796950 5.80407
797068 5.45056
797185 4.46913
797264 3.95453
797342 3.58753
797421 3.32951
797499 3.14555
797657 2.90987
797814 2.77146
797971 2.68293
798128 2.62250
798442 2.54621
798757 2.50027
799071 2.46934
799699 2.42924
800328 2.40287
800957 2.38288
802214 2.35144
804728 2.29773
805985 2.27385
806300 2.27461
806614 2.29423
806771 2.32748
806928 2.41120
807007 2.49994
807085 2.66102
807164 2.97674
807243 3.63050
807380 5.64443
807449 5.29635
807518 4.31402
807566 3.77835
807614 3.40438
807710 2.96472
807806 2.73634
807902 2.60424
808094 2.46363
808286 2.39174
808670 2.31745
809054 2.27602
809438 2.24838
809822 2.23960
810014 2.25739
810206 2.32551
810302 2.40665
810398 2.55891
810494 2.85406
810590 3.43316
810695 4.56382
810800 5.60000
810905 5.29707
811010 4.43697
811135 3.69878
811260 3.27537
811385 3.02426
811510 2.86467
811760 2.67947
812010 2.57777
812260 2.51413
812510 2.47057
813010 2.41431
813510 2.37876
814010 2.35357
815010 2.31858
817010 2.27392
819011 2.24154
823011 2.18729
827011 2.13440
831011 2.07638
835012 2.01439
837012 1.99417
838012 1.99744
839012 2.02396
840012 2.10204
841012 2.30189
842012 2.81282
843012 4.14182
843841 6.38843
844256 7.65265
844670 8.45396
845499 7.93413
846328 6.38200
846835 5.60119
847342 5.00170
848355 4.20181
849369 3.72218
850383 3.41419
851396 3.20365
852410 3.05223
854437 2.85082
856464 2.72374
858492 2.63636
862546 2.52345
866601 2.45267
870655 2.40321
872683 2.38343
874710 2.36613
876737 2.35221
877751 2.35406
878004 2.36223
878258 2.38816
878384 2.42344
878511 2.51251
878574 2.61607
878638 2.83616
878669 3.04950
878701 3.41652
878733 4.09824
878764 5.42119
878792 7.32738
878820 8.62217
878848 7.40394
878876 5.53952
878900 4.43849
878925 3.77397
878974 3.10739
879023 2.81082
879072 2.65736
879171 2.51171
879269 2.44707
879466 2.39183
879662 2.36872
880448 2.33939
882021 2.32245
885166 2.30328
888312 2.28791
891457 2.27440
904038 2.23123
929200 2.17064
954362 2.12269
966943 2.09589
970088 2.08663
973233 2.07384
974806 2.06470
976379 2.05236
977951 2.04288
978344 2.05101
978738 2.08596
978934 2.13284
979131 2.23255
979327 2.46315
979426 2.68578
979524 3.04014
979820 4.80407
979968 4.61493
980116 3.87475
980272 3.28838
980427 2.93529
980582 2.72023
980738 2.58219
981048 2.42197
981359 2.33522
981670 2.28216
981980 2.24682
982602 2.20315
983223 2.17739
983845 2.16039
985087 2.13918
987573 2.11719
990058 2.10492
995029 2.08966
1.00000E+06 2.07888
1.01120E+06 2.05975
1.02241E+06 2.04307
1.04481E+06 2.01139
1.08962E+06 1.94209
1.11203E+06 1.89643
1.12323E+06 1.86684
1.13443E+06 1.82851
1.14563E+06 1.77341
1.15123E+06 1.73389
1.15684E+06 1.67931
1.16244E+06 1.59691
1.16524E+06 1.53679
1.16804E+06 1.45450
1.17084E+06 1.33488
1.17364E+06 1.14738
1.17504E+06 1.00998
1.17644E+06 0.828363
1.17784E+06 0.593088
1.17924E+06 0.334460
1.17998E+06 0.246474
1.18035E+06 0.241546
1.18072E+06 0.278461
1.18109E+06 0.368948
1.18146E+06 0.520340
1.18220E+06 0.988203
1.18368E+06 2.01736
1.18516E+06 2.48632
1.18615E+06 2.56922
1.18714E+06 2.57427
1.18912E+06 2.50905
1.19110E+06 2.42948
1.19309E+06 2.36023
1.19507E+06 2.30337
1.19705E+06 2.25706
1.20101E+06 2.18805
1.20497E+06 2.14277
1.20894E+06 2.12365
1.21092E+06 2.13494
1.21191E+06 2.15353
1.21290E+06 2.19029
1.21389E+06 2.26449
1.21488E+06 2.42800
1.21538E+06 2.58684
1.21587E+06 2.85582
1.21637E+06 3.34127
1.21686E+06 4.24724
1.21733E+06 5.62717
1.21780E+06 6.58839
1.21827E+06 5.73869
1.21874E+06 4.38837
1.21917E+06 3.55821
1.21960E+06 3.06312
1.22003E+06 2.76184
1.22046E+06 2.56954
1.22132E+06 2.35014
1.22218E+06 2.23473
1.22304E+06 2.16591
1.22390E+06 2.12098
1.22562E+06 2.06600
1.22734E+06 2.03304
1.22906E+06 2.01032
1.23250E+06 1.97897
1.23938E+06 1.93761
1.24627E+06 1.90582
1.25315E+06 1.87722
1.26003E+06 1.84994
1.26347E+06 1.83757
1.26691E+06 1.83039
1.26863E+06 1.83453
1.27035E+06 1.85818
1.27121E+06 1.89063
1.27207E+06 1.96007
1.27250E+06 2.02369
1.27293E+06 2.12433
1.27336E+06 2.28904
1.27379E+06 2.56453
1.27490E+06 3.88182
1.27518E+06 3.98043
1.27546E+06 3.82391
1.27601E+06 3.20605
1.27641E+06 2.82825
1.27682E+06 2.56514
1.27722E+06 2.38636
1.27763E+06 2.26291
1.27843E+06 2.10967
1.27924E+06 2.02227
1.28005E+06 1.96703
1.28086E+06 1.92934
1.28247E+06 1.88097
1.28570E+06 1.82868
1.28893E+06 1.79705
1.29216E+06 1.77245
1.29539E+06 1.75051
1.29862E+06 1.73078
1.30023E+06 1.73294
1.30064E+06 1.74527
1.30104E+06 1.78385
1.30124E+06 1.83411
1.30144E+06 1.95070
1.30155E+06 2.07190
1.30165E+06 2.29498
1.30175E+06 2.74907
1.30180E+06 3.14604
1.30185E+06 3.73396
1.30192E+06 5.05307
1.30200E+06 5.96828
1.30208E+06 5.17623
1.30215E+06 3.93708
1.30222E+06 3.19725
1.30229E+06 2.74920
1.30242E+06 2.28664
1.30255E+06 2.07354
1.30268E+06 1.96117
1.30295E+06 1.85069
1.30321E+06 1.79930
1.30374E+06 1.75199
1.30427E+06 1.72935
1.30533E+06 1.70441
1.30639E+06 1.68695
1.30851E+06 1.65045
1.30957E+06 1.63308
1.30984E+06 1.63995
1.31010E+06 1.67770
1.31023E+06 1.73243
1.31037E+06 1.85440
1.31050E+06 2.15773
1.31056E+06 2.47298
1.31063E+06 3.01369
1.31080E+06 5.65758
1.31084E+06 5.86608
1.31089E+06 5.59077
1.31097E+06 4.46388
1.31107E+06 3.45725
1.31116E+06 2.88290
1.31126E+06 2.55148
1.31136E+06 2.34870
1.31155E+06 2.12036
1.31174E+06 2.00073
1.31213E+06 1.88171
1.31252E+06 1.82380
1.31329E+06 1.76709
1.31406E+06 1.73855
1.31561E+06 1.70787
1.31715E+06 1.69004
1.32024E+06 1.66841
1.32333E+06 1.65811
1.32642E+06 1.66241
1.32951E+06 1.69829
1.33106E+06 1.74324
1.33260E+06 1.82853
1.33415E+06 1.99995
1.33492E+06 2.14961
1.33569E+06 2.37385
1.33800E+06 3.57776
1.33858E+06 3.68930
1.33916E+06 3.53003
1.34031E+06 2.85203
1.34151E+06 2.33806
1.34271E+06 2.08791
1.34391E+06 1.98923
1.34511E+06 1.98101
1.34750E+06 2.16796
1.34990E+06 2.67137
1.35295E+06 3.97015
1.35600E+06 5.45755
1.35905E+06 5.49701
1.36210E+06 4.67930
1.36430E+06 4.16737
1.36650E+06 3.81410
1.37090E+06 3.50957
1.38360E+06 4.30443
1.38995E+06 4.18582
1.39313E+06 3.95611
1.39471E+06 3.84741
1.39630E+06 3.77193
1.39724E+06 3.76786
1.39818E+06 3.84373
1.39864E+06 3.94894
1.39911E+06 4.14894
1.39958E+06 4.53062
1.40005E+06 5.25342
1.40053E+06 6.44995
1.40100E+06 7.29142
1.40148E+06 6.54398
1.40195E+06 5.36140
1.40226E+06 4.80472
1.40256E+06 4.40862
1.40318E+06 3.92075
1.40379E+06 3.64485
1.40440E+06 3.46904
1.40502E+06 3.34393
1.40563E+06 3.24696
1.40686E+06 3.09382
1.40809E+06 2.95866
1.40931E+06 2.80811
1.40993E+06 2.71168
1.41054E+06 2.58684
1.41115E+06 2.44374
1.41131E+06 2.43277
1.41146E+06 2.47595
1.41161E+06 2.66005
1.41177E+06 3.19598
1.41193E+06 4.55697
1.41202E+06 5.44579
1.41210E+06 6.10758
1.41227E+06 6.19493
1.41243E+06 5.51722
1.41261E+06 4.89384
1.41278E+06 4.46195
1.41295E+06 4.16446
1.41312E+06 3.95274
1.41346E+06 3.67625
1.41380E+06 3.50491
1.41415E+06 3.38792
1.41449E+06 3.30222
1.41517E+06 3.18290
1.41654E+06 3.04005
1.41791E+06 2.95017
1.42064E+06 2.83052
1.42338E+06 2.74627
1.42885E+06 2.62430
1.43433E+06 2.53475
1.44527E+06 2.40542
1.45622E+06 2.31237
1.47811E+06 2.17671
1.50000E+06 2.06534
1.50000E+06 2.04000
1.60000E+06 1.95000
1.70000E+06 1.90000
1.75000E+06 1.84200
1.75075E+06 1.83988
1.75234E+06 1.82526
1.75393E+06 1.83238
1.75553E+06 1.86262
1.75713E+06 1.83537
1.75873E+06 1.84284
1.76034E+06 1.85111
1.76194E+06 1.84747
1.76355E+06 1.85035
1.76516E+06 1.83089
1.76677E+06 1.82555
1.76839E+06 1.80832
1.77001E+06 1.83087
1.77162E+06 1.78864
1.77325E+06 1.77773
1.77487E+06 1.75993
1.77650E+06 1.77040
1.77812E+06 1.72399
1.77975E+06 1.77777
1.78139E+06 1.77071
1.78237E+06 1.77366
1.78269E+06 1.71872
1.78302E+06 1.76151
1.78335E+06 1.86291
1.78368E+06 1.92576
1.78400E+06 1.96866
1.78433E+06 2.07194
1.78466E+06 2.05862
1.78499E+06 2.23981
1.78531E+06 2.19082
1.78564E+06 2.10045
1.78597E+06 2.01384
1.78630E+06 1.86848
1.78663E+06 1.81670
1.78695E+06 1.80360
1.78728E+06 1.70700
1.78761E+06 1.77230
1.78794E+06 1.70342
1.78860E+06 1.72619
1.78958E+06 1.68173
1.79057E+06 1.72116
1.79156E+06 1.72056
1.79255E+06 1.70420
1.79354E+06 1.75481
1.79453E+06 1.75656
1.79552E+06 1.79983
1.79651E+06 1.79606
1.79751E+06 1.81174
1.79850E+06 1.80262
1.79950E+06 1.82306
1.80049E+06 1.86264
1.80149E+06 1.85583
1.80215E+06 1.87033
1.80249E+06 1.92810
1.80282E+06 2.00024
1.80315E+06 1.97180
1.80348E+06 2.05836
1.80382E+06 2.27029
1.80415E+06 2.15482
1.80448E+06 2.43380
1.80482E+06 2.66023
1.80515E+06 2.88539
1.80548E+06 3.31726
1.80582E+06 3.36251
1.80615E+06 3.09213
1.80648E+06 2.78731
1.80682E+06 2.59907
1.80715E+06 2.22732
1.80748E+06 1.96055
1.80782E+06 1.94176
1.80815E+06 1.86404
1.80849E+06 1.64794
1.80932E+06 1.77615
1.81066E+06 1.81008
1.81200E+06 1.84461
1.81334E+06 1.85869
1.81469E+06 1.86537
1.81603E+06 1.93070
1.81738E+06 1.96121
1.81872E+06 2.09209
1.82007E+06 2.13747
1.82142E+06 2.23391
1.82278E+06 2.32989
1.82413E+06 2.47029
1.82548E+06 2.50959
1.82701E+06 2.62594
1.82871E+06 2.82690
1.83041E+06 3.05028
1.83211E+06 3.29773
1.83382E+06 3.58215
1.83518E+06 3.84331
1.83621E+06 3.99655
1.83724E+06 4.26509
1.83826E+06 4.61739
1.83929E+06 4.92826
1.84032E+06 5.27373
1.84135E+06 5.63459
1.84238E+06 6.01932
1.84341E+06 6.45552
1.84444E+06 6.74216
1.84548E+06 6.98393
1.84651E+06 7.27919
1.84755E+06 7.35957
1.84858E+06 7.70012
1.84962E+06 7.85187
1.85066E+06 7.76918
1.85170E+06 7.82144
1.85274E+06 7.98372
1.85378E+06 8.21185
1.85482E+06 8.18179
1.85586E+06 7.91681
1.85690E+06 7.69503
1.85795E+06 7.43490
1.85899E+06 7.12113
1.86004E+06 7.08833
1.86108E+06 6.93606
1.86213E+06 6.75273
1.86353E+06 6.67513
1.86528E+06 6.37363
1.86703E+06 6.09954
1.86878E+06 5.78814
1.87054E+06 5.53838
1.87230E+06 5.32829
1.87406E+06 5.11365
1.87582E+06 4.88326
1.87759E+06 4.75150
1.87936E+06 4.53649
1.88113E+06 4.35873
1.88291E+06 4.11731
1.88468E+06 3.90673
1.88646E+06 3.74492
1.88824E+06 3.59067
1.89003E+06 3.31951
1.89182E+06 3.22995
1.89361E+06 3.04287
1.89540E+06 2.86792
1.89719E+06 2.69808
1.89899E+06 2.55024
1.90079E+06 2.42022
1.90223E+06 2.26920
1.90331E+06 2.16111
1.90440E+06 2.20056
1.90548E+06 2.11937
1.90656E+06 2.19106
1.90765E+06 2.17380
1.90874E+06 2.23550
1.90983E+06 2.35475
1.91091E+06 2.61220
1.91200E+06 2.78235
1.91309E+06 3.09244
1.91437E+06 3.32061
1.91583E+06 3.73617
1.91728E+06 4.01138
1.91874E+06 4.21326
1.92021E+06 4.34020
1.92167E+06 4.38589
1.92314E+06 4.46521
1.92460E+06 4.56623
1.92570E+06 4.55002
1.92644E+06 4.61740
1.92717E+06 4.74171
1.92791E+06 5.13189
1.92865E+06 5.17160
1.92938E+06 4.81656
1.93012E+06 4.38128
1.93086E+06 4.23849
1.93159E+06 4.11940
1.93233E+06 4.13351
1.93307E+06 4.12447
1.93381E+06 4.05484
1.93510E+06 3.92928
1.93696E+06 3.89918
1.93881E+06 3.85565
1.94067E+06 3.76017
1.94253E+06 3.66674
1.94439E+06 3.66598
1.94625E+06 3.65303
1.94812E+06 3.60188
1.94999E+06 3.61767
1.95186E+06 3.58221
1.95374E+06 3.58347
1.95562E+06 3.62280
1.95750E+06 3.68324
1.95938E+06 3.74475
1.96108E+06 3.88593
1.96259E+06 3.96443
1.96410E+06 4.10785
1.96562E+06 4.33500
1.96713E+06 4.51581
1.96865E+06 4.83306
1.97017E+06 4.98247
1.97169E+06 5.24375
1.97321E+06 5.30629
1.97474E+06 5.33049
1.97626E+06 5.04431
1.97779E+06 4.90955
1.97932E+06 4.58824
1.98086E+06 4.23585
1.98239E+06 3.96229
1.98392E+06 3.78151
1.98546E+06 3.64627
1.98662E+06 3.47587
1.98739E+06 3.37997
1.98816E+06 3.49800
1.98893E+06 3.64473
1.98970E+06 3.62056
1.99047E+06 3.35864
1.99124E+06 3.12066
1.99202E+06 3.02271
1.99279E+06 2.93558
1.99356E+06 2.96760
1.99434E+06 2.96893
1.99511E+06 2.91994
1.99589E+06 2.88031
1.99724E+06 2.81812
1.99918E+06 2.77095
2.00000E+06 2.74693
2.00113E+06 2.71384
2.00308E+06 2.62237
2.00503E+06 2.58102
2.00698E+06 2.47573
2.00893E+06 2.48695
2.01089E+06 2.39581
2.01285E+06 2.38589
2.01482E+06 2.35635
2.01678E+06 2.34004
2.01875E+06 2.29326
2.02073E+06 2.28185
2.02270E+06 2.24246
2.02468E+06 2.23865
2.02666E+06 2.17186
2.02865E+06 2.12156
2.03063E+06 2.10922
2.03262E+06 2.07770
2.03462E+06 2.01304
2.03661E+06 1.93865
2.03801E+06 1.90357
2.03881E+06 1.69894
2.03961E+06 1.59587
2.04041E+06 1.42586
2.04122E+06 1.30868
2.04202E+06 1.46050
2.04282E+06 1.68318
2.04362E+06 1.97628
2.04443E+06 2.03906
2.04523E+06 2.07236
2.04644E+06 2.02409
2.04805E+06 2.05838
2.04966E+06 1.98739
2.05128E+06 1.91919
2.05289E+06 1.98738
2.05451E+06 2.00989
2.05613E+06 2.01793
2.05735E+06 2.06617
2.05816E+06 2.17013
2.05897E+06 2.29352
2.05978E+06 2.44011
2.06060E+06 2.55155
2.06141E+06 2.88447
2.06222E+06 3.12062
2.06304E+06 3.13658
2.06385E+06 2.61830
2.06467E+06 2.23650
2.06548E+06 2.07091
2.06630E+06 2.02594
2.06752E+06 1.92264
2.06916E+06 1.90137
2.07080E+06 1.84870
2.07244E+06 1.81345
2.07408E+06 1.88359
2.07572E+06 1.88389
2.07737E+06 1.97258
2.07902E+06 2.03857
2.08025E+06 2.04025
2.08108E+06 2.22598
2.08190E+06 2.40794
2.08273E+06 2.74180
2.08356E+06 3.23050
2.08438E+06 3.51641
2.08521E+06 3.45936
2.08604E+06 3.10213
2.08687E+06 3.15274
2.08770E+06 3.30718
2.08853E+06 3.71130
2.08936E+06 4.02390
2.09019E+06 4.45706
2.09102E+06 4.52560
2.09185E+06 4.44375
2.09268E+06 4.22596
2.09351E+06 4.15632
2.09435E+06 4.11735
2.09518E+06 4.13102
2.09601E+06 4.07118
2.09727E+06 4.06359
2.09894E+06 4.00748
2.10061E+06 3.93218
2.10229E+06 3.88647
2.10396E+06 3.81641
2.10564E+06 3.74104
2.10732E+06 3.73462
2.10901E+06 3.70620
2.11027E+06 3.84033
2.11111E+06 3.82694
2.11196E+06 3.89426
2.11280E+06 4.08608
2.11364E+06 4.28277
2.11449E+06 4.67751
2.11534E+06 5.06035
2.11618E+06 5.62700
2.11703E+06 5.79725
2.11788E+06 5.61726
2.11872E+06 5.21537
2.11957E+06 4.92354
2.12042E+06 4.34328
2.12127E+06 4.07138
2.12212E+06 3.89878
2.12297E+06 3.71487
2.12382E+06 3.53425
2.12467E+06 3.57431
2.12574E+06 3.39126
2.12701E+06 3.24286
2.12829E+06 3.10323
2.13000E+06 3.08878
2.13214E+06 2.94513
2.13428E+06 2.85516
2.13643E+06 2.75384
2.13858E+06 2.73876
2.14073E+06 2.65517
2.14288E+06 2.60674
2.14504E+06 2.58612
2.14720E+06 2.61729
2.14936E+06 2.65865
2.15153E+06 2.57819
2.15370E+06 2.49916
2.15588E+06 2.49114
2.15805E+06 2.50579
2.16023E+06 2.48765
2.16242E+06 2.43372
2.16461E+06 2.44861
2.16636E+06 2.44670
2.16767E+06 2.56078
2.16899E+06 2.72023
2.17031E+06 2.90703
2.17163E+06 3.13338
2.17295E+06 3.15845
2.17427E+06 3.02325
2.17559E+06 2.99093
2.17692E+06 2.89986
2.17824E+06 2.85694
2.17957E+06 2.65505
2.18134E+06 2.65602
2.18356E+06 2.58441
2.18578E+06 2.50891
2.18800E+06 2.45583
2.19022E+06 2.38151
2.19245E+06 2.37417
2.19469E+06 2.37868
2.19692E+06 2.37498
2.19916E+06 2.34322
2.20141E+06 2.31312
2.20365E+06 2.30509
2.20590E+06 2.30583
2.20816E+06 2.35603
2.21042E+06 2.29733
2.21268E+06 2.31750
2.21494E+06 2.40423
2.21721E+06 2.51345
2.21903E+06 2.59431
2.22039E+06 2.66653
2.22175E+06 2.83980
2.22312E+06 3.00920
2.22449E+06 3.20702
2.22586E+06 3.55628
2.22723E+06 3.74188
2.22860E+06 3.74719
2.22997E+06 3.60370
2.23135E+06 3.38101
2.23272E+06 3.04562
2.23410E+06 2.84281
2.23548E+06 2.65226
2.23686E+06 2.40575
2.23824E+06 2.33591
2.24008E+06 2.24629
2.24239E+06 2.12263
2.24470E+06 2.06955
2.24701E+06 2.01481
2.24933E+06 1.98565
2.25165E+06 2.01791
2.25397E+06 1.94047
2.25630E+06 1.93869
2.25863E+06 1.93197
2.26097E+06 1.93533
2.26330E+06 1.91517
2.26565E+06 2.00784
2.26799E+06 2.06497
2.27034E+06 2.21971
2.27270E+06 2.43813
2.27505E+06 2.58384
2.27741E+06 2.72593
2.27978E+06 2.93532
2.28215E+06 3.28497
2.28452E+06 3.24912
2.28689E+06 3.56984
2.28927E+06 3.69336
2.29166E+06 3.75141
2.29404E+06 3.60809
2.29643E+06 3.37141
2.29883E+06 3.22807
2.30123E+06 3.15252
2.30363E+06 3.08515
2.30603E+06 2.96771
2.30844E+06 2.91346
2.31020E+06 2.83755
2.31021E+06 2.83697
2.31086E+06 2.80905
2.31327E+06 2.72460
2.31569E+06 2.58405
2.31812E+06 2.52432
2.32055E+06 2.49667
2.32298E+06 2.45857
2.32541E+06 2.42791
2.32785E+06 2.37206
2.33030E+06 2.41018
2.33274E+06 2.36404
2.33519E+06 2.22797
2.33740E+06 2.29728
2.33937E+06 2.33723
2.34134E+06 2.27770
2.34331E+06 2.36629
2.34529E+06 2.31963
2.34726E+06 2.30175
2.34924E+06 2.42408
2.35122E+06 2.36752
2.35321E+06 2.36628
2.35519E+06 2.36320
2.35718E+06 2.37832
2.35917E+06 2.41526
2.36117E+06 2.42606
2.36316E+06 2.41432
2.36516E+06 2.48092
2.36667E+06 2.59057
2.36767E+06 2.60553
2.36867E+06 2.66534
2.36967E+06 2.86012
2.37068E+06 3.04875
2.37168E+06 3.40217
2.37268E+06 3.78011
2.37369E+06 4.00315
2.37470E+06 4.02557
2.37570E+06 3.77646
2.37671E+06 3.39897
2.37772E+06 3.13075
2.37873E+06 2.84433
2.37974E+06 2.73167
2.38075E+06 2.62248
2.38176E+06 2.53578
2.38327E+06 2.45069
2.38530E+06 2.35438
2.38732E+06 2.30165
2.38935E+06 2.30779
2.39139E+06 2.29108
2.39342E+06 2.14933
2.39546E+06 2.14578
2.39750E+06 2.15731
2.39954E+06 2.17980
2.40159E+06 2.14195
2.40364E+06 2.22359
2.40569E+06 2.13400
2.40774E+06 2.18029
2.40980E+06 2.06278
2.41186E+06 2.07699
2.41392E+06 2.10231
2.41598E+06 2.07755
2.41805E+06 2.06664
2.42012E+06 2.03104
2.42219E+06 2.03795
2.42427E+06 2.09251
2.42634E+06 2.07727
2.42842E+06 2.06919
2.43051E+06 2.11628
2.43259E+06 2.08264
2.43468E+06 1.96303
2.43677E+06 1.93478
2.43886E+06 1.81066
2.44096E+06 1.66225
2.44306E+06 1.63009
2.44516E+06 1.78228
2.44726E+06 1.99506
2.44937E+06 2.41968
2.45148E+06 2.63406
2.45359E+06 3.01107
2.45571E+06 3.30721
2.45783E+06 3.49188
2.45995E+06 3.61698
2.46207E+06 3.59717
2.46420E+06 3.47181
2.46633E+06 3.34806
2.46846E+06 3.19562
2.47059E+06 3.07668
2.47273E+06 3.10766
2.47487E+06 2.97459
2.47701E+06 3.00430
2.47916E+06 3.08516
2.48131E+06 3.13522
2.48346E+06 3.22997
2.48561E+06 3.29644
2.48723E+06 3.38487
2.48831E+06 3.46664
2.48939E+06 3.53094
2.49047E+06 3.67975
2.49155E+06 3.91316
2.49263E+06 4.16792
2.49372E+06 4.31837
2.49480E+06 4.60322
2.49588E+06 5.00171
2.49697E+06 5.17554
2.49805E+06 5.38484
2.49914E+06 5.19195
2.50000E+06 5.13467
2.50023E+06 5.11934
2.50131E+06 4.75818
2.50240E+06 4.39174
2.50349E+06 4.18345
2.50458E+06 3.99736
2.50594E+06 3.80597
2.50758E+06 3.63398
2.50922E+06 3.58345
2.51086E+06 3.51113
2.51250E+06 3.33311
2.51415E+06 3.27015
2.51579E+06 3.30987
2.51744E+06 3.24193
2.51909E+06 3.09732
2.52074E+06 3.13429
2.52294E+06 2.99835
2.52570E+06 3.01968
2.52846E+06 2.97699
2.53123E+06 2.98249
2.53400E+06 3.07469
2.53677E+06 2.93695
2.53955E+06 2.98248
2.54234E+06 2.92723
2.54513E+06 2.95705
2.54792E+06 3.09259
2.55072E+06 3.02096
2.55353E+06 2.99496
2.55633E+06 3.04448
2.55915E+06 3.05158
2.56196E+06 3.02411
2.56478E+06 3.05013
2.56761E+06 3.05235
2.57044E+06 3.16079
2.57328E+06 3.00367
2.57612E+06 2.96370
2.57896E+06 2.95243
2.58181E+06 2.88195
2.58467E+06 2.90410
2.58753E+06 2.89866
2.59039E+06 2.88046
2.59326E+06 2.94610
2.59614E+06 2.99625
2.59902E+06 3.10454
2.60190E+06 3.14642
2.60421E+06 3.06474
2.60594E+06 2.95432
2.60768E+06 2.86971
2.60942E+06 2.86803
2.61116E+06 2.80840
2.61290E+06 2.90676
2.61464E+06 2.76234
2.61639E+06 2.82403
2.61813E+06 2.86261
2.61988E+06 2.78497
2.62163E+06 2.74566
2.62339E+06 2.73465
2.62514E+06 2.76360
2.62690E+06 2.74611
2.62865E+06 2.65175
2.63041E+06 2.76512
2.63217E+06 2.64523
2.63394E+06 2.64116
2.63570E+06 2.63155
2.63747E+06 2.65205
2.63924E+06 2.63872
2.64101E+06 2.68546
2.64278E+06 2.66698
2.64455E+06 2.63826
2.64633E+06 2.65011
2.64810E+06 2.55613
2.64988E+06 2.61312
2.65166E+06 2.59705
2.65344E+06 2.64065
2.65493E+06 2.81116
2.65612E+06 2.77375
2.65731E+06 2.84540
2.65850E+06 3.36694
2.65970E+06 3.85257
2.66089E+06 4.07066
2.66208E+06 4.05107
2.66328E+06 3.36565
2.66448E+06 2.98206
2.66567E+06 2.78892
2.66687E+06 2.61240
2.66807E+06 2.57285
2.66927E+06 2.52518
2.67077E+06 2.54717
2.67257E+06 2.50583
2.67437E+06 2.56310
2.67618E+06 2.49351
2.67799E+06 2.49756
2.67979E+06 2.42801
2.68161E+06 2.39914
2.68342E+06 2.34873
2.68523E+06 2.36221
2.68705E+06 2.36161
2.68887E+06 2.44886
2.69069E+06 2.41111
2.69251E+06 2.52370
2.69433E+06 2.69616
2.69616E+06 2.81771
2.69799E+06 2.89036
2.69982E+06 2.85320
2.70165E+06 2.82641
2.70348E+06 2.75716
2.70531E+06 2.67670
2.70715E+06 2.61753
2.70899E+06 2.61461
2.71083E+06 2.50093
2.71267E+06 2.49417
2.71452E+06 2.55026
2.71636E+06 2.48469
2.71821E+06 2.49620
2.72006E+06 2.41670
2.72191E+06 2.38695
2.72377E+06 2.37699
2.72562E+06 2.28704
2.72748E+06 2.18038
2.72934E+06 2.06659
2.73120E+06 2.02113
2.73307E+06 2.09245
2.73493E+06 2.20021
2.73680E+06 2.27682
2.73867E+06 2.30922
2.74054E+06 2.34479
2.74241E+06 2.30641
2.74429E+06 2.43410
2.74616E+06 2.29426
2.74804E+06 2.33664
2.74992E+06 2.37942
2.75000E+06 2.37852
2.75180E+06 2.35849
2.75400E+06 2.32641
2.75652E+06 2.39509
2.75904E+06 2.38247
2.76156E+06 2.27441
2.76409E+06 2.22960
2.76662E+06 2.27623
2.76915E+06 2.30015
2.77169E+06 2.35284
2.77423E+06 2.44863
2.77677E+06 2.47670
2.77932E+06 2.54712
2.78187E+06 2.53342
2.78443E+06 2.55083
2.78698E+06 2.55181
2.78955E+06 2.59977
2.79211E+06 2.57080
2.79468E+06 2.58933
2.79725E+06 2.57149
2.79983E+06 2.51242
2.80241E+06 2.50065
2.80499E+06 2.53140
2.80758E+06 2.59104
2.81017E+06 2.55169
2.81276E+06 2.65841
2.81536E+06 2.61342
2.81796E+06 2.66819
2.82056E+06 2.66631
2.82317E+06 2.76317
2.82578E+06 2.85836
2.82840E+06 2.80943
2.83101E+06 2.93833
2.83364E+06 3.06675
2.83626E+06 3.15131
2.83889E+06 3.22422
2.84153E+06 3.44264
2.84416E+06 3.46903
2.84681E+06 3.57141
2.84945E+06 3.69269
2.85210E+06 3.78707
2.85475E+06 3.84780
2.85741E+06 3.71831
2.86007E+06 3.77799
2.86273E+06 3.83987
2.86539E+06 3.85258
2.86807E+06 3.80451
2.87074E+06 3.73834
2.87308E+06 3.51787
2.87509E+06 3.24618
2.87711E+06 3.03309
2.87912E+06 2.92196
2.88114E+06 2.78223
2.88316E+06 2.60338
2.88518E+06 2.57623
2.88720E+06 2.46055
2.88923E+06 2.40437
2.89125E+06 2.38901
2.89328E+06 2.28651
2.89532E+06 2.29975
2.89735E+06 2.26984
2.89939E+06 2.28356
2.90143E+06 2.18659
2.90347E+06 2.25838
2.90551E+06 2.20318
2.90755E+06 2.12359
2.90960E+06 2.10246
2.91165E+06 2.09022
2.91370E+06 2.08706
2.91575E+06 2.11216
2.91747E+06 2.08228
2.91884E+06 2.07403
2.92021E+06 2.03132
2.92158E+06 2.09238
2.92296E+06 2.09650
2.92433E+06 2.19127
2.92571E+06 2.25127
2.92709E+06 2.25118
2.92847E+06 2.33842
2.92985E+06 2.41944
2.93123E+06 2.54404
2.93261E+06 2.59127
2.93399E+06 2.75377
2.93537E+06 2.91301
2.93676E+06 3.12209
2.93814E+06 3.45366
2.93953E+06 3.35367
2.94091E+06 3.39104
2.94230E+06 3.12693
2.94369E+06 2.95527
2.94508E+06 2.67071
2.94647E+06 2.46618
2.94786E+06 2.27256
2.94926E+06 2.16837
2.95065E+06 2.05936
2.95205E+06 2.00969
2.95414E+06 1.88430
2.95693E+06 1.82896
2.95974E+06 1.79194
2.96254E+06 1.75706
2.96535E+06 1.69074
2.96816E+06 1.67490
2.97097E+06 1.59750
2.97379E+06 1.58134
2.97662E+06 1.59667
2.97945E+06 1.50931
2.98228E+06 1.46923
2.98511E+06 1.59139
2.98795E+06 1.50274
2.99080E+06 1.55270
2.99329E+06 1.63530
2.99543E+06 1.69392
2.99757E+06 1.85342
2.99971E+06 1.96380
3.00000E+06 1.97224
3.00186E+06 2.02636
3.00400E+06 2.19537
3.00615E+06 2.34166
3.00831E+06 2.51309
3.01046E+06 2.60780
3.01262E+06 2.81685
3.01478E+06 2.83877
3.01694E+06 2.78178
3.01910E+06 2.81026
3.02127E+06 2.74504
3.02344E+06 2.63738
3.02561E+06 2.56174
3.02778E+06 2.52816
3.02996E+06 2.42972
3.03213E+06 2.44372
3.03431E+06 2.44311
3.03650E+06 2.51401
3.03868E+06 2.46183
3.04087E+06 2.47889
3.04306E+06 2.57058
3.04525E+06 2.40498
3.04745E+06 2.38630
3.04964E+06 2.31999
3.05184E+06 2.24044
3.05404E+06 2.21473
3.05588E+06 2.24384
3.05735E+06 2.35555
3.05882E+06 2.52647
3.06029E+06 2.87551
3.06177E+06 3.09234
3.06324E+06 3.22539
3.06472E+06 2.94067
3.06619E+06 2.58063
3.06767E+06 2.29634
3.06915E+06 2.05234
3.07063E+06 2.00856
3.07285E+06 1.96841
3.07582E+06 1.92162
3.07879E+06 1.87222
3.08176E+06 1.88417
3.08474E+06 1.96548
3.08773E+06 1.98726
3.09072E+06 2.07116
3.09371E+06 2.22438
3.09595E+06 2.22142
3.09745E+06 2.36404
3.09896E+06 2.40712
3.10046E+06 2.46164
3.10196E+06 2.79380
3.10346E+06 2.78366
3.10497E+06 2.83949
3.10647E+06 3.15689
3.10798E+06 3.15270
3.10949E+06 3.23795
3.11100E+06 3.41367
3.11251E+06 3.23160
3.11402E+06 3.20389
3.11553E+06 3.19084
3.11705E+06 2.96734
3.11856E+06 2.91667
3.12008E+06 2.86518
3.12159E+06 2.83606
3.12311E+06 2.63889
3.12463E+06 2.56438
3.12615E+06 2.56685
3.12767E+06 2.48955
3.12920E+06 2.34713
3.13072E+06 2.29598
3.13224E+06 2.65815
3.13377E+06 2.96260
3.13530E+06 3.33592
3.13682E+06 3.59184
3.13835E+06 3.69978
3.13989E+06 3.68288
3.14142E+06 3.69822
3.14295E+06 3.91166
3.14448E+06 3.99466
3.14602E+06 3.90734
3.14755E+06 3.92124
3.14909E+06 3.67004
3.15063E+06 3.43177
3.15217E+06 3.15475
3.15371E+06 2.86658
3.15525E+06 2.71086
3.15679E+06 2.72117
3.15834E+06 2.58922
3.15988E+06 2.49615
3.16143E+06 2.35746
3.16298E+06 2.42978
3.16452E+06 2.30655
3.16607E+06 2.31384
3.16762E+06 2.27427
3.16918E+06 2.21288
3.17073E+06 2.35326
3.17228E+06 2.48691
3.17384E+06 2.56660
3.17540E+06 2.49378
3.17695E+06 2.21759
3.17851E+06 2.34681
3.18085E+06 2.16766
3.18398E+06 2.11855
3.18711E+06 2.09887
3.19024E+06 2.05670
3.19338E+06 2.01972
3.19652E+06 1.97844
3.19967E+06 1.95560
3.20282E+06 1.98055
3.20598E+06 1.95796
3.20914E+06 2.00921
3.21191E+06 2.03809
3.21429E+06 2.03185
3.21667E+06 2.09338
3.21905E+06 2.25529
3.22143E+06 2.26096
3.22382E+06 2.34611
3.22621E+06 2.46328
3.22861E+06 2.73867
3.23100E+06 3.21556
3.23340E+06 3.39771
3.23580E+06 3.44799
3.23821E+06 3.40317
3.24061E+06 3.24880
3.24302E+06 3.08533
3.24543E+06 2.78458
3.24785E+06 2.78808
3.25026E+06 2.50240
3.25269E+06 2.40279
3.25511E+06 2.25439
3.25753E+06 2.26676
3.26037E+06 2.21031
3.26361E+06 2.09685
3.26686E+06 2.14741
3.27011E+06 2.09447
3.27337E+06 2.12541
3.27663E+06 2.09744
3.27989E+06 2.12397
3.28317E+06 2.30335
3.28644E+06 2.49015
3.28972E+06 2.23950
3.29301E+06 2.09936
3.29630E+06 2.15854
3.29960E+06 2.12094
3.30290E+06 2.06826
3.30621E+06 2.08424
3.30952E+06 2.05949
3.31283E+06 2.09483
3.31616E+06 2.15151
3.31948E+06 2.13495
3.32281E+06 2.09562
3.32615E+06 2.02872
3.32949E+06 2.06298
3.33284E+06 2.21375
3.33619E+06 2.19817
3.33954E+06 2.13852
3.34291E+06 2.22769
3.34627E+06 2.15376
3.34964E+06 2.19608
3.35302E+06 2.24772
3.35640E+06 2.37812
3.35979E+06 2.32192
3.36318E+06 2.31420
3.36658E+06 2.36025
3.36998E+06 2.37128
3.37339E+06 2.46355
3.37638E+06 2.59323
3.37894E+06 2.55227
3.38151E+06 2.72973
3.38407E+06 2.79718
3.38664E+06 2.74325
3.38922E+06 2.37691
3.39180E+06 2.31030
3.39438E+06 2.16221
3.39696E+06 2.14973
3.39955E+06 2.15984
3.40214E+06 2.11606
3.40473E+06 2.21689
3.40732E+06 2.22595
3.40992E+06 2.32016
3.41252E+06 2.38025
3.41513E+06 2.39293
3.41773E+06 2.39334
3.42034E+06 2.45613
3.42296E+06 2.64260
3.42557E+06 2.75931
3.42819E+06 3.07548
3.43081E+06 3.06434
3.43344E+06 2.78646
3.43606E+06 2.63732
3.43870E+06 2.36718
3.44133E+06 2.38090
3.44441E+06 2.25649
3.44793E+06 2.14933
3.45145E+06 2.20832
3.45499E+06 2.10096
3.45853E+06 2.21020
3.46163E+06 2.27811
3.46429E+06 2.52390
3.46695E+06 2.49928
3.46962E+06 2.42243
3.47229E+06 2.28970
3.47496E+06 2.27198
3.47763E+06 2.28003
3.48031E+06 2.10197
3.48300E+06 2.17717
3.48568E+06 2.14601
3.48837E+06 2.14423
3.49106E+06 2.13003
3.49375E+06 2.19112
3.49645E+06 2.28806
3.49915E+06 2.48383
3.50000E+06 2.54017
3.50186E+06 2.66346
3.50456E+06 2.82805
3.50727E+06 2.74365
3.50999E+06 2.52226
3.51270E+06 2.33264
3.51542E+06 2.32850
3.51815E+06 2.15792
3.52087E+06 2.22511
3.52360E+06 2.27382
3.52633E+06 2.30801
3.52907E+06 2.15579
3.53181E+06 2.21305
3.53409E+06 2.35587
3.53592E+06 2.33395
3.53775E+06 2.61612
3.53959E+06 2.72600
3.54142E+06 2.65827
3.54326E+06 2.34245
3.54509E+06 2.31801
3.54693E+06 2.04471
3.54923E+06 2.09242
3.55199E+06 2.13136
3.55476E+06 2.13470
3.55753E+06 2.17744
3.56030E+06 2.21600
3.56307E+06 2.13300
3.56585E+06 2.13485
3.56863E+06 2.23351
3.57142E+06 2.19137
3.57421E+06 2.16165
3.57700E+06 1.93476
3.57979E+06 1.96316
3.58259E+06 1.82809
3.58539E+06 1.89317
3.58820E+06 1.83360
3.59054E+06 1.90895
3.59241E+06 1.88374
3.59429E+06 1.90233
3.59616E+06 2.04001
3.59804E+06 2.12207
3.59992E+06 2.00792
3.60180E+06 1.95509
3.60368E+06 1.76252
3.60557E+06 1.52083
3.60745E+06 1.55727
3.60934E+06 1.38473
3.61170E+06 1.28594
3.61453E+06 1.23051
3.61570E+06 1.22603
3.61572E+06 1.22596
3.61737E+06 1.21962
3.62022E+06 1.29428
3.62306E+06 1.33455
3.62591E+06 1.28571
3.62876E+06 1.29319
3.63162E+06 1.25188
3.63448E+06 1.26343
3.63734E+06 1.23915
3.64021E+06 1.28176
3.64308E+06 1.27049
3.64595E+06 1.34873
3.64883E+06 1.32337
3.65171E+06 1.25871
3.65459E+06 1.21380
3.65748E+06 1.24867
3.66037E+06 1.30155
3.66326E+06 1.33285
3.66616E+06 1.41650
3.66906E+06 1.38354
3.67196E+06 1.36868
3.67487E+06 1.31681
3.67778E+06 1.20435
3.68069E+06 1.19226
3.68361E+06 1.28466
3.68604E+06 1.33497
3.68799E+06 1.27693
3.68994E+06 1.30095
3.69189E+06 1.41719
3.69385E+06 1.46427
3.69580E+06 1.68539
3.69776E+06 1.89306
3.69972E+06 2.13166
3.70168E+06 2.22103
3.70364E+06 2.15855
3.70560E+06 2.02791
3.70757E+06 1.84598
3.70953E+06 1.77880
3.71150E+06 1.64192
3.71347E+06 1.58875
3.71593E+06 1.52316
3.71889E+06 1.38884
3.72186E+06 1.46822
3.72482E+06 1.54617
3.72779E+06 1.56294
3.73077E+06 1.65304
3.73374E+06 1.69294
3.73672E+06 1.80263
3.73971E+06 2.00309
3.74270E+06 2.18462
3.74569E+06 2.25373
3.74868E+06 2.31438
3.75168E+06 2.43292
3.75469E+06 2.36726
3.75769E+06 2.36130
3.76070E+06 2.40900
3.76372E+06 2.37326
3.76673E+06 2.44111
3.76975E+06 2.52845
3.77278E+06 2.51242
3.77580E+06 2.51577
3.77884E+06 2.50673
3.78187E+06 2.48730
3.78491E+06 2.58728
3.78795E+06 2.52331
3.79100E+06 2.27361
3.79405E+06 2.27817
3.79710E+06 2.28036
3.80016E+06 2.18227
3.80322E+06 2.13482
3.80629E+06 2.16453
3.80936E+06 2.12030
3.81243E+06 2.22248
3.81499E+06 2.25181
3.81704E+06 2.51544
3.81910E+06 2.76069
3.82115E+06 2.69330
3.82321E+06 2.59500
3.82527E+06 2.30430
3.82784E+06 2.10952
3.83094E+06 2.17071
3.83404E+06 2.17593
3.83662E+06 2.45321
3.83869E+06 2.61515
3.84076E+06 2.56672
3.84284E+06 2.24182
3.84491E+06 2.03309
3.84699E+06 1.68843
3.84907E+06 1.76953
3.85115E+06 1.63236
3.85375E+06 1.59663
3.85687E+06 1.60283
3.86000E+06 1.58990
3.86314E+06 1.62328
3.86628E+06 1.65317
3.86942E+06 1.69469
3.87256E+06 1.62044
3.87571E+06 1.65347
3.87886E+06 1.69148
3.88202E+06 1.70881
3.88518E+06 1.76882
3.88835E+06 1.76259
3.89152E+06 1.84847
3.89469E+06 1.79494
3.89690E+06 1.84975
3.89786E+06 1.87356
3.90104E+06 1.97446
3.90423E+06 2.18135
3.90742E+06 2.26335
3.91061E+06 2.31031
3.91380E+06 2.18290
3.91550E+06 2.26884
3.91700E+06 2.34467
3.92021E+06 2.42436
3.92341E+06 2.51779
3.92663E+06 2.65021
3.92984E+06 2.70083
3.93306E+06 2.53243
3.93628E+06 2.52499
3.93951E+06 2.52483
3.94274E+06 2.53004
3.94598E+06 2.48581
3.94922E+06 2.58133
3.95246E+06 2.77359
3.95571E+06 2.89912
3.95896E+06 2.68014
3.96222E+06 2.57171
3.96547E+06 2.48672
3.96874E+06 2.37422
3.97201E+06 2.29601
3.97528E+06 2.28089
3.97855E+06 2.14076
3.98183E+06 2.12895
3.98512E+06 2.13294
3.98840E+06 2.11758
3.99170E+06 2.12330
3.99499E+06 2.21078
3.99829E+06 2.23900
4.00000E+06 2.26782
4.00160E+06 2.29479
4.00490E+06 2.20411
4.00822E+06 2.10507
4.01153E+06 2.12017
4.01485E+06 2.13030
4.01818E+06 2.22708
4.02151E+06 2.22768
4.02484E+06 2.42120
4.02818E+06 2.33074
4.03152E+06 2.48502
4.03486E+06 2.58812
4.03821E+06 2.61082
4.04157E+06 2.69692
4.04493E+06 2.73598
4.04829E+06 2.95798
4.05165E+06 3.05451
4.05502E+06 3.02162
4.05840E+06 2.79048
4.06178E+06 2.53853
4.06460E+06 2.35650
4.06686E+06 2.30589
4.06911E+06 2.09608
4.07138E+06 2.22872
4.07364E+06 2.22688
4.07590E+06 2.25343
4.07817E+06 2.38520
4.08044E+06 2.56666
4.08271E+06 2.38115
4.08498E+06 2.26838
4.08783E+06 1.93270
4.09124E+06 1.72292
4.09466E+06 1.64205
4.09809E+06 1.67682
4.10152E+06 1.61607
4.10438E+06 1.73349
4.10667E+06 1.76168
4.10896E+06 1.93410
4.11125E+06 1.96580
4.11355E+06 2.23206
4.11585E+06 2.39843
4.11815E+06 2.54325
4.12045E+06 2.44223
4.12276E+06 2.21551
4.12506E+06 2.14261
4.12795E+06 2.05725
4.13141E+06 2.01308
4.13489E+06 1.92557
4.13836E+06 1.94874
4.14184E+06 1.81166
4.14532E+06 1.73277
4.14881E+06 1.71330
4.15231E+06 1.66766
4.15522E+06 1.69438
4.15755E+06 1.77734
4.15989E+06 1.86277
4.16223E+06 2.01387
4.16457E+06 2.12551
4.16691E+06 2.06882
4.16925E+06 2.05395
4.17160E+06 1.78506
4.17394E+06 1.45599
4.17629E+06 1.21660
4.17864E+06 1.10813
4.18100E+06 1.14096
4.18335E+06 1.24802
4.18571E+06 1.27241
4.18807E+06 1.41885
4.19043E+06 1.63428
4.19279E+06 1.74098
4.19516E+06 1.89236
4.19753E+06 2.00788
4.19990E+06 2.26837
4.20227E+06 2.60959
4.20464E+06 2.62437
4.20702E+06 2.93902
4.20939E+06 3.30546
4.21177E+06 3.63583
4.21415E+06 3.71743
4.21654E+06 3.82604
4.21892E+06 3.58915
4.22131E+06 3.63729
4.22370E+06 3.59520
4.22609E+06 3.49107
4.22849E+06 3.31659
4.23088E+06 3.18459
4.23328E+06 2.94697
4.23568E+06 2.99680
4.23868E+06 2.81827
4.24229E+06 2.74840
4.24590E+06 2.65370
4.24952E+06 2.64820
4.25314E+06 2.73240
4.25676E+06 2.71628
4.26039E+06 2.81235
4.26403E+06 2.86657
4.26767E+06 3.04688
4.27131E+06 2.96911
4.27496E+06 2.95984
4.27862E+06 2.77075
4.28228E+06 2.51503
4.28594E+06 2.44843
4.28961E+06 2.46459
4.29328E+06 2.33785
4.29696E+06 2.52554
4.30064E+06 2.42416
4.30433E+06 2.41055
4.30802E+06 2.43770
4.31171E+06 2.51578
4.31541E+06 2.25538
4.31912E+06 2.14738
4.32283E+06 2.12448
4.32655E+06 2.06387
4.33027E+06 2.30607
4.33399E+06 2.56632
4.33772E+06 2.59983
4.34146E+06 2.45926
4.34150E+06 2.45941
4.34155E+06 2.45958
4.34520E+06 2.47319
4.34894E+06 2.57329
4.35269E+06 2.55307
4.35582E+06 2.82780
4.35832E+06 2.91716
4.36083E+06 2.73823
4.36334E+06 2.59910
4.36648E+06 2.45555
4.37025E+06 2.20226
4.37403E+06 2.17074
4.37781E+06 2.04010
4.38160E+06 1.96163
4.38539E+06 1.80710
4.38919E+06 1.81873
4.39299E+06 1.86270
4.39679E+06 2.03085
4.40061E+06 2.17746
4.40442E+06 2.29881
4.40824E+06 2.39200
4.41207E+06 2.26243
4.41590E+06 2.51394
4.41974E+06 2.38623
4.42358E+06 2.43471
4.42743E+06 2.47332
4.43128E+06 2.35623
4.43513E+06 2.28049
4.43900E+06 2.39997
4.44286E+06 2.38146
4.44673E+06 2.29262
4.45061E+06 2.44727
4.45449E+06 2.51176
4.45838E+06 2.49610
4.46227E+06 2.35105
4.46617E+06 2.18721
4.47007E+06 2.33286
4.47398E+06 2.45086
4.47789E+06 2.50641
4.48181E+06 2.53719
4.48573E+06 2.59740
4.48966E+06 2.79146
4.49359E+06 2.68827
4.49753E+06 2.67791
4.50000E+06 2.54689
4.50148E+06 2.46838
4.50542E+06 2.56978
4.50938E+06 2.41245
4.51268E+06 2.28981
4.51532E+06 2.47210
4.51796E+06 2.56688
4.52061E+06 2.76542
4.52326E+06 3.05757
4.52591E+06 3.02056
4.52856E+06 3.16938
4.53122E+06 3.04694
4.53388E+06 3.00850
4.53654E+06 2.90699
4.53920E+06 3.00268
4.54187E+06 3.01463
4.54453E+06 2.73596
4.54720E+06 2.57597
4.54988E+06 2.14298
4.55255E+06 2.08111
4.55523E+06 1.99528
4.55791E+06 1.99537
4.56059E+06 1.98887
4.56327E+06 1.99489
4.56596E+06 2.17909
4.56865E+06 2.34614
4.57134E+06 2.24831
4.57403E+06 1.94033
4.57673E+06 1.78718
4.57943E+06 1.71049
4.58213E+06 1.83319
4.58551E+06 1.73177
4.58957E+06 1.96456
4.59363E+06 1.96340
4.59770E+06 2.02927
4.60178E+06 1.97619
4.60586E+06 2.17093
4.60995E+06 2.29031
4.61404E+06 2.40324
4.61814E+06 2.45915
4.62224E+06 2.52106
4.62635E+06 2.61634
4.63047E+06 2.67310
4.63459E+06 2.74098
4.63871E+06 2.70652
4.64285E+06 2.86355
4.64698E+06 2.89932
4.65112E+06 2.71509
4.65527E+06 2.77760
4.65943E+06 2.74088
4.66359E+06 2.71260
4.66775E+06 2.89740
4.67192E+06 2.69406
4.67610E+06 2.58409
4.68028E+06 2.49528
4.68446E+06 2.39629
4.68866E+06 2.52154
4.69216E+06 2.49515
4.69496E+06 2.65560
4.69776E+06 2.66307
4.70057E+06 2.90969
4.70338E+06 3.07953
4.70619E+06 3.27735
4.70900E+06 3.29737
4.71182E+06 3.02404
4.71464E+06 2.72799
4.71746E+06 2.48444
4.72028E+06 2.32577
4.72311E+06 2.05038
4.72594E+06 2.06022
4.72877E+06 2.02952
4.73160E+06 2.30878
4.73444E+06 2.83065
4.73728E+06 3.19103
4.74012E+06 3.28051
4.74297E+06 3.11366
4.74653E+06 3.08383
4.75080E+06 3.04555
4.75509E+06 3.14242
4.75937E+06 3.35307
4.76367E+06 3.42223
4.76797E+06 3.67512
4.77227E+06 3.67329
4.77658E+06 3.49866
4.78090E+06 3.41807
4.78523E+06 3.52384
4.78955E+06 3.51151
4.79317E+06 3.18457
4.79606E+06 2.87016
4.79895E+06 2.71419
4.80185E+06 2.76279
4.80475E+06 2.76529
4.80766E+06 2.66861
4.81056E+06 2.75387
4.81347E+06 2.89936
4.81638E+06 2.93968
4.81929E+06 2.86339
4.82221E+06 2.81358
4.82513E+06 2.46171
4.82805E+06 2.16569
4.83098E+06 2.15307
4.83390E+06 2.04750
4.83683E+06 2.02639
4.83977E+06 2.23619
4.84270E+06 2.27287
4.84564E+06 2.39525
4.84858E+06 2.43310
4.85152E+06 2.58140
4.85447E+06 2.94157
4.85741E+06 3.27301
4.86037E+06 3.50912
4.86332E+06 3.65625
4.86628E+06 3.39151
4.86924E+06 3.33728
4.87220E+06 3.03343
4.87516E+06 2.79485
4.87813E+06 2.47783
4.88110E+06 2.25053
4.88407E+06 2.07712
4.88705E+06 2.19628
4.89077E+06 2.05823
4.89524E+06 2.16502
4.89972E+06 2.24935
4.90346E+06 2.42627
4.90646E+06 2.82349
4.90945E+06 3.04861
4.91245E+06 3.13847
4.91545E+06 3.09649
4.91846E+06 3.01416
4.92146E+06 2.87859
4.92447E+06 2.57435
4.92749E+06 2.34984
4.93050E+06 2.23841
4.93427E+06 2.33170
4.93881E+06 2.23680
4.94335E+06 2.23859
4.94789E+06 2.19742
4.95245E+06 2.41929
4.95700E+06 2.46926
4.96157E+06 2.44103
4.96614E+06 2.23481
4.97072E+06 2.03570
4.97080E+06 2.03388
4.97083E+06 2.03311
4.97530E+06 1.93121
4.97989E+06 1.97497
4.98449E+06 2.07080
4.98909E+06 2.21475
4.99250E+06 2.34535
4.99254E+06 2.34685
4.99370E+06 2.39129
4.99832E+06 2.59535
5.00000E+06 2.60971
5.00294E+06 2.63484
5.00757E+06 2.85872
5.01220E+06 2.77524
5.01685E+06 2.82784
5.02149E+06 2.73913
5.02615E+06 2.42493
5.03081E+06 2.11489
5.03470E+06 2.01848
5.03781E+06 1.87751
5.04093E+06 1.85105
5.04405E+06 1.86275
5.04717E+06 1.84264
5.05030E+06 1.81587
5.05343E+06 1.84652
5.05656E+06 1.88932
5.05970E+06 2.00157
5.06283E+06 2.15722
5.06598E+06 2.36048
5.06912E+06 2.54998
5.07227E+06 2.65676
5.07542E+06 2.81480
5.07857E+06 2.98748
5.08172E+06 2.74217
5.08488E+06 2.52604
5.08883E+06 2.51033
5.09358E+06 2.21328
5.09834E+06 2.16306
5.10310E+06 2.25453
5.10787E+06 2.52605
5.11264E+06 2.63337
5.11743E+06 2.77558
5.12222E+06 2.66770
5.12701E+06 2.31659
5.13101E+06 2.32723
5.13422E+06 2.05891
5.13743E+06 2.39191
5.14064E+06 2.68969
5.14385E+06 3.00997
5.14707E+06 3.06284
5.15029E+06 3.05908
5.15351E+06 3.43556
5.15674E+06 3.42820
5.15996E+06 3.23838
5.16320E+06 2.98609
5.16643E+06 2.80070
5.16830E+06 2.72230
5.16967E+06 2.66485
5.17291E+06 2.37603
5.17697E+06 2.27516
5.18184E+06 2.28995
5.18672E+06 2.27214
5.19161E+06 2.42412
5.19650E+06 2.67275
5.20140E+06 2.97495
5.20631E+06 3.06787
5.21122E+06 2.79941
5.21614E+06 2.40448
5.22107E+06 2.27921
5.22601E+06 2.12357
5.23095E+06 2.12903
5.23590E+06 2.22885
5.24086E+06 2.33155
5.24582E+06 2.24682
5.25079E+06 2.10047
5.25577E+06 1.96217
5.26076E+06 2.01374
5.26575E+06 1.98835
5.27075E+06 2.01751
5.27575E+06 2.15699
5.28077E+06 2.06587
5.28579E+06 1.97744
5.29082E+06 1.77948
5.29585E+06 1.75025
5.30089E+06 2.16603
5.30594E+06 2.47559
5.31100E+06 2.56628
5.31606E+06 2.52906
5.32114E+06 2.10077
5.32621E+06 1.82705
5.33130E+06 1.83114
5.33639E+06 1.74161
5.34149E+06 1.60350
5.34660E+06 1.48507
5.35172E+06 1.43535
5.35684E+06 1.37199
5.35970E+06 1.35549
5.36197E+06 1.34239
5.36711E+06 1.49390
5.37225E+06 1.59926
5.37741E+06 1.90222
5.38256E+06 1.80066
5.38773E+06 1.79106
5.39291E+06 1.86207
5.39809E+06 1.78998
5.40328E+06 1.85361
5.40847E+06 1.90329
5.41368E+06 1.94218
5.41889E+06 1.91138
5.42411E+06 1.92507
5.42847E+06 1.91973
5.43195E+06 1.71647
5.43545E+06 1.46547
5.43894E+06 1.46770
5.44244E+06 1.23753
5.44594E+06 1.15521
5.44945E+06 1.21937
5.45295E+06 1.26415
5.45647E+06 1.22176
5.45998E+06 1.52620
5.46350E+06 1.61666
5.46702E+06 1.81702
5.47055E+06 1.93694
5.47408E+06 1.80294
5.47761E+06 1.90656
5.48115E+06 1.93597
5.48469E+06 1.89208
5.48823E+06 2.02863
5.49177E+06 2.09993
5.49532E+06 1.97113
5.49888E+06 2.11607
5.50000E+06 2.13715
5.50243E+06 2.18286
5.50599E+06 2.36652
5.50956E+06 2.41507
5.51312E+06 2.41586
5.51669E+06 2.05966
5.52027E+06 2.13750
5.52385E+06 2.12498
5.52832E+06 2.01654
5.53370E+06 1.94469
5.53909E+06 1.92968
5.54448E+06 1.98958
5.54988E+06 2.21346
5.55530E+06 2.25923
5.56071E+06 2.24356
5.56614E+06 2.33991
5.57158E+06 2.44342
5.57702E+06 2.31773
5.58247E+06 2.11464
5.58793E+06 1.93569
5.59339E+06 1.82006
5.59887E+06 1.90538
5.60435E+06 2.12846
5.60984E+06 2.39763
5.61534E+06 2.34636
5.62085E+06 2.25785
5.62636E+06 2.07805
5.63189E+06 2.27061
5.63742E+06 2.11545
5.64296E+06 1.91170
5.64851E+06 1.97122
5.65406E+06 2.08617
5.65963E+06 2.09256
5.66520E+06 2.18498
5.67078E+06 2.22380
5.67637E+06 2.29867
5.68197E+06 2.36474
5.68757E+06 2.57440
5.69319E+06 2.59406
5.69881E+06 2.81595
5.70444E+06 2.98583
5.71008E+06 3.04655
5.71572E+06 2.88208
5.72138E+06 2.81595
5.72705E+06 2.75651
5.73272E+06 2.54968
5.73840E+06 2.56177
5.74409E+06 2.43714
5.74979E+06 2.44876
5.75549E+06 2.41982
5.76121E+06 2.33047
5.76693E+06 2.46524
5.77266E+06 2.42955
5.77841E+06 2.41957
5.78415E+06 2.40700
5.78991E+06 2.52470
5.79568E+06 2.50026
5.80146E+06 2.52250
5.80724E+06 2.35317
5.81303E+06 2.43166
5.81883E+06 2.33174
5.82464E+06 2.49019
5.83046E+06 2.49757
5.83629E+06 2.49377
5.84213E+06 2.58918
5.84797E+06 2.53996
5.85285E+06 2.62616
5.85676E+06 2.90679
5.86067E+06 2.99801
5.86458E+06 3.05365
5.86850E+06 2.84665
5.87242E+06 2.47434
5.87635E+06 2.20352
5.88028E+06 2.08208
5.88421E+06 1.98311
5.88815E+06 2.01759
5.89209E+06 2.14877
5.89604E+06 2.15763
5.89999E+06 2.14706
5.90394E+06 1.96177
5.90790E+06 1.82612
5.91186E+06 1.92485
5.91583E+06 1.93342
5.91980E+06 1.88108
5.92377E+06 1.96625
5.92775E+06 2.03984
5.93173E+06 2.03421
5.93572E+06 2.08171
5.93971E+06 2.22681
5.94370E+06 1.91447
5.94770E+06 1.85380
5.95170E+06 1.84683
5.95571E+06 1.58406
5.95972E+06 1.70879
5.96373E+06 1.79627
5.96876E+06 1.96575
5.97479E+06 2.12149
5.98084E+06 2.12508
5.98690E+06 2.05404
5.99296E+06 1.87524
5.99903E+06 1.87418
6.00000E+06 1.89098
6.00512E+06 1.97962
6.01121E+06 2.12217
6.01731E+06 2.16331
6.02342E+06 2.27582
6.02954E+06 2.23206
6.03567E+06 2.30285
6.04181E+06 2.48227
6.04796E+06 2.37990
6.05412E+06 2.36070
6.06028E+06 2.43270
6.06646E+06 2.45284
6.07265E+06 2.25306
6.07884E+06 2.16225
6.08505E+06 2.19530
6.09126E+06 2.15922
6.09670E+06 2.18608
6.09749E+06 2.18999
6.10372E+06 2.01956
6.10996E+06 1.78542
6.11622E+06 1.55507
6.12248E+06 1.48332
6.12875E+06 1.44135
6.13503E+06 1.55201
6.14133E+06 1.60679
6.14763E+06 1.61696
6.15394E+06 1.77031
6.16026E+06 1.91951
6.16765E+06 1.98191
6.17610E+06 2.07207
6.18458E+06 1.92833
6.19307E+06 1.90728
6.20159E+06 1.92135
6.21011E+06 1.93843
6.21866E+06 2.20338
6.22722E+06 2.34105
6.23581E+06 2.52947
6.24441E+06 2.81187
6.25302E+06 2.89388
6.26166E+06 2.92524
6.27031E+06 2.99299
6.27898E+06 2.97365
6.28550E+06 2.98255
6.28985E+06 3.11930
6.29420E+06 3.03597
6.29856E+06 2.95088
6.30292E+06 2.79444
6.30729E+06 2.67666
6.31166E+06 2.45101
6.31604E+06 2.28510
6.32042E+06 2.08545
6.32480E+06 2.03461
6.32919E+06 1.97854
6.33359E+06 1.96926
6.33799E+06 1.92477
6.34239E+06 1.89440
6.34680E+06 1.82049
6.34683E+06 1.82157
6.35121E+06 1.98055
6.35563E+06 2.08196
6.36005E+06 2.23964
6.36448E+06 2.36159
6.36891E+06 2.19457
6.37335E+06 2.11688
6.37779E+06 2.15499
6.38224E+06 2.16517
6.38669E+06 2.17449
6.39114E+06 2.17932
6.39560E+06 2.00294
6.40007E+06 1.81858
6.40453E+06 1.88087
6.40901E+06 1.98645
6.41349E+06 1.91739
6.41797E+06 2.10084
6.42246E+06 2.10521
6.42695E+06 2.14626
6.43145E+06 2.35138
6.43595E+06 2.37257
6.44046E+06 2.57062
6.44497E+06 2.26382
6.44948E+06 2.01875
6.45401E+06 1.92397
6.45853E+06 1.98788
6.46306E+06 1.75363
6.46987E+06 1.61430
6.47896E+06 1.52794
6.48807E+06 1.52053
6.49720E+06 1.45339
6.50000E+06 1.53969
6.50634E+06 1.73508
6.51551E+06 1.80970
6.52470E+06 1.77272
6.53390E+06 1.74381
6.54313E+06 1.64152
6.55238E+06 1.52848
6.56164E+06 1.50133
6.57093E+06 1.36847
6.58023E+06 1.35403
6.58955E+06 1.23147
6.59890E+06 1.25344
6.60826E+06 1.34441
6.61765E+06 1.59312
6.62705E+06 1.70113
6.63648E+06 1.88789
6.64592E+06 2.11849
6.65302E+06 2.25717
6.65776E+06 2.15121
6.66250E+06 2.22166
6.66725E+06 2.29590
6.67200E+06 2.31719
6.67676E+06 2.28593
6.68152E+06 2.25954
6.68629E+06 2.56502
6.69106E+06 2.55483
6.69584E+06 2.66887
6.70063E+06 2.68764
6.70541E+06 2.54850
6.71021E+06 2.45512
6.71501E+06 2.40319
6.71981E+06 2.26812
6.72462E+06 2.29729
6.72944E+06 2.24476
6.73425E+06 2.18817
6.73908E+06 2.17279
6.74391E+06 2.27373
6.74995E+06 2.18799
6.75722E+06 2.12220
6.76450E+06 2.13157
6.77178E+06 2.21819
6.77909E+06 2.26361
6.78640E+06 2.18141
6.79372E+06 2.05855
6.80106E+06 2.00717
6.80840E+06 1.91419
6.81576E+06 1.79964
6.82314E+06 1.92442
6.83052E+06 1.95705
6.83792E+06 1.79109
6.84532E+06 1.81054
6.85274E+06 1.89330
6.86018E+06 2.08907
6.86762E+06 2.15250
6.87508E+06 1.99610
6.88254E+06 1.94823
6.89003E+06 1.99634
6.89752E+06 2.03029
6.90502E+06 1.91134
6.91254E+06 1.85366
6.92007E+06 1.76857
6.92761E+06 1.70079
6.93517E+06 1.58585
6.94274E+06 1.66800
6.95032E+06 1.60810
6.95791E+06 1.85606
6.96551E+06 2.02702
6.97313E+06 2.14937
6.98076E+06 2.06283
6.98840E+06 1.92043
6.99606E+06 1.84606
7.00000E+06 1.83469
7.00372E+06 1.82395
7.01140E+06 1.91165
7.01910E+06 2.10070
7.02680E+06 2.17113
7.03452E+06 2.16886
7.04225E+06 2.24312
7.04999E+06 2.19013
7.05775E+06 2.15794
7.06682E+06 2.23390
7.07720E+06 2.21786
7.08760E+06 1.91404
7.09803E+06 1.69556
7.10848E+06 1.53619
7.11896E+06 1.46775
7.12946E+06 1.48365
7.13998E+06 1.53354
7.15052E+06 1.62917
7.16109E+06 1.82340
7.17168E+06 1.97843
7.18230E+06 2.04139
7.19293E+06 2.06568
7.20360E+06 2.07738
7.21428E+06 2.16498
7.22499E+06 2.22266
7.23573E+06 2.05828
7.24514E+06 2.11569
7.25322E+06 2.17483
7.26132E+06 2.11806
7.26943E+06 2.17753
7.27755E+06 2.16398
7.28569E+06 2.21060
7.29384E+06 2.21344
7.30200E+06 2.19945
7.31018E+06 2.05158
7.31837E+06 2.20502
7.32658E+06 2.33605
7.33480E+06 2.40642
7.34303E+06 2.22635
7.35128E+06 2.24973
7.35954E+06 2.19091
7.36781E+06 2.15664
7.37610E+06 2.25060
7.38441E+06 2.30619
7.39272E+06 2.28083
7.40105E+06 2.13748
7.40940E+06 2.07044
7.41776E+06 2.09164
7.42613E+06 2.15597
7.43452E+06 2.27732
7.44292E+06 2.35184
7.45134E+06 2.27224
7.46259E+06 2.11497
7.47668E+06 1.94289
7.49081E+06 1.91697
7.50000E+06 1.96474
7.50498E+06 1.99063
7.51919E+06 1.92826
7.53345E+06 2.03901
7.54774E+06 1.98068
7.55520E+06 2.00071
7.56208E+06 2.01918
7.57645E+06 1.97521
7.59087E+06 2.04252
7.60533E+06 2.03315
7.61983E+06 1.96087
7.63437E+06 1.80382
7.64895E+06 2.05355
7.66358E+06 2.25380
7.67825E+06 2.12504
7.69296E+06 1.96570
7.70771E+06 1.94766
7.72250E+06 2.15523
7.73734E+06 2.32083
7.75222E+06 2.18953
7.76715E+06 2.17613
7.78211E+06 2.13744
7.79712E+06 2.22040
7.81218E+06 2.10392
7.83484E+06 2.02684
7.86522E+06 2.09379
7.88390E+06 2.16594
7.89577E+06 2.21179
7.92650E+06 2.32905
7.93450E+06 2.29402
7.93452E+06 2.29394
7.94380E+06 2.25333
7.94382E+06 2.25323
7.95741E+06 2.19376
7.98850E+06 2.15248
8.00000E+06 2.13828
8.01250E+06 2.12285
8.01978E+06 2.11387
8.02240E+06 2.09730
8.05124E+06 1.91499
8.08288E+06 1.75859
8.11472E+06 1.74621
8.14674E+06 1.80683
8.17895E+06 1.76371
8.21136E+06 1.95485
8.22810E+06 1.99372
8.24396E+06 2.03055
8.25490E+06 2.01121
8.25495E+06 2.01111
8.27090E+06 1.98292
8.27676E+06 1.97255
8.30975E+06 1.92754
8.34294E+06 1.99085
8.35620E+06 2.03193
8.35625E+06 2.03208
8.37633E+06 2.09429
8.40993E+06 2.11816
8.44372E+06 1.95183
8.47620E+06 2.00109
8.47773E+06 2.00342
8.50000E+06 1.97886
8.51193E+06 1.96570
8.54635E+06 2.00689
8.58098E+06 2.01147
8.61582E+06 2.03310
8.65087E+06 1.94600
8.68614E+06 1.99570
8.72162E+06 1.79606
8.72980E+06 1.77043
8.72981E+06 1.77039
8.75733E+06 1.68416
8.79325E+06 1.68320
8.82940E+06 1.76272
8.86577E+06 1.90153
8.90237E+06 1.99050
8.93919E+06 2.01465
8.97625E+06 2.08951
9.00000E+06 2.14005
9.01354E+06 2.16886
9.04610E+06 2.13576
9.04611E+06 2.13575
9.05106E+06 2.13072
9.08882E+06 1.96519
9.12681E+06 1.88420
9.16505E+06 1.81248
9.18560E+06 1.81430
9.18565E+06 1.81430
9.20353E+06 1.81588
9.24225E+06 1.59323
9.28122E+06 1.68939
9.31690E+06 1.93741
9.31693E+06 1.93759
9.32043E+06 1.96195
9.35001E+06 1.96879
9.36980E+06 1.73180
9.38966E+06 1.82125
9.40959E+06 2.00406
9.42957E+06 2.05210
9.45960E+06 2.02865
9.45967E+06 2.02860
9.50000E+06 1.87972
9.50003E+06 1.87961
9.54065E+06 1.95569
9.58153E+06 1.83724
9.62268E+06 1.73192
9.66409E+06 1.68849
9.70577E+06 1.71108
9.74773E+06 1.77887
9.78996E+06 1.86594
9.83246E+06 1.87212
9.87525E+06 1.85676
9.93995E+06 1.93281
1.00000E+07 1.87628
1.00272E+07 1.85068
1.01157E+07 1.90557
1.02053E+07 1.91375
1.02961E+07 1.83614
1.03881E+07 1.93277
1.04814E+07 1.68359
1.05760E+07 1.78929
1.06718E+07 1.67290
1.07690E+07 1.83882
1.08675E+07 1.87422
1.09670E+07 1.85925
1.09671E+07 1.85924
1.09674E+07 1.85919
1.10000E+07 1.83825
1.10020E+07 1.83696
1.10022E+07 1.83683
1.10686E+07 1.79418
1.11713E+07 1.66879
1.12754E+07 1.73781
1.13810E+07 1.81618
1.14881E+07 1.85351
1.15967E+07 1.85843
1.17069E+07 1.80314
1.18187E+07 1.79435
1.19321E+07 1.81325
1.20000E+07 1.82753
1.20471E+07 1.83742
1.21638E+07 1.90003
1.22823E+07 1.88689
1.24024E+07 1.91122
1.25244E+07 1.73585
1.26482E+07 1.93347
1.27738E+07 1.95014
1.29014E+07 1.91725
1.30000E+07 1.95033
1.30308E+07 1.96067
1.31623E+07 1.87371
1.32957E+07 1.79173
1.34313E+07 1.91127
1.35689E+07 1.80729
1.37086E+07 1.76360
1.38506E+07 1.96157
1.39630E+07 1.79789
1.39947E+07 1.75173
1.40000E+07 1.75455
1.41412E+07 1.82987
1.42899E+07 1.85276
1.44411E+07 1.88475
1.45000E+07 1.82277
1.45947E+07 1.72310
1.47507E+07 1.72617
1.49094E+07 1.81896
1.50705E+07 1.69116
1.52344E+07 1.82461
1.54009E+07 1.79912
1.55703E+07 1.72979
1.57424E+07 1.73064
1.59175E+07 1.85093
1.60000E+07 1.85587
1.60955E+07 1.86158
1.62765E+07 1.83171
1.64606E+07 1.77296
1.66479E+07 1.95780
1.68385E+07 1.85682
1.70324E+07 1.87285
1.72296E+07 1.85253
1.74304E+07 1.84849
1.75000E+07 1.82841
1.76347E+07 1.78949
1.78426E+07 1.81607
1.80543E+07 1.90428
1.82698E+07 1.84536
1.84892E+07 1.80021
1.87127E+07 1.94105
1.89403E+07 1.90203
1.91720E+07 1.84369
1.94081E+07 1.83330
1.96487E+07 1.83858
2.00000E+07 1.86902
2.00000E+07 1.92661
2.09617E+07 1.95101
2.10000E+07 1.95174
2.19715E+07 1.96807
2.20000E+07 1.96849
2.24686E+07 1.97531
2.25004E+07 1.97576
2.29329E+07 1.98181
2.30000E+07 1.98273
2.33220E+07 1.98706
2.40000E+07 1.99571
2.50000E+07 2.00687
2.60000E+07 2.01561
2.61685E+07 2.01681
2.70000E+07 2.02143
2.78767E+07 2.02466
2.80000E+07 2.02503
2.90000E+07 2.02719
3.00000E+07 2.02817
3.00460E+07 2.02820
3.10000E+07 2.02816
3.19668E+07 2.02711
3.20000E+07 2.02706
3.23854E+07 2.02638
3.26814E+07 2.02577
3.30000E+07 2.02504
3.33622E+07 2.02410
3.40000E+07 2.02223
3.43813E+07 2.02097
3.50000E+07 2.01875
3.54547E+07 2.01682
3.60000E+07 2.01395
3.64305E+07 2.01130
3.70000E+07 2.00734
3.71444E+07 2.00626
3.73609E+07 2.00458
3.74826E+07 2.00361
3.80000E+07 1.99928
3.84034E+07 1.99569
3.90000E+07 1.99008
3.96699E+07 1.98342
3.97709E+07 1.98238
4.00000E+07 1.98001
4.02820E+07 1.97703
4.10000E+07 1.96913
4.20000E+07 1.95747
4.30000E+07 1.94518
4.40000E+07 1.93241
4.41844E+07 1.93001
4.45650E+07 1.92503
4.50000E+07 1.91928
4.57587E+07 1.90910
4.60000E+07 1.90582
4.61461E+07 1.90382
4.61986E+07 1.90310
4.68551E+07 1.89401
4.69627E+07 1.89250
4.70000E+07 1.89198
4.71334E+07 1.89010
4.80000E+07 1.87774
4.81790E+07 1.87515
4.83332E+07 1.87291
4.90000E+07 1.86311
5.00000E+07 1.84808
5.10000E+07 1.83264
5.12424E+07 1.82882
5.15286E+07 1.82428
5.19679E+07 1.81722
5.20000E+07 1.81670
5.30000E+07 1.80022
5.40000E+07 1.78312
5.49676E+07 1.76595
5.50000E+07 1.76536
5.60000E+07 1.74730
5.62113E+07 1.74349
5.70000E+07 1.72928
5.71078E+07 1.72734
5.76366E+07 1.71782
5.76379E+07 1.71780
5.80000E+07 1.71129
5.90000E+07 1.69330
5.95312E+07 1.68375
5.96948E+07 1.68080
6.00000E+07 1.67531
6.07239E+07 1.66237
6.07559E+07 1.66180
6.10000E+07 1.65747
6.20000E+07 1.63996
6.30000E+07 1.62279
6.40000E+07 1.60595
6.44253E+07 1.59889
6.50000E+07 1.58945
6.56810E+07 1.57847
6.60000E+07 1.57341
6.70000E+07 1.55771
6.80000E+07 1.54206
6.90000E+07 1.52619
7.00000E+07 1.50987
7.04397E+07 1.50252
7.10000E+07 1.49307
7.13197E+07 1.48765
7.15344E+07 1.48400
7.20000E+07 1.47607
7.30000E+07 1.45912
7.40000E+07 1.44240
7.44233E+07 1.43544
7.50000E+07 1.42611
7.53135E+07 1.42111
7.60000E+07 1.41029
7.70000E+07 1.39482
7.80000E+07 1.37960
7.90000E+07 1.36458
8.00000E+07 1.34967
8.10000E+07 1.33448
8.20000E+07 1.31894
8.30000E+07 1.30348
8.40000E+07 1.28849
8.50000E+07 1.27428
8.60000E+07 1.26108
8.70000E+07 1.24859
8.80000E+07 1.23639
8.90000E+07 1.22413
9.00000E+07 1.21146
9.10000E+07 1.19860
9.20000E+07 1.18598
9.30000E+07 1.17361
9.40000E+07 1.16151
9.50000E+07 1.14968
9.60000E+07 1.13810
9.70000E+07 1.12673
9.80000E+07 1.11561
9.90000E+07 1.10475
1.00000E+08 1.09419
1.02000E+08 1.07391
1.04000E+08 1.05461
1.06000E+08 1.03611
1.08000E+08 1.01828
1.10000E+08 1.00100
1.12000E+08 0.984225
1.14000E+08 0.967990
1.16000E+08 0.952290
1.18000E+08 0.937119
1.20000E+08 0.922468
1.22000E+08 0.908415
1.24000E+08 0.894978
1.26000E+08 0.882071
1.28000E+08 0.869618
1.30000E+08 0.857550
1.32000E+08 0.845926
1.34000E+08 0.834813
1.36000E+08 0.824171
1.38000E+08 0.813961
1.40000E+08 0.804149
1.42000E+08 0.794825
1.44000E+08 0.786045
1.46000E+08 0.777736
1.48000E+08 0.769830
1.50000E+08 0.762267