S-33(n,tot) ENDF/B-VII.1
Energy(eV) XS(b)
1.00000E-05 20.6214
1.25000E-05 18.7626
1.50000E-05 17.3905
2.00000E-05 15.4645
2.75000E-05 13.6319
3.50000E-05 12.4259
4.25000E-05 11.5552
5.00000E-05 10.8886
6.25000E-05 10.0574
7.50000E-05 9.44374
0.000100000 8.58241
0.000125000 7.99461
0.000150000 7.56071
0.000200000 6.95166
0.000275000 6.37214
0.000350000 5.99075
0.000425000 5.71542
0.000500000 5.50464
0.000625000 5.24177
0.000750000 5.04772
0.00100000 4.77534
0.00125000 4.58946
0.00150000 4.45225
0.00200000 4.25965
0.00275000 4.07640
0.00350000 3.95579
0.00425000 3.86872
0.00500000 3.80207
0.00625000 3.71894
0.00750000 3.65758
0.0100000 3.57144
0.0125000 3.51266
0.0150000 3.46927
0.0200000 3.40836
0.0253000 3.36470
0.0314750 3.32849
0.0376500 3.30160
0.0500000 3.26365
0.0625000 3.23736
0.0750000 3.21796
0.100000 3.19071
0.125000 3.17212
0.150000 3.15839
0.200000 3.13912
0.275000 3.12078
0.350000 3.10870
0.500000 3.09330
0.750000 3.07880
1.00000 3.07013
1.50000 3.05982
2.00000 3.05362
2.75000 3.04768
3.50000 3.04372
5.00000 3.03856
7.50000 3.03350
10.0000 3.03028
15.0000 3.02608
20.0000 3.02318
27.5000 3.01990
35.0000 3.01725
50.0000 3.01284
75.0000 3.00665
100.000 3.00108
150.000 2.99078
200.000 2.98104
275.000 2.96705
350.000 2.95358
500.000 2.92783
750.000 2.88776
1000.00 2.85068
1500.00 2.78399
2000.00 2.72555
2750.00 2.65011
3500.00 2.58613
5000.00 2.48281
6250.00 2.41416
7500.00 2.35600
8750.00 2.30452
10000.0 2.25578
10860.4 2.22037
11290.6 2.20030
11720.9 2.17659
12151.1 2.14533
12366.2 2.12404
12581.3 2.09537
12688.8 2.07643
12796.4 2.05253
12903.9 2.02106
13011.5 1.97712
13065.3 1.94773
13119.1 1.91080
13172.8 1.86304
13226.6 1.79937
13253.5 1.75936
13280.4 1.71272
13307.3 1.65964
13334.2 1.60497
13347.6 1.58292
13361.0 1.57386
13374.5 1.59680
13387.9 1.69936
13401.4 2.01758
13408.1 2.37295
13414.8 3.02265
13421.5 4.28653
13424.9 5.36639
13428.3 6.98631
13431.6 9.50285
13435.0 13.5670
13438.3 20.3744
13441.7 31.9229
13445.9 55.0233
13450.0 74.8299
13454.2 65.8040
13458.3 45.4504
13461.5 33.6624
13464.7 25.7137
13467.9 20.3494
13471.1 16.6602
13477.5 12.0924
13483.9 9.49737
13490.3 7.87866
13496.6 6.79503
13509.4 5.46566
13522.2 4.69784
13535.0 4.20650
13547.8 3.86855
13560.5 3.62362
13586.1 3.29423
13611.6 3.08471
13637.2 2.94040
13662.7 2.83525
13713.8 2.69262
13765.0 2.60053
13816.1 2.53616
13867.2 2.48858
13969.4 2.42273
14071.6 2.37904
14173.8 2.34768
14276.0 2.32386
14480.5 2.28959
14684.9 2.26552
15093.7 2.23247
15502.6 2.20935
15911.4 2.19113
16729.2 2.16191
18364.6 2.11390
20000.0 2.06475
20975.8 2.02704
21463.6 2.00219
21951.5 1.96935
22195.4 1.94791
22439.4 1.92108
22683.3 1.88603
22927.3 1.83752
23049.2 1.80529
23171.2 1.76504
23293.2 1.71337
23415.1 1.64517
23476.1 1.60275
23537.1 1.55381
23659.1 1.44353
23720.1 1.41399
23750.6 1.43788
23781.0 1.53725
23811.5 1.82800
23826.8 2.13653
23842.0 2.67116
23857.3 3.63763
23872.5 5.48639
23880.1 7.03441
23887.8 9.28697
23895.4 12.6099
23903.0 17.4987
23916.5 30.9903
23930.0 43.5039
23943.5 39.4490
23957.0 28.0869
23969.7 20.0991
23982.4 15.0755
23995.2 11.9007
24007.9 9.80848
24033.3 7.32313
24058.7 5.95548
24084.2 5.11377
24109.6 4.55325
24160.5 3.86440
24211.3 3.46369
24262.2 3.20454
24313.1 3.02423
24363.9 2.89204
24465.7 2.71174
24567.4 2.59484
24669.1 2.51298
24770.9 2.45242
24974.3 2.36866
25177.8 2.31318
25381.2 2.27345
25584.7 2.24339
25991.6 2.20034
26398.5 2.17035
27212.4 2.12966
28026.2 2.10162
28840.1 2.07982
30467.8 2.04532
33723.1 1.98968
36978.5 1.93568
40233.9 1.87194
41861.6 1.83182
43489.3 1.78170
45116.9 1.71486
46744.6 1.61744
47558.5 1.54822
48372.3 1.45518
49186.2 1.32208
49593.1 1.23101
50000.0 1.11445
50467.9 0.933844
50701.9 0.818257
50935.9 0.684626
51169.8 0.547509
51286.8 0.498733
51403.8 0.502435
51462.3 0.548530
51520.8 0.651771
51579.3 0.853213
51637.7 1.22888
51696.2 1.92652
51754.7 3.24807
51784.0 4.32119
51813.2 5.83201
51842.5 7.96809
51871.7 10.9670
51935.9 21.4217
52000.0 32.3601
52032.1 33.3433
52064.2 30.9462
52128.3 22.8745
52205.4 15.4885
52282.4 11.2134
52359.4 8.68002
52436.5 7.07226
52513.5 5.98393
52590.6 5.20803
52744.7 4.19502
52898.7 3.61393
53052.8 3.41778
53129.9 3.56961
53206.9 4.09525
53284.0 5.45120
53322.5 6.74960
53361.0 8.75235
53430.5 14.7909
53500.0 21.1988
53569.5 20.4221
53639.0 15.7010
53685.6 12.9945
53732.3 10.9645
53825.5 8.36419
53918.7 6.87270
54012.0 5.94006
54105.2 5.31126
54198.5 4.86152
54385.0 4.26266
54571.5 3.88136
54757.9 3.61595
55130.9 3.26749
55503.9 3.04604
55876.9 2.89110
56622.8 2.68579
57368.8 2.55375
58114.8 2.46028
59606.7 2.33384
61098.6 2.24903
62590.5 2.18502
65574.4 2.08453
68558.2 1.99006
70050.1 1.93474
71542.0 1.86499
72288.0 1.82058
73034.0 1.76583
73779.9 1.69537
74525.9 1.59978
74898.9 1.53752
75271.8 1.46123
75644.8 1.36592
76017.8 1.24513
76390.8 1.09407
76577.3 1.01106
76763.8 0.937261
76950.2 0.915665
77043.5 0.962042
77136.7 1.09759
77230.0 1.41306
77323.2 2.10773
77369.8 2.72316
77416.5 3.64089
77463.1 5.01221
77509.7 7.04580
77557.3 10.0413
77604.9 14.0378
77700.0 22.0399
77747.6 23.2253
77795.2 22.0637
77890.3 17.0930
77984.9 12.8973
78079.5 10.1397
78174.1 8.34805
78268.7 7.13919
78363.3 6.28697
78458.0 5.66213
78647.2 4.81904
78836.4 4.28389
79025.6 3.91761
79404.0 3.45254
79782.5 3.17156
80160.9 2.98410
80539.3 2.85024
80917.7 2.74986
81674.6 2.60905
82431.4 2.51461
83188.3 2.44647
83945.2 2.39467
85458.9 2.32032
86972.6 2.26860
88486.3 2.22974
90000.0 2.19888
92500.0 2.15868
95000.0 2.12658
100000 2.07437
106795 2.00994
110193 1.97362
113590 1.92855
116988 1.86466
118686 1.81876
120385 1.75514
121234 1.71256
122084 1.65881
122933 1.58857
123783 1.49277
124632 1.35511
125057 1.26225
125481 1.14769
125906 1.01119
126118 0.940856
126331 0.883767
126543 0.876020
126755 1.02236
126862 1.23780
126968 1.65261
127074 2.43088
127180 3.85445
127260 5.59164
127340 8.01598
127500 13.3489
127580 14.4931
127660 14.1680
127820 11.5573
128001 8.83291
128182 7.06760
128362 5.94336
128543 5.19441
128724 4.67014
128905 4.28694
129266 3.77023
129628 3.44125
129989 3.21509
130713 2.92585
131436 2.74941
132159 2.63075
132882 2.54544
133605 2.48107
135051 2.39011
136498 2.32859
137944 2.28387
139390 2.24965
142283 2.20010
145175 2.16523
148068 2.13872
150960 2.11743
156745 2.08408
162530 2.05763
174100 2.01294
180575 1.98842
187050 1.96134
193525 1.92824
200000 1.88224
202548 1.85747
205095 1.82624
207643 1.78497
210190 1.72704
211464 1.68800
212738 1.63856
214011 1.57378
215285 1.48529
216559 1.35794
217196 1.27177
217833 1.16469
218469 1.03374
219106 0.893417
219425 0.847556
219743 0.876552
219902 0.957665
220062 1.12636
220221 1.44261
220380 2.00119
220535 2.90045
220690 4.25048
221000 7.62688
221155 8.62146
221310 8.75755
221620 7.64114
221920 6.38493
222220 5.45005
222520 4.79358
222819 4.32589
223119 3.98218
223419 3.72189
224019 3.35751
224619 3.11706
225218 2.94761
226418 2.72578
227617 2.58751
228816 2.49321
230016 2.42478
231215 2.37280
233614 2.29892
236013 2.24870
238411 2.21214
240810 2.18418
245608 2.14383
250405 2.11567
255203 2.09454
260000 2.07785
260000 2.49902
330000 2.46770
400000 2.44272
500000 2.44313
525000 2.44769
600000 2.46017
650000 2.47393
700000 2.48674
800000 2.51882
865698 2.54164
900000 2.55389
1.00000E+06 2.59022
1.25000E+06 2.68457
1.50000E+06 2.76421
1.75000E+06 2.83403
2.00000E+06 2.89593
2.02614E+06 2.90138
2.02615E+06 2.90138
2.20000E+06 2.93158
2.38376E+06 2.96130
2.38376E+06 2.96130
2.50000E+06 2.97041
2.75000E+06 2.98872
2.95368E+06 3.00254
3.00000E+06 3.00318
3.02376E+06 3.00336
3.05983E+06 3.00346
3.15491E+06 3.00135
3.25000E+06 2.99932
3.31851E+06 2.99788
3.40000E+06 2.99204
3.60000E+06 2.97833
3.71012E+06 2.97112
3.71013E+06 2.97112
4.00000E+06 2.93981
4.03259E+06 2.93410
4.35506E+06 2.88056
4.67753E+06 2.83171
5.00000E+06 2.78688
5.57500E+06 2.67973
6.00000E+06 2.60976
6.15000E+06 2.58150
6.72500E+06 2.48176
7.00000E+06 2.43830
7.30000E+06 2.38789
7.33538E+06 2.38215
8.00000E+06 2.28147
8.64764E+06 2.18856
8.90781E+06 2.15597
9.00000E+06 2.14432
9.20000E+06 2.11974
9.86382E+06 2.04364
1.00000E+07 2.02899
1.10000E+07 1.93393
1.12060E+07 1.91665
1.20000E+07 1.85763
1.25000E+07 1.82755
1.30000E+07 1.80005
1.40000E+07 1.76188
1.45000E+07 1.74991
1.50000E+07 1.74254
1.60000E+07 1.74052
1.70000E+07 1.75298
1.80000E+07 1.77653
1.85000E+07 1.79203
1.90000E+07 1.80727
2.00000E+07 1.84198