Ca-43(n,tot) ENDF/B-VII.1
Energy(eV) XS(b)
1.00000E-05 590.818
1.25000E-05 528.883
1.50000E-05 483.164
2.00000E-05 418.990
2.75000E-05 357.928
3.50000E-05 317.742
4.25000E-05 288.731
5.00000E-05 266.522
6.25000E-05 238.823
7.50000E-05 218.378
0.000100000 189.678
0.000125000 170.092
0.000150000 155.635
0.000200000 135.341
0.000275000 116.032
0.000350000 103.324
0.000425000 94.1496
0.000500000 87.1263
0.000625000 78.3674
0.000750000 71.9018
0.00100000 62.8262
0.00125000 56.6326
0.00150000 52.0608
0.00200000 45.6433
0.00275000 39.5371
0.00350000 35.5185
0.00425000 32.6174
0.00500000 30.3964
0.00625000 27.6265
0.00750000 25.5819
0.0100000 22.7119
0.0125000 20.7533
0.0150000 19.3075
0.0200000 17.2780
0.0253000 15.8233
0.0314750 14.6167
0.0376500 13.7207
0.0500000 12.4562
0.0625000 11.5801
0.0750000 10.9334
0.100000 10.0256
0.125000 9.40602
0.150000 8.94861
0.200000 8.30644
0.275000 7.69522
0.350000 7.29279
0.500000 6.77952
0.750000 6.29641
1.00000 6.00782
1.50000 5.66436
2.00000 5.45850
2.75000 5.26117
3.50000 5.12996
5.00000 4.95995
7.50000 4.79472
10.0000 4.69131
15.0000 4.55902
20.0000 4.47087
27.5000 4.37479
35.0000 4.30054
50.0000 4.18360
75.0000 4.03207
100.000 3.90671
150.000 3.69685
200.000 3.52120
260.000 3.34228
275.000 3.30211
312.500 3.20880
350.000 3.12506
500.000 2.87875
625.000 2.78750
750.000 2.83855
875.000 3.13798
1000.00 3.97708
1075.00 5.06616
1150.00 7.17320
1187.50 8.97980
1225.00 11.7269
1262.50 16.1273
1300.00 23.6911
1326.23 32.6216
1352.45 47.4752
1378.68 74.3813
1391.79 96.5062
1404.90 128.977
1423.68 207.544
1442.45 358.685
1461.23 619.273
1470.61 749.966
1480.00 802.335
1517.55 370.405
1536.33 226.940
1555.10 149.479
1569.00 114.683
1582.91 90.8037
1610.71 61.3311
1638.52 44.6309
1666.33 34.2818
1721.94 22.6346
1777.55 16.5372
1833.16 12.9212
1888.78 10.5843
2000.00 7.81569
2166.18 5.75016
2332.35 4.67909
2664.71 3.64278
2997.06 3.22916
3163.24 3.17754
3204.78 3.18935
3246.33 3.22616
3267.10 3.26731
3277.49 3.30155
3287.87 3.35473
3298.26 3.44829
3303.45 3.52770
3308.64 3.65453
3311.24 3.75079
3313.84 3.88626
3316.43 4.08939
3319.03 4.42184
3320.33 4.67881
3321.63 5.04453
3322.92 5.59769
3324.22 6.50702
3325.52 8.19755
3326.17 9.66879
3326.82 12.0122
3327.47 16.1139
3327.79 19.4475
3328.12 24.3381
3328.44 31.9571
3328.77 44.5422
3329.09 66.9896
3329.42 108.349
3329.71 166.090
3330.00 199.838
3330.29 154.895
3330.59 94.6285
3330.82 62.7897
3331.06 43.3872
3331.30 31.3305
3331.53 23.6264
3332.00 14.8961
3332.48 10.4707
3332.95 7.96996
3333.42 6.44767
3334.37 4.80349
3335.31 4.00525
3336.26 3.57451
3337.20 3.32403
3338.15 3.17123
3340.04 3.01214
3341.93 2.94472
3343.82 2.91692
3345.71 2.90782
3349.49 2.91294
3353.28 2.92863
3357.06 2.94630
3360.84 2.96336
3368.40 2.99344
3375.97 3.01827
3391.09 3.05697
3421.35 3.11246
3451.60 3.15757
3572.61 3.35303
3693.63 3.66563
3814.64 4.21969
3935.66 5.30178
3996.17 6.27359
4056.67 7.86957
4117.18 10.8173
4147.43 13.3714
4177.69 17.4282
4207.94 24.5274
4223.07 30.3038
4238.19 38.8484
4253.32 52.2449
4268.45 74.8068
4283.57 116.007
4298.70 195.061
4311.35 297.895
4324.00 354.707
4336.65 270.016
4349.30 160.872
4359.47 104.541
4369.64 70.2781
4379.80 49.1894
4389.97 35.7285
4400.14 26.7909
4410.30 20.6404
4430.64 13.0875
4450.97 8.90332
4471.31 6.41047
4491.64 4.84583
4511.98 3.82783
4552.64 2.69699
4593.31 2.20432
4633.98 2.04708
4674.65 2.10300
4755.99 2.72082
4837.33 4.18732
4877.99 5.47448
4918.66 7.43332
4959.33 10.5601
5000.00 15.8958
5034.65 23.9305
5069.30 38.8545
5086.63 51.3276
5103.95 69.7466
5121.28 97.5776
5138.60 139.639
5163.80 229.754
5189.00 294.630
5214.20 242.028
5239.40 155.842
5266.45 95.8824
5293.50 62.9173
5320.55 44.1452
5347.60 32.7252
5374.65 25.3343
5401.70 20.2967
5455.81 14.0740
5509.91 10.5160
5564.01 8.28381
5672.21 5.72481
5780.41 4.34967
5888.62 3.51266
6105.02 2.56128
6321.43 2.02960
6537.83 1.65658
6646.03 1.47894
6700.13 1.37961
6754.24 1.26329
6808.34 1.11603
6835.39 1.02456
6862.44 0.919553
6889.49 0.814356
6903.01 0.784236
6916.54 0.817784
6930.07 1.05435
6936.83 1.38021
6943.59 2.05155
6946.97 2.63911
6950.35 3.53019
6953.73 4.92933
6957.12 7.22800
6960.50 11.2369
6963.88 18.7817
6965.57 25.0963
6967.26 34.3671
6968.95 48.2486
6970.64 68.9982
6973.32 118.887
6976.00 160.005
6978.68 137.773
6981.36 92.6390
6983.04 71.1834
6984.71 55.6676
6988.07 36.5170
6991.42 26.0526
6994.77 19.8252
6998.13 15.8324
7001.48 13.1169
7008.19 9.74435
7014.89 7.78636
7021.60 6.53415
7035.01 5.05602
7048.43 4.22970
7061.84 3.70954
7088.66 3.09912
7115.49 2.75668
7142.31 2.53974
7195.97 2.28453
7249.62 2.14470
7303.27 2.06291
7410.57 1.99504
7625.18 2.09668
7839.78 2.53941
8054.39 3.66206
8161.69 4.77912
8268.99 6.68394
8376.29 10.1797
8429.94 13.0668
8483.60 17.3153
8537.25 23.8183
8590.90 34.2201
8644.55 51.5755
8698.20 80.9744
8760.60 134.387
8823.00 173.932
8885.40 144.389
8947.80 94.1838
9013.56 59.3322
9079.33 39.7921
9145.09 28.4846
9210.85 21.5146
9276.61 16.9528
9342.38 13.8116
9473.90 9.87885
9605.43 7.58826
9736.95 6.12351
10000.0 4.39160
10244.6 3.45113
10305.7 3.26078
10366.9 3.06817
10397.5 2.95939
10412.7 2.89598
10428.0 2.82038
10443.3 2.72105
10451.0 2.65480
10458.6 2.56854
10462.4 2.51372
10466.2 2.44782
10470.1 2.36683
10473.9 2.26621
10477.7 2.14586
10479.6 2.08687
10481.5 2.05280
10483.4 2.12008
10484.4 2.26787
10485.3 2.60892
10486.3 3.42137
10486.8 4.21327
10487.3 5.49367
10487.7 7.76447
10488.2 11.9923
10488.5 15.4690
10488.7 20.4798
10488.9 27.7924
10489.2 37.8945
10489.6 65.6827
10490.0 89.9165
10490.2 88.6740
10490.4 79.1171
10490.9 54.9360
10491.3 38.0245
10491.7 27.9139
10492.1 21.4808
10492.5 17.4021
10492.9 14.5475
10493.3 12.5640
10494.1 9.94618
10494.9 8.35685
10495.7 7.30928
10497.3 6.04309
10498.9 5.31072
10500.6 4.84412
10502.2 4.51963
10503.8 4.28429
10507.0 3.96355
10510.2 3.75606
10513.5 3.61054
10516.7 3.50244
10523.2 3.35134
10529.6 3.24919
10542.5 3.11566
10555.5 3.02784
10568.4 2.96247
10594.2 2.86505
10645.9 2.72686
10697.6 2.61961
10904.4 2.29745
11317.9 1.85536
11731.4 1.54793
12144.9 1.34004
12558.5 1.28461
12765.2 1.38719
12972.0 1.70112
13178.7 2.51394
13282.1 3.33570
13385.5 4.73583
13488.9 7.26131
13592.3 12.1952
13643.9 16.4533
13695.6 22.8770
13747.3 32.7895
13799.0 48.0999
13874.5 82.2731
13950.0 109.703
14026.0 93.5660
14102.0 62.3509
14160.1 44.9583
14218.2 33.4029
14247.3 29.3561
14276.3 26.6280
14290.8 26.1744
14305.4 27.2416
14312.6 29.0352
14319.9 32.5935
14327.1 39.5330
14334.4 52.9200
14342.2 77.8415
14350.0 99.6237
14357.8 89.4926
14365.6 66.6776
14374.5 48.5927
14383.4 38.2784
14392.2 32.1306
14401.1 28.1626
14418.9 23.3747
14436.6 20.5335
14454.4 18.5851
14472.2 17.1195
14507.7 14.9737
14578.7 12.1830
14649.7 10.3376
14791.8 7.96343
14933.9 6.48710
15075.9 5.48088
15218.0 4.75219
15502.1 3.76578
15786.2 3.12206
16070.4 2.65711
16354.5 2.28195
16425.5 2.18909
16496.6 2.08347
16532.1 2.01622
16549.8 1.97396
16567.6 1.92074
16585.4 1.84715
16594.2 1.79664
16603.1 1.73038
16612.0 1.63909
16616.4 1.58014
16620.9 1.51186
16625.3 1.44472
16629.8 1.45329
16632.0 1.60788
16633.1 1.80877
16634.2 2.20103
16635.3 3.00158
16635.9 3.71200
16636.4 4.77583
16637.0 6.48462
16637.5 9.23159
16638.1 13.8704
16638.6 21.8043
16639.3 38.2445
16640.0 53.0298
16640.7 47.4248
16641.4 33.2797
16642.0 23.9810
16642.6 18.0097
16643.2 14.1682
16643.8 11.6038
16645.0 8.52903
16646.3 6.83534
16647.5 5.78080
16648.7 5.08352
16651.1 4.22334
16653.5 3.72446
16656.0 3.40270
16658.4 3.17940
16660.8 3.01593
16665.7 2.79323
16670.6 2.64870
16675.4 2.54714
16680.3 2.47160
16690.0 2.36589
16699.7 2.29438
16719.2 2.20088
16738.6 2.13941
16758.0 2.09364
16796.9 2.02530
16874.7 1.92764
16952.5 1.85070
17263.5 1.61163
17574.6 1.43059
17885.7 1.31602
18196.8 1.34955
18352.3 1.50206
18507.9 1.86925
18663.4 2.71880
18741.2 3.52459
18818.9 4.83175
18896.7 7.05506
18974.5 11.0758
19052.2 18.8811
19091.1 25.4284
19130.0 34.7551
19200.0 59.6225
19270.0 79.9841
19340.0 68.8822
19410.0 46.4690
19483.8 30.2261
19557.5 20.8656
19631.3 15.3280
19705.0 11.8447
19778.8 9.51878
19852.5 7.88355
20000.0 5.76491
20072.1 5.05265
20144.1 4.45887
20180.2 4.18593
20216.2 3.90818
20234.2 3.75410
20243.2 3.66780
20252.2 3.57136
20261.3 3.46131
20270.3 3.34803
20274.8 3.32493
20279.3 3.45709
20281.5 3.74886
20282.7 4.05808
20283.8 4.59220
20284.9 5.58147
20286.0 7.51628
20287.2 11.7501
20287.7 15.6275
20288.3 21.5813
20289.1 36.0408
20290.0 48.5548
20290.9 43.1510
20291.7 30.6711
20292.3 24.5583
20292.8 20.1494
20293.9 14.5430
20294.9 11.4149
20296.0 9.52174
20297.1 8.29044
20298.2 7.44172
20300.3 6.37323
20302.4 5.73514
20304.6 5.31810
20308.8 4.81120
20313.1 4.51353
20317.4 4.31691
20325.9 4.06695
20334.5 3.90783
20343.0 3.79238
20360.1 3.62445
20377.2 3.49791
20394.3 3.39243
20428.5 3.21483
20496.8 2.92493
20565.2 2.67972
20701.9 2.26009
20838.7 1.89059
20975.4 1.53641
21043.8 1.35608
21112.1 1.17201
21180.5 0.998037
21214.7 0.935793
21248.9 0.931380
21283.1 1.09179
21300.2 1.32493
21317.2 1.78731
21334.3 2.72138
21342.9 3.52548
21351.4 4.72287
21360.0 6.55595
21368.5 9.43362
21377.1 14.0722
21385.6 21.5651
21397.8 38.9509
21410.0 55.0187
21422.2 49.6846
21434.4 34.9788
21442.3 27.4424
21450.1 21.9222
21465.8 15.0101
21481.5 11.1620
21497.2 8.83123
21512.9 7.30813
21528.6 6.25289
21560.0 4.90618
21591.4 4.09341
21622.9 3.55276
21685.7 2.87606
21748.5 2.45905
21811.3 2.15339
21842.7 2.01198
21858.4 1.93751
21874.1 1.85709
21889.8 1.76971
21905.5 1.69630
21913.4 1.71386
21917.3 1.77756
21921.2 1.93774
21925.2 2.33369
21927.1 2.72827
21929.1 3.39643
21931.0 4.60042
21933.0 6.91402
21934.0 8.88222
21935.0 11.8087
21935.9 16.2438
21936.9 22.9682
21938.5 39.2819
21940.0 53.2988
21941.5 46.7994
21943.1 32.3638
21944.7 21.6534
21946.4 15.5032
21948.0 11.8394
21949.6 9.55036
21951.3 8.01576
21952.9 6.94834
21956.2 5.58217
21959.4 4.76316
21962.7 4.23026
21969.2 3.58718
21975.7 3.22005
21982.3 2.98527
21995.3 2.70490
22008.4 2.54476
22021.5 2.44229
22047.6 2.32254
22099.8 2.23326
22152.1 2.24200
22256.6 2.47354
22361.0 3.06871
22465.5 4.32498
22570.0 6.99956
22622.3 9.40943
22674.5 13.1400
22726.8 19.0425
22779.0 28.3933
22854.5 49.7445
22930.0 68.2825
23005.5 60.1600
23081.0 41.4736
23149.6 29.0741
23218.1 21.2399
23286.6 16.2551
23355.2 12.9489
23492.3 8.99216
23629.4 6.78160
23766.4 5.38983
23903.5 4.42692
23972.1 4.04213
24040.6 3.70035
24074.9 3.54321
24109.2 3.40034
24126.3 3.34368
24143.4 3.32566
24152.0 3.36601
24156.3 3.42194
24160.6 3.53198
24164.9 3.76389
24167.0 3.97802
24169.1 4.32889
24171.3 4.95185
24173.4 6.19223
24174.5 7.31101
24175.6 9.09862
24176.6 12.0975
24177.7 17.2267
24178.9 25.7217
24180.0 31.2709
24181.2 25.5140
24182.3 17.0582
24183.6 11.2077
24184.9 8.14759
24186.1 6.45760
24187.4 5.45414
24188.7 4.81742
24189.9 4.39036
24192.5 3.87189
24195.0 3.57993
24197.6 3.39750
24202.6 3.18509
24207.7 3.06389
24212.8 2.98212
24223.0 2.86811
24243.3 2.69972
24263.6 2.53866
24283.9 2.35811
24304.3 2.16086
24314.4 2.09875
24319.5 2.11792
24324.6 2.23198
24329.7 2.57938
24332.2 2.94600
24334.7 3.57196
24337.3 4.67445
24339.8 6.70545
24342.4 10.6489
24343.6 13.9251
24344.9 18.5550
24347.5 32.9702
24350.0 46.6761
24352.6 42.8716
24355.1 30.9929
24357.8 21.7475
24360.5 16.1865
24363.2 12.7949
24365.8 10.6108
24368.5 9.12582
24371.2 8.06774
24376.5 6.68633
24381.9 5.83573
24387.3 5.26654
24398.0 4.55846
24408.7 4.13527
24419.4 3.85261
24440.8 3.49205
24462.3 3.26418
24483.7 3.10115
24526.5 2.87102
24569.4 2.70612
24612.2 2.57899
24633.7 2.53003
24655.1 2.50403
24665.8 2.51776
24671.2 2.54405
24676.5 2.60066
24681.9 2.72832
24684.6 2.85258
24687.2 3.06476
24689.9 3.46703
24691.2 3.81365
24692.6 4.34958
24693.9 5.23257
24695.3 6.80988
24696.6 9.91316
24697.3 12.5850
24697.9 16.4054
24699.0 24.9803
24700.0 30.7047
24701.0 25.0809
24702.1 16.6390
24703.1 11.3540
24704.1 8.31007
24705.0 6.51551
24706.0 5.39975
24708.0 4.16640
24710.0 3.54642
24712.0 3.19005
24713.9 2.96839
24717.9 2.71500
24721.8 2.57951
24725.8 2.49684
24733.7 2.40122
24749.5 2.30772
24765.3 2.25369
24796.9 2.17734
24828.5 2.11554
24891.7 2.00908
24954.9 1.91610
25207.8 1.63656
25460.7 1.50196
25713.5 1.58318
25966.4 2.09326
26092.8 2.66457
26219.3 3.62466
26345.7 5.24117
26472.1 8.00814
26598.6 12.8457
26725.0 21.3353
26887.5 40.0196
27050.0 58.0595
27194.3 54.8987
27266.4 48.2739
27284.5 46.4620
27302.5 44.6153
27311.5 43.6671
27320.6 42.6835
27325.1 42.1732
27329.6 41.6760
27331.8 41.4883
27334.1 41.5174
27335.2 41.7995
27336.3 42.6100
27336.9 43.4780
27337.5 44.9404
27338.0 47.4946
27338.6 51.9772
27339.3 61.6661
27340.0 70.9726
27340.7 68.3796
27341.4 60.3148
27342.0 55.5329
27342.5 52.2107
27343.0 49.8367
27343.5 48.1693
27344.6 45.9816
27345.6 44.6537
27346.7 43.7675
27347.7 43.1304
27349.8 42.2569
27351.9 41.6605
27354.0 41.2043
27358.2 40.5031
27362.4 39.9382
27366.6 39.4432
27375.0 38.5564
27392.2 36.9416
27409.3 35.4585
27443.6 32.7396
27512.2 28.0773
27649.4 21.1828
27786.6 16.5432
27923.8 13.3044
28198.1 9.14081
28472.5 6.52193
28746.9 4.57721
28884.1 3.72010
29021.3 2.90457
29158.4 2.15812
29227.0 1.86334
29295.6 1.71497
29364.2 1.91712
29398.5 2.29394
29432.8 3.01607
29467.1 4.32068
29501.4 6.62976
29535.7 10.6984
29570.0 17.7709
29620.0 36.1425
29670.0 56.0691
29695.0 58.0196
29720.0 53.4553
29745.0 45.1154
29757.5 40.1541
29770.0 34.5961
29776.3 31.5070
29782.5 28.3769
29785.7 27.1568
29788.8 27.0098
29791.9 30.3394
29793.5 35.3188
29795.0 44.9081
29796.3 57.8254
29797.5 76.3939
29800.0 119.709
29802.5 129.605
29805.0 110.686
29807.3 92.4119
29809.7 79.1199
29812.0 69.7248
29814.3 62.9816
29819.0 54.0206
29823.7 48.3502
29828.3 44.3650
29833.0 41.3607
29842.3 37.0023
29861.0 31.3978
29879.7 27.6498
29917.0 22.5748
29954.3 19.1539
30029.0 14.7256
30103.7 11.9444
30178.3 10.0023
30253.0 8.53502
30402.3 6.34486
30551.7 4.59887
30626.4 3.78567
30701.0 2.99973
30775.7 2.30754
30850.4 2.03026
30887.7 2.39077
30906.4 2.85427
30925.0 3.63411
30943.7 4.89234
30962.4 6.87565
30981.0 9.95425
30999.7 14.6445
31019.8 22.1877
31039.9 32.7043
31080.0 55.7117
31100.1 60.5043
31120.2 58.8906
31160.3 47.2198
31202.4 35.8625
31244.4 28.2030
31286.5 23.1111
31328.5 19.5499
31370.6 16.8613
31412.6 14.5602
31433.7 13.3550
31444.2 12.6636
31454.7 11.8441
31465.2 10.7792
31470.5 10.0840
31475.7 9.21042
31481.0 8.06334
31483.6 7.35189
31486.2 6.54435
31488.9 5.68680
31491.5 5.06473
31492.8 5.15379
31494.1 5.99536
31495.4 8.52809
31496.1 11.0226
31496.7 14.7771
31497.6 22.1070
31498.4 32.8579
31500.0 59.4191
31500.8 66.9749
31501.6 67.6301
31503.3 58.1870
31504.6 49.2676
31506.0 42.3135
31507.3 37.1934
31508.7 33.4062
31511.4 28.3301
31514.1 25.1661
31516.8 23.0164
31519.4 21.4763
31524.8 19.4037
31530.2 18.0652
31535.6 17.1220
31546.4 15.8519
31557.2 15.0079
31568.0 14.3861
31589.5 13.4894
31611.1 12.8385
31632.7 12.3221
31675.8 11.5180
31762.1 10.3829
31848.4 9.57318
32020.9 8.44231
32193.5 7.66350
32538.6 6.61927
32883.7 5.92014
33573.9 4.97600
34264.1 4.29173
34954.4 3.67686
35299.5 3.34958
35644.6 2.97637
35989.7 2.51745
36162.2 2.23897
36334.8 1.92180
36507.4 1.58622
36593.6 1.44467
36679.9 1.38202
36766.2 1.53694
36809.3 1.79683
36852.5 2.29403
36895.6 3.20209
36938.7 4.83756
36981.9 7.78011
37025.0 13.0257
37056.3 19.0128
37087.5 27.0983
37150.0 43.7038
37181.3 46.4684
37212.5 44.4441
37275.0 34.7314
37317.6 28.6337
37360.2 23.9518
37402.7 20.4652
37445.3 17.8543
37530.5 14.3177
37615.6 12.0989
37700.8 10.6052
37785.9 9.54165
37956.3 8.13918
38126.6 7.26043
38296.9 6.65858
38637.5 5.88365
38978.1 5.40036
39318.8 5.06509
40000.0 4.61993
40000.0 6.93199
50000.0 6.27790
60000.0 5.79690
70000.0 5.42590
80000.0 5.12930
90000.0 4.88570
100000 4.68140
112500 4.51213
125000 4.34306
150000 4.00530
175000 3.81423
200000 3.62340
225000 3.50155
250000 3.37980
252023 3.37180
276012 3.29312
300000 3.21450
325000 3.15662
350000 3.09880
381514 3.04410
381515 3.04410
400000 3.01720
425000 2.98858
450000 2.96000
475000 2.94054
500000 2.92110
525000 2.90875
550000 2.89640
575000 2.88955
600000 2.88270
607327 2.88150
629175 2.87900
650000 2.87800
675000 2.87920
700000 2.88040
712500 2.88247
725000 2.88455
737500 2.88662
750000 2.88870
762500 2.89202
775000 2.89535
787500 2.89867
800000 2.90200
812500 2.90633
825000 2.91065
837500 2.91498
850000 2.91930
862500 2.92445
875000 2.92960
887500 2.93475
900000 2.93990
912500 2.94573
925000 2.95155
950000 2.96320
951981 2.96420
975991 2.97645
1.00000E+06 2.98870
1.01351E+06 2.99590
1.03541E+06 3.00800
1.05730E+06 3.02010
1.07865E+06 3.03235
1.10000E+06 3.04460
1.12500E+06 3.05960
1.15000E+06 3.07460
1.17500E+06 3.08960
1.20000E+06 3.10460
1.21448E+06 3.11350
1.22646E+06 3.12088
1.23844E+06 3.12825
1.25042E+06 3.13563
1.26240E+06 3.14300
1.26619E+06 3.14540
1.28310E+06 3.15585
1.30000E+06 3.16630
1.31250E+06 3.17399
1.32500E+06 3.18168
1.33750E+06 3.18936
1.35000E+06 3.19705
1.36250E+06 3.20474
1.37500E+06 3.21242
1.38750E+06 3.22011
1.40000E+06 3.22780
1.42721E+06 3.24430
1.42721E+06 3.24430
1.43588E+06 3.24960
1.45191E+06 3.25912
1.46794E+06 3.26865
1.48397E+06 3.27818
1.50000E+06 3.28770
1.52500E+06 3.30192
1.55000E+06 3.31615
1.57500E+06 3.33037
1.60000E+06 3.34460
1.61584E+06 3.35320
1.63168E+06 3.36180
1.64363E+06 3.36813
1.65558E+06 3.37445
1.66752E+06 3.38078
1.67947E+06 3.38710
1.70000E+06 3.39770
1.71719E+06 3.40640
1.71720E+06 3.40640
1.73790E+06 3.41640
1.75860E+06 3.42640
1.77930E+06 3.43640
1.80000E+06 3.44640
1.81273E+06 3.45230
1.82364E+06 3.45705
1.83455E+06 3.46180
1.84546E+06 3.46655
1.85637E+06 3.47130
1.86727E+06 3.47605
1.87818E+06 3.48080
1.88909E+06 3.48555
1.90000E+06 3.49030
1.91161E+06 3.49495
1.92323E+06 3.49960
1.93484E+06 3.50425
1.94645E+06 3.50890
1.94646E+06 3.50890
1.96155E+06 3.51465
1.97665E+06 3.52040
1.98833E+06 3.52470
2.00000E+06 3.52900
2.00336E+06 3.53020
2.01632E+06 3.53470
2.02928E+06 3.53920
2.04224E+06 3.54370
2.05520E+06 3.54820
2.07475E+06 3.55450
2.09430E+06 3.56080
2.10000E+06 3.56260
2.11584E+06 3.56740
2.11584E+06 3.56740
2.12945E+06 3.57145
2.14306E+06 3.57550
2.14307E+06 3.57550
2.15207E+06 3.57810
2.15207E+06 3.57810
2.17287E+06 3.58375
2.19367E+06 3.58940
2.20000E+06 3.59110
2.21906E+06 3.59570
2.23811E+06 3.60030
2.25717E+06 3.60490
2.27622E+06 3.60950
2.29254E+06 3.61310
2.30000E+06 3.61460
2.30181E+06 3.61500
2.31394E+06 3.61750
2.32606E+06 3.62000
2.32606E+06 3.62000
2.34455E+06 3.62337
2.36303E+06 3.62675
2.38152E+06 3.63012
2.40000E+06 3.63350
2.41660E+06 3.63602
2.43319E+06 3.63855
2.44979E+06 3.64108
2.46638E+06 3.64360
2.46638E+06 3.64360
2.48319E+06 3.64580
2.50000E+06 3.64800
2.52056E+06 3.65020
2.54112E+06 3.65240
2.56168E+06 3.65460
2.58224E+06 3.65680
2.58224E+06 3.65680
2.60000E+06 3.65830
2.60265E+06 3.65850
2.60266E+06 3.65850
2.61282E+06 3.65928
2.62298E+06 3.66005
2.63313E+06 3.66082
2.64329E+06 3.66160
2.65780E+06 3.66250
2.67231E+06 3.66340
2.68616E+06 3.66415
2.70000E+06 3.66490
2.70912E+06 3.66530
2.71824E+06 3.66570
2.72736E+06 3.66610
2.73648E+06 3.66650
2.74835E+06 3.66685
2.76022E+06 3.66720
2.76022E+06 3.66720
2.77017E+06 3.66742
2.78011E+06 3.66765
2.79006E+06 3.66787
2.80000E+06 3.66810
2.82500E+06 3.66810
2.85000E+06 3.66810
2.87500E+06 3.66810
2.90000E+06 3.66810
2.91492E+06 3.66790
2.91492E+06 3.66790
2.93288E+06 3.66750
2.95084E+06 3.66710
2.96712E+06 3.66660
2.98356E+06 3.66600
3.00000E+06 3.66540
3.02500E+06 3.66409
3.05000E+06 3.66279
3.07500E+06 3.66149
3.10000E+06 3.66020
3.12500E+06 3.65834
3.15000E+06 3.65649
3.17500E+06 3.65464
3.20000E+06 3.65280
3.22500E+06 3.65045
3.25000E+06 3.64810
3.27500E+06 3.64575
3.30000E+06 3.64340
3.32500E+06 3.64063
3.35000E+06 3.63785
3.37500E+06 3.63508
3.40000E+06 3.63230
3.45000E+06 3.62599
3.50000E+06 3.61970
3.55000E+06 3.61274
3.60000E+06 3.60580
3.65000E+06 3.59829
3.70000E+06 3.59080
3.75000E+06 3.58284
3.80000E+06 3.57490
3.85000E+06 3.56650
3.90000E+06 3.55810
3.95000E+06 3.54940
4.00000E+06 3.54070
4.05000E+06 3.53145
4.10000E+06 3.52228
4.15000E+06 3.51320
4.20000E+06 3.50420
4.25000E+06 3.49467
4.30000E+06 3.48514
4.35000E+06 3.47562
4.40000E+06 3.46610
4.50000E+06 3.44651
4.60000E+06 3.42700
4.62918E+06 3.42130
4.71459E+06 3.40429
4.80000E+06 3.38740
4.90000E+06 3.36744
5.00000E+06 3.34750
5.10000E+06 3.32741
5.20000E+06 3.30760
5.30000E+06 3.28775
5.40000E+06 3.26790
5.50000E+06 3.24813
5.60000E+06 3.22840
5.80000E+06 3.18930
6.00000E+06 3.15070
6.20000E+06 3.11250
6.40000E+06 3.07480
6.60000E+06 3.03760
6.80000E+06 3.00100
7.00000E+06 2.96500
7.20000E+06 2.92960
7.40000E+06 2.89490
7.60000E+06 2.86070
7.76977E+06 2.83220
7.80000E+06 2.82720
8.00000E+06 2.79420
8.11926E+06 2.77490
8.11927E+06 2.77490
8.50000E+06 2.71490
8.64996E+06 2.69190
8.64996E+06 2.69190
8.75930E+06 2.67530
8.91428E+06 2.65230
9.00000E+06 2.63970
9.30368E+06 2.59630
9.30369E+06 2.59630
9.34791E+06 2.59010
9.36545E+06 2.58770
9.50000E+06 2.56920
9.95645E+06 2.50900
1.00000E+07 2.50350
1.04910E+07 2.44420
1.05000E+07 2.44320
1.07394E+07 2.41630
1.09268E+07 2.39610
1.09600E+07 2.39260
1.10000E+07 2.38850
1.12804E+07 2.36030
1.15000E+07 2.33950
1.15530E+07 2.33470
1.15756E+07 2.33260
1.15870E+07 2.33160
1.15870E+07 2.33160
1.20000E+07 2.29640
1.24875E+07 2.25970
1.25000E+07 2.25890
1.26588E+07 2.24810
1.30000E+07 2.22660
1.30157E+07 2.22570
1.35000E+07 2.19920
1.35465E+07 2.19690
1.38487E+07 2.18270
1.38733E+07 2.18160
1.40000E+07 2.17610
1.41609E+07 2.16950
1.45000E+07 2.15670
1.45231E+07 2.15580
1.47503E+07 2.14810
1.50000E+07 2.14040
1.55000E+07 2.12680
1.60000E+07 2.11540
1.63248E+07 2.10910
1.63606E+07 2.10850
1.63606E+07 2.10850
1.64778E+07 2.10640
1.65000E+07 2.10600
1.70000E+07 2.09830
1.75000E+07 2.09210
1.79477E+07 2.08770
1.80000E+07 2.08720
1.80320E+07 2.08700
1.81100E+07 2.08630
1.85000E+07 2.08370
1.86374E+07 2.08290
1.86375E+07 2.08290
1.87294E+07 2.08250
1.87546E+07 2.08240
1.90000E+07 2.08140
1.95000E+07 2.08030
1.98694E+07 2.08020
1.98694E+07 2.08020
2.00000E+07 2.08030
2.00000E+07 2.08045
2.10000E+07 2.08377
2.20000E+07 2.09114
2.30000E+07 2.10184
2.40000E+07 2.11533
2.50000E+07 2.13070
2.60000E+07 2.14740
2.70000E+07 2.16460
2.80000E+07 2.18190
2.90000E+07 2.19890
3.00000E+07 2.21510
3.10000E+07 2.23030
3.20000E+07 2.24440
3.30000E+07 2.25710
3.40000E+07 2.26849
3.50000E+07 2.27855
3.60000E+07 2.28702
3.70000E+07 2.29409
3.80000E+07 2.29964
3.90000E+07 2.30379
4.00000E+07 2.30641
4.10000E+07 2.30760
4.20000E+07 2.30744
4.30000E+07 2.30592
4.40000E+07 2.30305
4.50000E+07 2.29900
4.60000E+07 2.29368
4.70000E+07 2.28727
4.80000E+07 2.27987
4.90000E+07 2.27127
5.00000E+07 2.26187
5.10000E+07 2.25157
5.20000E+07 2.24035
5.30000E+07 2.22841
5.40000E+07 2.21575
5.50000E+07 2.20245
5.60000E+07 2.18853
5.70000E+07 2.17406
5.80000E+07 2.15905
5.90000E+07 2.14359
6.00000E+07 2.12778
6.10000E+07 2.11160
6.20000E+07 2.09507
6.30000E+07 2.07827
6.40000E+07 2.06120
6.50000E+07 2.04395
6.60000E+07 2.02652
6.70000E+07 2.00892
6.80000E+07 1.99122
6.90000E+07 1.97344
7.00000E+07 1.95567
7.10000E+07 1.93760
7.20000E+07 1.91973
7.30000E+07 1.90186
7.40000E+07 1.88399
7.50000E+07 1.86631
7.60000E+07 1.84852
7.70000E+07 1.83092
7.80000E+07 1.81330
7.90000E+07 1.79577
8.00000E+07 1.77852
8.10000E+07 1.76124
8.20000E+07 1.74429
8.30000E+07 1.72727
8.40000E+07 1.71062
8.50000E+07 1.69394
8.60000E+07 1.67753
8.70000E+07 1.66119
8.80000E+07 1.64507
8.90000E+07 1.62924
9.00000E+07 1.61350
9.10000E+07 1.59805
9.20000E+07 1.58265
9.30000E+07 1.56760
9.40000E+07 1.55261
9.50000E+07 1.53780
9.60000E+07 1.52336
9.70000E+07 1.50897
9.80000E+07 1.49493
9.90000E+07 1.48101
1.00000E+08 1.46723
1.02000E+08 1.44047
1.04000E+08 1.41452
1.06000E+08 1.38940
1.08000E+08 1.36513
1.10000E+08 1.34146
1.12000E+08 1.31873
1.14000E+08 1.29677
1.16000E+08 1.27560
1.18000E+08 1.25499
1.20000E+08 1.23525
1.22000E+08 1.21621
1.24000E+08 1.19786
1.26000E+08 1.18006
1.28000E+08 1.16302
1.30000E+08 1.14662
1.32000E+08 1.13082
1.34000E+08 1.11548
1.36000E+08 1.10088
1.38000E+08 1.08680
1.40000E+08 1.07313
1.42000E+08 1.06012
1.44000E+08 1.04760
1.46000E+08 1.03548
1.48000E+08 1.02393
1.50000E+08 1.01283
1.52000E+08 1.00205
1.54000E+08 0.991820
1.56000E+08 0.982040
1.58000E+08 0.972500
1.60000E+08 0.963470
1.62000E+08 0.954810
1.64000E+08 0.946380
1.66000E+08 0.938440
1.68000E+08 0.930870
1.70000E+08 0.923460
1.72000E+08 0.916500
1.74000E+08 0.909840
1.76000E+08 0.903360
1.78000E+08 0.897290
1.80000E+08 0.891530
1.82000E+08 0.885900
1.84000E+08 0.880640
1.86000E+08 0.875520
1.88000E+08 0.870780
1.90000E+08 0.866310
1.92000E+08 0.861930
1.94000E+08 0.857900
1.96000E+08 0.854100
1.98000E+08 0.850390
2.00000E+08 0.847020