Ti-48(n,tot) ENDF/B-VII.1
Energy(eV) XS(b)
1.00000E-05 422.266
1.25000E-05 378.108
1.50000E-05 345.512
2.00000E-05 299.758
2.75000E-05 256.222
3.50000E-05 227.571
4.25000E-05 206.887
5.00000E-05 191.052
6.25000E-05 171.304
7.50000E-05 156.727
0.000100000 136.265
0.000125000 122.301
0.000150000 111.993
0.000200000 97.5240
0.000275000 83.7570
0.000350000 74.6966
0.000425000 68.1557
0.000500000 63.1483
0.000625000 56.9034
0.000750000 52.2937
0.00100000 45.8230
0.00125000 41.4072
0.00150000 38.1476
0.00200000 33.5721
0.00275000 29.2186
0.00350000 26.3534
0.00425000 24.2850
0.00500000 22.7016
0.00625000 20.7268
0.00750000 19.2690
0.0100000 17.2228
0.0125000 15.8264
0.0150000 14.7956
0.0200000 13.3487
0.0253000 12.3116
0.0314750 11.4514
0.0376500 10.8126
0.0500000 9.91117
0.0625000 9.28668
0.0750000 8.82571
0.100000 8.17866
0.125000 7.73710
0.150000 7.41116
0.200000 6.95366
0.275000 6.51839
0.350000 6.23196
0.500000 5.86695
0.750000 5.52402
1.00000 5.31974
1.50000 5.07773
2.00000 4.93378
2.75000 4.79723
3.50000 4.70777
5.00000 4.59462
7.50000 4.49002
10.0000 4.42931
15.0000 4.36063
20.0000 4.32301
27.5000 4.29175
35.0000 4.27541
50.0000 4.26357
75.0000 4.27038
100.000 4.29097
150.000 4.34836
200.000 4.41484
275.000 4.52116
350.000 4.63066
500.000 4.85216
750.000 5.22044
1000.00 5.58574
1500.00 6.31520
2000.00 7.05900
2750.00 8.23736
3500.00 9.53224
5000.00 12.6479
5837.78 14.8106
6256.67 16.0394
6466.11 16.6961
6570.84 17.0358
6623.20 17.2091
6649.38 17.2981
6662.47 17.3492
6665.74 17.3675
6669.01 17.3986
6670.65 17.4309
6672.29 17.5069
6673.10 17.5983
6673.92 17.8161
6674.33 18.0621
6674.74 18.5786
6674.95 19.0770
6675.15 19.9286
6675.35 21.5208
6675.56 24.6231
6675.73 28.9752
6675.91 31.8525
6676.09 28.9509
6676.26 24.6266
6676.46 21.5362
6676.67 19.9512
6676.87 19.0967
6677.07 18.5984
6677.48 18.0806
6677.88 17.8354
6678.70 17.6203
6679.51 17.5333
6681.13 17.4672
6682.75 17.4454
6686.00 17.4358
6689.24 17.4393
6702.23 17.4756
6728.19 17.5616
6780.13 17.7384
6883.99 18.0993
7091.73 18.8467
7507.20 20.4515
8338.13 24.1676
10000.0 34.3086
10729.1 40.3137
11093.7 43.7794
11276.0 45.6640
11321.6 46.1707
11367.1 46.7351
11389.9 47.0905
11401.3 47.3233
11412.7 47.6457
11424.1 48.1884
11429.8 48.6588
11435.5 49.4437
11441.2 50.9784
11444.0 52.3953
11446.9 54.7810
11449.7 59.3309
11451.2 63.3468
11452.6 69.6798
11454.0 80.6510
11455.4 101.502
11456.1 119.582
11456.9 147.381
11457.6 191.722
11458.3 263.106
11459.1 393.372
11460.0 478.959
11460.9 391.975
11461.7 263.409
11462.7 174.621
11463.6 127.945
11464.6 102.017
11465.5 86.5776
11466.5 76.6925
11467.4 70.1571
11469.3 62.2724
11471.2 57.8893
11473.0 55.2421
11476.8 52.3398
11480.6 50.8791
11484.3 50.0567
11491.9 49.2326
11499.4 48.8749
11506.9 48.7111
11522.0 48.6257
11552.1 48.7757
11582.2 49.0476
11702.7 50.3648
11943.7 53.2482
12425.7 59.6102
12907.7 66.7845
13148.7 70.6911
13269.2 72.7260
13329.5 73.7650
13359.6 74.2948
13367.1 74.4330
13374.6 74.5841
13378.4 74.6776
13382.2 74.8207
13384.1 74.9596
13385.9 75.2785
13386.9 75.6668
13387.4 76.0243
13387.8 76.6270
13388.3 77.7675
13388.5 78.7903
13388.8 80.3367
13389.0 83.0915
13389.2 88.0664
13389.4 92.4984
13389.5 99.2841
13389.6 110.027
13389.7 125.371
13389.9 155.850
13390.0 176.258
13390.2 156.046
13390.3 125.637
13390.4 108.130
13390.6 97.5376
13390.7 91.0400
13390.8 86.8832
13391.1 82.1676
13391.3 79.8081
13391.6 78.3814
13391.8 77.5202
13392.4 76.5212
13392.9 76.0021
13393.4 75.7008
13394.4 75.3874
13396.4 75.1664
13398.5 75.1061
13402.6 75.1057
13406.6 75.1511
13414.8 75.2754
13423.0 75.4125
13455.7 75.9848
13521.0 77.1543
13655.0 79.6054
13789.0 82.1223
14057.0 87.3450
14593.0 98.4587
15665.0 121.939
17809.0 150.156
18904.5 141.053
20000.0 116.929
20782.3 91.5229
21173.5 72.5466
21369.0 58.2596
21466.8 48.5923
21515.7 42.8160
21540.2 39.6467
21552.4 37.9983
21558.5 37.1972
21561.6 36.9299
21562.3 36.9623
21563.1 37.1692
21563.9 38.0011
21564.2 39.2565
21564.4 40.4562
21564.6 42.3493
21564.9 46.0265
21565.1 48.3251
21565.4 45.7753
21565.6 42.1793
21565.9 39.1440
21566.3 37.7739
21567.0 36.6812
21567.7 36.2374
21568.4 35.9847
21571.2 35.3975
21576.8 34.5276
21587.9 32.8522
21610.2 29.3941
21654.8 21.9899
21744.0 6.67701
21766.1 3.56715
21777.1 2.29250
21788.1 1.27055
21793.7 0.871813
21799.2 0.558992
21804.7 0.339043
21810.2 0.221104
21813.0 0.202858
21815.7 0.213311
21821.2 0.324364
21826.7 0.563390
21832.3 0.938151
21837.8 1.45845
21843.3 2.13183
21854.3 3.96555
21865.4 6.49147
21876.4 9.74413
21898.4 18.4502
21920.5 29.8328
22008.8 83.8973
22097.0 114.862
22140.0 120.306
22239.0 121.519
22338.0 117.077
22536.0 106.501
22875.6 92.4162
23215.3 82.2941
23554.9 74.3727
23724.7 70.9928
23767.1 70.2299
23809.6 69.5716
23830.8 69.3635
23841.4 69.3460
23852.0 69.4620
23862.7 69.8856
23868.0 70.3555
23873.3 71.1982
23878.6 72.8289
23881.2 74.2352
23883.9 76.3971
23886.5 79.9311
23889.2 86.0910
23891.8 97.7939
23893.2 107.576
23894.5 121.323
23896.7 153.529
23898.9 174.912
23901.1 153.413
23903.3 121.288
23904.8 106.018
23906.3 95.6870
23909.2 83.9170
23912.2 78.0008
23915.2 74.6913
23918.1 72.6623
23921.1 71.3363
23927.1 69.7457
23933.0 68.8425
23938.9 68.2629
23950.8 67.5412
23962.7 67.0772
23974.6 66.7249
23998.4 66.1644
24045.9 65.2452
24093.5 64.4141
24283.7 61.3588
24664.1 55.9166
25424.9 46.8703
26946.5 33.5770
28468.1 24.1824
29989.6 17.0262
31511.2 11.0843
33032.8 5.61009
33793.6 2.93077
34174.0 1.67203
34554.4 0.606981
34744.6 0.229352
34839.7 0.104985
34887.3 0.0637051
34934.8 0.0386421
34982.4 0.0317685
35029.9 0.0452984
35077.5 0.0817173
35125.0 0.143815
35172.6 0.234726
35220.1 0.357964
35315.2 0.717693
35410.3 1.26066
35505.4 2.03403
35600.5 3.09645
35695.6 4.51997
35885.8 8.81224
36076.0 15.7544
36293.3 27.9284
36510.5 44.2751
36727.8 60.8021
36945.0 71.1495
37379.5 68.0796
37814.0 54.1317
38131.9 45.3258
38449.8 38.4838
38767.7 33.2233
38926.7 31.0500
39006.2 30.0575
39045.9 29.5851
39065.8 29.3651
39075.7 29.3022
39080.7 29.4432
39081.9 29.6187
39083.1 30.0898
39083.8 30.6698
39084.4 32.0040
39084.7 33.4175
39085.0 36.1255
39085.3 42.0971
39085.5 48.1165
39085.6 57.4388
39085.8 74.3868
39086.0 86.0067
39086.2 74.5633
39086.4 57.6577
39086.6 47.3907
39086.7 41.4349
39087.1 35.4536
39087.4 32.9000
39087.8 31.6371
39088.5 30.4271
39089.2 29.9102
39090.5 29.4727
39091.9 29.2929
39097.5 29.0544
39108.6 28.8796
39130.8 28.6177
39175.2 28.1289
39264.0 27.2012
39441.5 25.5047
39796.7 22.6268
40507.0 18.2990
41217.3 15.1467
41572.5 13.8515
41750.1 13.2583
41838.9 12.9751
41883.2 12.8377
41905.4 12.7716
41916.5 12.7445
41922.1 12.7516
41924.9 12.8249
41926.3 13.0634
41926.9 13.6112
41927.3 14.4897
41927.6 16.9403
41928.0 21.1852
41928.4 16.9375
41928.7 14.7468
41928.9 13.8185
41929.5 13.1690
41930.7 12.8515
41933.0 12.7326
41937.6 12.6853
41946.8 12.6489
41965.2 12.5926
42002.0 12.4876
42075.5 12.3043
42112.3 12.2482
42130.7 12.2460
42149.1 12.2848
42167.5 12.4208
42176.7 12.5733
42185.9 12.8540
42195.1 13.4195
42199.7 13.9317
42204.3 14.7599
42208.9 16.2100
42213.5 19.0444
42215.8 21.5542
42218.1 25.4900
42220.4 31.9286
42222.7 42.5482
42225.4 61.0129
42228.0 73.3981
42230.6 61.1648
42233.3 42.6767
42235.2 33.4722
42237.1 27.3951
42239.0 23.3795
42240.9 20.6694
42244.7 17.3939
42248.5 15.6025
42252.3 14.5249
42256.0 13.8318
42263.6 13.0207
42271.2 12.5781
42278.8 12.3070
42294.0 11.9952
42309.1 11.8185
42324.3 11.6996
42354.6 11.5355
42415.3 11.3078
42476.0 11.1199
42718.7 10.4546
43204.1 9.24986
44175.0 7.10871
46116.6 3.39925
47087.5 1.74046
47572.9 1.00297
48058.3 0.396372
48301.0 0.175548
48422.4 0.0947889
48483.1 0.0633418
48543.7 0.0385325
48604.4 0.0209172
48665.1 0.0111129
48725.8 0.00978431
48786.5 0.0176506
48847.1 0.0354968
48907.8 0.0641708
48968.5 0.104593
49029.2 0.157750
49150.5 0.306723
49271.9 0.520813
49393.2 0.811444
49514.6 1.19182
49757.3 2.28544
50000.0 3.95198
50228.5 6.21149
50457.0 9.31921
50879.0 17.7818
51301.0 29.5798
51723.0 41.8464
52145.0 49.8478
52989.0 48.9496
53833.0 40.0188
54469.7 34.0564
55106.3 29.4081
55742.9 25.8368
56061.3 24.3642
56220.4 23.6925
56300.0 23.3717
56339.8 23.2160
56359.7 23.1437
56369.6 23.1259
56374.6 23.1816
56377.1 23.4184
56378.3 24.0815
56379.0 25.4154
56379.3 27.2070
56379.6 31.4159
56379.8 36.4891
56380.0 39.7646
56380.2 36.4848
56380.4 31.4092
56380.7 28.0581
56380.9 26.2135
56381.3 24.5998
56382.2 23.6340
56384.0 23.2245
56387.7 23.0791
56394.9 23.0137
56409.4 22.9482
56438.3 22.8356
56496.2 22.6183
56611.9 22.1981
56843.4 21.4073
57306.3 19.9990
58232.2 17.7238
60084.0 14.5648
61935.8 12.4605
63787.6 10.9412
67491.1 8.85269
69342.9 8.09015
70268.8 7.75769
70731.8 7.60298
70963.2 7.52872
71079.0 7.49252
71136.8 7.47509
71165.8 7.46816
71180.2 7.47147
71187.5 7.49866
71191.1 7.60424
71192.9 7.95512
71193.8 8.90923
71194.2 10.8252
71194.5 13.4894
71194.7 19.4653
71195.0 31.4855
71195.3 19.4630
71195.5 14.0285
71195.7 11.3280
71196.1 9.21971
71196.9 8.07895
71198.5 7.64379
71201.6 7.50620
71207.9 7.46612
71220.5 7.45219
71245.6 7.44195
71296.0 7.42607
71396.6 7.39582
71597.9 7.33724
72000.6 7.22805
72805.8 7.06802
73208.4 7.06403
73409.7 7.11492
73611.1 7.24515
73812.4 7.55073
73913.0 7.84393
74013.7 8.32936
74114.3 9.19019
74215.0 10.8764
74265.3 12.3623
74315.7 14.6736
74366.0 18.4085
74416.3 24.5066
74476.2 35.3994
74536.0 42.7563
74595.9 35.5748
74655.7 24.6541
74708.4 18.2635
74761.1 14.4188
74813.9 12.0686
74866.6 10.5668
74972.0 8.85681
75077.4 7.96396
75182.8 7.43705
75288.3 7.09593
75499.1 6.68232
75710.0 6.43344
75920.8 6.25312
76026.3 6.17250
76131.7 6.08801
76184.4 6.03900
76237.1 5.97980
76289.8 5.92596
76303.0 5.95028
76316.2 6.09784
76322.8 6.34072
76326.1 6.58263
76329.4 6.99507
76332.7 7.75289
76335.9 9.27237
76337.6 10.6283
76339.2 12.7190
76340.9 16.0732
76342.5 21.3869
76344.8 32.2967
76345.9 37.4487
76347.0 39.6297
76351.5 24.0461
76353.1 19.3757
76354.6 16.1633
76356.2 13.9507
76357.8 12.4000
76360.9 10.4302
76364.0 9.28629
76367.1 8.56365
76370.3 8.07643
76376.5 7.47553
76382.8 7.12807
76389.1 6.90571
76401.6 6.64177
76414.1 6.49210
76426.6 6.39597
76451.7 6.27878
76476.7 6.20832
76501.7 6.15977
76551.8 6.09364
76601.9 6.04724
76652.0 6.01040
76752.2 5.95089
76952.5 5.85613
77152.8 5.77455
77954.2 5.48506
78354.8 5.34425
78755.5 5.20088
78955.8 5.12925
79156.2 5.06429
79256.3 5.04407
79306.4 5.04435
79356.5 5.06219
79381.5 5.08451
79406.6 5.12409
79431.6 5.19523
79456.7 5.33036
79481.7 5.61634
79494.2 5.88875
79506.7 6.35320
79519.3 7.23148
79525.5 7.99154
79531.8 9.17396
79538.0 11.1411
79544.3 14.7088
79547.4 17.6370
79550.6 21.9010
79553.7 28.2466
79556.8 37.6791
79561.4 57.6686
79566.0 71.1937
79570.6 58.1743
79575.2 38.3628
79579.8 25.4690
79584.5 18.2822
79589.1 14.1369
79593.8 11.6097
79598.4 9.97057
79603.1 8.85875
79612.3 7.49396
79621.6 6.72202
79630.9 6.24417
79649.5 5.70672
79668.1 5.42464
79686.6 5.25639
79705.2 5.14632
79723.8 5.06910
79760.9 4.96737
79798.1 4.90175
79872.4 4.81586
79946.7 4.75491
80021.0 4.70387
80095.2 4.65798
80132.4 4.63947
80151.0 4.64443
80160.3 4.69991
80164.9 4.91396
80167.2 5.59894
80168.4 7.35807
80169.0 10.5963
80169.2 14.5577
80169.5 22.9266
80169.8 34.0183
80170.0 41.2454
80170.2 34.0173
80170.5 22.9245
80170.8 13.4928
80171.2 9.51430
80171.9 6.69136
80173.3 5.31047
80176.2 4.81256
80181.9 4.65952
80193.3 4.61158
80216.2 4.58713
80262.0 4.55700
80353.5 4.50113
80536.5 4.38666
80902.5 4.12965
81268.6 3.81213
81634.6 3.39468
82000.6 2.80427
82183.6 2.40256
82366.6 1.89281
82549.7 1.23984
82641.2 0.856453
82732.7 0.455861
82778.4 0.267900
82824.2 0.111805
82847.1 0.0559836
82869.9 0.0234635
82892.8 0.0234059
82915.7 0.0681708
82938.6 0.174583
82961.5 0.365404
82984.3 0.671483
83007.2 1.13415
83030.1 1.80924
83053.0 2.76843
83075.8 4.10339
83098.7 5.91908
83138.8 10.5703
83178.9 17.1933
83218.9 24.6606
83259.0 30.3890
83339.2 31.5601
83419.3 26.2969
83472.3 22.9377
83525.3 20.2164
83631.3 16.3965
83737.3 13.9798
83843.4 12.3604
83949.4 11.2143
84055.4 10.3659
84267.4 9.20102
84479.4 8.44778
84691.5 7.95105
84797.5 7.80330
84850.5 7.77494
84903.5 7.80790
84956.5 7.97349
84983.0 8.16338
85009.5 8.50299
85036.0 9.14299
85062.5 10.4684
85075.8 11.6866
85089.0 13.6496
85102.3 16.9567
85115.5 22.6151
85130.3 32.3079
85145.0 38.8571
85159.8 32.7089
85174.5 23.3622
85190.1 17.0321
85205.7 13.5458
85221.3 11.5505
85237.0 10.3294
85252.6 9.53365
85268.2 8.98659
85299.4 8.29995
85330.6 7.89518
85361.8 7.63090
85424.3 7.30458
85486.7 7.10490
85549.2 6.96402
85674.1 6.76497
85923.8 6.50083
86173.6 6.30911
86423.4 6.15339
86673.2 6.02061
86798.1 5.96069
86923.0 5.90473
87047.9 5.85769
87079.1 5.85332
87110.3 5.86777
87125.9 5.90141
87141.5 6.00970
87149.3 6.16174
87157.1 6.56563
87161.0 7.06845
87163.0 7.51763
87164.9 8.24080
87166.9 9.50383
87168.8 11.9691
87169.8 14.1636
87170.8 17.5654
87171.8 23.1795
87172.7 32.4252
87173.9 48.7545
87175.0 59.7859
87176.1 49.3087
87177.3 33.1530
87178.5 22.0209
87179.8 16.1036
87181.0 12.8127
87182.2 10.8490
87183.5 9.59101
87184.7 8.75408
87187.2 7.73898
87189.7 7.17021
87192.2 6.82253
87197.1 6.43454
87207.1 6.11454
87217.0 5.98630
87236.9 5.88084
87256.7 5.83547
87296.5 5.79078
87336.2 5.76439
87415.7 5.72619
87495.2 5.69441
87654.1 5.63764
87813.0 5.58552
88130.9 5.49004
88448.8 5.40330
89720.3 5.11468
92263.4 4.69084
94806.4 4.36741
96078.0 4.22809
96395.8 4.19563
96713.7 4.16536
96872.7 4.15256
97031.6 4.14578
97111.1 4.15035
97190.5 4.17689
97230.3 4.21937
97250.2 4.26267
97270.0 4.34130
97289.9 4.50493
97299.8 4.66187
97309.8 4.93444
97319.7 5.47176
97324.7 5.96010
97329.6 6.76077
97334.6 8.21056
97337.1 9.41182
97339.6 11.2081
97342.0 14.0574
97344.5 18.8422
97347.0 27.4953
97349.5 43.8116
97351.7 67.5922
97354.0 83.4482
97356.3 67.5648
97358.5 43.7350
97361.1 26.9337
97363.7 18.2539
97366.3 13.5486
97368.8 10.7941
97371.4 9.06668
97374.0 7.92037
97379.2 6.54999
97384.3 5.79744
97389.5 5.34185
97399.8 4.84281
97410.1 4.59033
97420.4 4.44520
97441.1 4.29317
97461.7 4.21879
97482.4 4.17653
97523.6 4.13174
97606.2 4.09411
97688.7 4.07570
97853.8 4.05238
98018.9 4.03403
98349.1 4.00099
98679.3 3.96957
99339.6 3.90880
100000 3.84991
101659 3.70828
103318 3.57372
104977 3.44382
105806 3.37944
106221 3.34794
106324 3.34168
106428 3.34086
106480 3.34892
106532 3.38286
106558 3.43593
106571 3.49051
106584 3.58917
106597 3.79532
106603 3.99111
106609 4.31906
106616 4.94963
106619 5.50898
106622 6.35765
106626 7.82734
106629 10.4388
106631 12.5871
106632 15.7217
106634 20.3978
106635 27.3701
106638 42.5584
106640 52.4196
106642 42.5352
106645 28.1932
106646 20.8377
106648 16.2150
106650 12.9290
106651 10.8135
106655 8.14452
106658 6.70497
106661 5.80221
106664 5.21900
106671 4.54533
106678 4.17504
106684 3.95555
106697 3.71250
106710 3.58824
106723 3.51561
106749 3.43747
106802 3.37310
106854 3.34556
106959 3.31871
107063 3.30318
107273 3.28100
107482 3.26252
108320 3.19583
109994 3.06543
110832 2.99805
111669 2.92789
112506 2.85553
112716 2.83895
112925 2.82784
113030 2.83004
113134 2.85401
113187 2.89497
113213 2.93728
113239 3.01409
113265 3.17438
113278 3.32771
113291 3.59081
113304 4.10861
113311 4.58041
113318 5.33849
113324 6.71660
113327 7.85373
113331 9.48164
113334 12.0890
113337 16.2459
113340 23.7518
113344 36.8861
113347 57.4826
113350 71.3013
113353 57.4410
113356 36.7683
113359 25.1913
113362 18.3292
113364 14.0166
113367 11.2044
113372 7.95199
113377 6.24504
113383 5.23512
113388 4.61310
113398 3.90481
113409 3.53072
113419 3.31343
113440 3.08124
113461 2.96560
113482 2.89968
113523 2.83026
113607 2.77353
113690 2.74743
113857 2.71636
114024 2.69242
114358 2.64749
114692 2.60066
115360 2.49258
116027 2.35203
116695 2.14952
117029 2.00510
117363 1.80870
117697 1.52175
117863 1.32159
118030 1.06208
118197 0.719413
118281 0.511516
118364 0.286665
118448 0.0805714
118489 0.0194398
118531 0.0334989
118552 0.0916776
118573 0.204408
118594 0.395515
118615 0.697566
118636 1.16267
118656 1.85587
118677 2.88035
118698 4.35038
118726 7.27915
118754 11.4522
118810 20.6639
118838 22.6898
118866 22.3384
118922 18.4731
118969 15.1872
119017 12.7141
119064 10.9258
119112 9.62014
119206 7.88459
119301 6.81305
119396 6.09476
119491 5.58426
119680 4.90974
119869 4.48557
120059 4.19534
120154 4.08311
120248 3.98980
120296 3.95243
120343 3.93027
120367 3.93643
120391 3.98764
120402 4.07181
120414 4.30735
120420 4.61265
120426 5.37116
120429 6.27683
120432 8.18122
120433 10.1503
120435 13.7275
120436 16.9074
120436 20.9620
120437 26.8421
120438 35.4863
120439 54.3613
120440 67.1245
120441 54.3108
120442 35.3472
120443 22.2472
120445 14.9908
120446 11.1563
120447 9.08717
120450 6.75572
120452 5.70054
120457 4.75358
120463 4.36490
120473 4.05463
120483 3.93360
120503 3.83487
120524 3.79073
120605 3.70919
120687 3.65619
120768 3.61105
120931 3.53506
121095 3.47643
121258 3.44165
121339 3.44112
121421 3.46511
121502 3.54541
121543 3.63345
121584 3.79165
121625 4.10105
121645 4.37149
121665 4.79201
121686 5.48588
121706 6.72023
121727 9.11872
121737 11.1534
121747 14.0439
121764 20.8108
121780 25.4217
121797 21.1533
121813 14.6074
121825 11.4239
121836 9.28258
121847 7.81848
121859 6.81339
121881 5.56679
121904 4.86643
121927 4.43682
121949 4.15452
121995 3.81674
122040 3.62761
122086 3.50897
122176 3.36931
122267 3.28867
122358 3.23444
122540 3.16170
122721 3.11091
122903 3.07060
123266 3.00610
123992 2.90809
124719 2.83081
127624 2.60802
129077 2.52304
130530 2.45296
131256 2.42961
131619 2.42579
131982 2.43442
132346 2.47334
132527 2.52013
132709 2.61038
132890 2.80366
132981 2.98969
133072 3.31066
133163 3.92978
133208 4.47769
133254 5.35115
133299 6.85800
133344 9.75126
133367 12.2714
133390 16.1626
133412 22.4041
133435 32.4700
133463 50.8431
133490 63.1806
133518 50.8484
133545 32.5107
133569 21.9123
133593 15.5960
133617 11.7482
133642 9.29794
133690 6.52521
133738 5.10435
133786 4.28472
133835 3.77301
133931 3.19298
134028 2.88907
134124 2.70941
134317 2.51415
134510 2.41320
134703 2.35186
134896 2.30954
134993 2.29225
135041 2.28704
135065 2.30370
135077 2.39812
135083 2.75007
135086 3.77430
135088 5.93308
135088 9.27541
135089 16.7971
135090 25.5270
135090 32.1022
135091 26.0782
135091 17.4678
135092 10.5447
135092 6.99167
135094 4.34699
135096 3.04312
135102 2.53251
135113 2.36121
135134 2.30437
135178 2.28106
135264 2.26438
135437 2.24360
135784 2.21240
136476 2.16461
137862 2.08775
139247 2.01698
139939 1.98233
140113 1.97535
140286 1.97449
140372 1.98382
140459 2.02347
140502 2.08587
140524 2.15017
140546 2.26707
140567 2.51117
140578 2.74178
140589 3.13491
140600 3.87979
140605 4.52591
140610 5.53313
140616 7.21246
140621 10.2650
140624 12.7740
140627 16.4302
140629 21.8739
140632 29.9656
140636 47.2551
140640 58.8069
140644 47.4499
140648 30.5307
140651 22.8044
140653 17.4809
140658 11.2589
140664 8.06217
140669 6.25160
140674 5.13904
140679 4.41004
140690 3.54675
140700 3.07492
140710 2.78888
140731 2.47313
140752 2.31074
140773 2.21551
140814 2.11275
140856 2.05991
140897 2.02847
140981 1.99275
141147 1.95886
141313 1.93997
141646 1.91330
141812 1.90153
141895 1.90060
141937 1.93106
141957 2.07973
141963 2.22934
141968 2.61529
141970 3.07839
141973 4.11009
141974 5.16082
141976 7.07461
141977 10.9473
141977 14.0551
141978 19.2729
141979 29.5529
141980 37.5058
141981 30.2647
141982 20.1337
141983 14.8740
141983 11.2750
141985 7.28808
141986 5.35019
141988 4.29086
141990 3.24494
141993 2.76658
141999 2.35325
142004 2.18486
142015 2.04489
142027 1.98950
142071 1.92513
142160 1.89946
142338 1.88206
142695 1.85966
143407 1.82000
144832 1.74051
147682 1.55585
149107 1.43479
150532 1.26938
151245 1.15458
151957 0.999338
152313 0.897366
152491 0.837701
152670 0.770882
152848 0.695887
153026 0.613395
153115 0.572455
153204 0.543876
153249 0.550863
153293 0.621413
153315 0.740805
153326 0.860800
153338 1.07167
153349 1.48580
153354 1.85195
153360 2.41777
153365 3.38841
153371 5.13968
153374 6.61749
153377 8.79607
153379 12.0825
153382 16.8210
153386 26.9713
153390 34.0181
153394 27.7026
153398 17.7329
153402 11.3443
153406 7.74125
153410 5.59335
153413 4.24526
153421 2.73865
153429 1.96847
153436 1.52368
153444 1.24309
153459 0.919665
153474 0.743363
153489 0.635345
153520 0.508755
153581 0.384104
153642 0.316804
153703 0.282135
153763 0.309136
153794 0.393123
153809 0.482912
153824 0.641433
153840 0.941749
153847 1.19638
153855 1.58035
153862 2.18778
153870 3.20536
153878 5.01727
153885 8.34977
153893 13.6186
153900 17.2304
153908 13.9501
153915 8.90748
153924 5.24068
153932 3.34542
153941 2.30064
153949 1.67883
153958 1.27868
153966 1.01253
153983 0.686998
154000 0.502078
154017 0.388495
154051 0.264200
154085 0.209411
154119 0.194951
154154 0.212239
154188 0.260958
154222 0.346132
154256 0.476485
154290 0.665251
154324 0.930203
154358 1.29853
154392 1.80250
154460 3.41469
154513 5.45736
154565 8.39293
154670 15.4569
154723 17.3698
154775 17.3213
154880 14.1748
155005 10.4314
155130 8.03535
155255 6.53827
155317 5.99816
155349 5.76565
155364 5.65712
155372 5.60541
155376 5.58562
155378 5.60104
155379 5.69626
155380 7.83606
155380 10.2885
155380 7.99856
155381 5.95011
155381 5.69411
155383 5.58769
155385 5.54012
155390 5.49898
155399 5.43737
155418 5.32445
155455 5.11814
155530 4.76229
155679 4.21819
155978 3.52459
156276 3.10400
156575 2.82197
157172 2.46543
157471 2.34426
157620 2.29246
157695 2.26808
157732 2.25582
157751 2.24922
157760 2.24643
157765 2.25186
157767 2.28594
157769 2.41879
157770 4.69129
157770 7.35783
157770 4.91494
157771 2.59596
157772 2.37855
157774 2.29230
157778 2.26115
157785 2.24840
157799 2.24023
157828 2.23018
157886 2.21296
158003 2.18120
158235 2.12383
158700 2.02702
159629 1.87994
160558 1.76871
161023 1.72026
161255 1.69589
161371 1.68377
161429 1.68868
161458 1.75055
161473 1.99953
161476 2.22477
161480 2.71439
161484 4.08507
161485 5.80407
161487 9.42558
161489 14.5052
161490 17.7710
161491 14.9212
161493 10.0273
161495 6.67507
161496 4.89156
161499 3.29497
161503 2.65146
161506 2.33356
161512 2.03872
161519 1.91282
161544 1.75987
161596 1.70345
161699 1.67602
161905 1.65148
162316 1.61528
162728 1.58290
162934 1.56745
163037 1.55987
163088 1.55611
163114 1.55432
163127 1.55386
163133 1.55561
163137 1.56402
163138 1.59312
163139 1.67343
163140 2.91336
163140 4.29408
163140 2.93628
163141 1.68312
163142 1.59874
163144 1.56675
163147 1.55634
163153 1.55284
163166 1.55101
163192 1.54889
163243 1.54512
163345 1.53781
163550 1.52348
163755 1.50944
163857 1.50255
163909 1.49922
163934 1.49781
163947 1.49789
163953 1.50054
163957 1.51053
163958 1.54209
163960 2.82092
163960 4.12304
163960 2.79421
163961 1.58035
163962 1.52191
163964 1.50185
163969 1.49634
163977 1.49459
163994 1.49327
164027 1.49105
164094 1.48665
164228 1.47788
164495 1.46060
165029 1.42700
165564 1.39467
165831 1.37862
165965 1.37033
166031 1.37104
166065 1.40447
166081 1.56361
166086 1.72213
166090 2.12326
166092 2.59223
166094 3.59892
166096 6.28225
166097 9.26499
166098 15.5022
166099 24.5172
166100 30.5740
166101 25.2323
166102 16.4063
166103 11.4554
166103 8.29617
166105 5.10610
166107 3.68490
166108 2.94641
166111 2.24524
166115 1.94083
166121 1.67173
166127 1.56313
166153 1.43715
166203 1.39441
166305 1.37871
166407 1.37706
166508 1.38430
166610 1.40878
166661 1.43602
166711 1.48688
166762 1.59352
166788 1.69511
166813 1.86940
166838 2.20401
166851 2.49925
166864 2.96893
166877 3.77737
166889 5.32538
166896 6.68347
166902 8.74264
166908 12.0896
166915 17.4108
166922 27.1091
166930 33.5963
166938 27.1098
166945 17.4046
166955 10.4124
166964 6.88452
166973 5.00356
166982 3.91438
166991 3.23624
167000 2.78846
167018 2.25756
167036 1.96491
167054 1.78872
167091 1.59452
167127 1.49524
167163 1.43761
167236 1.37545
167309 1.34315
167381 1.32328
167527 1.29885
167817 1.27018
168108 1.24908
168689 1.21230
168979 1.19477
169125 1.18605
169197 1.18163
169233 1.17931
169252 1.17804
169261 1.17771
169265 1.17999
169268 1.19233
169269 1.23341
169270 2.31106
169270 3.51858
169270 2.38673
169272 1.22469
169274 1.19381
169277 1.18297
169283 1.17897
169296 1.17691
169322 1.17488
169373 1.17161
169476 1.16542
169683 1.15321
170095 1.12887
170507 1.10449
170714 1.09225
170817 1.08611
170868 1.08302
170894 1.08156
170907 1.08129
170913 1.08329
170917 1.09276
170918 1.12749
170919 1.23430
170920 3.20870
170920 5.36861
170920 3.23745
170921 1.28220
170922 1.14760
170923 1.10022
170926 1.08544
170932 1.08107
170943 1.07921
170966 1.07748
171011 1.07464
171103 1.06914
171285 1.05820
171650 1.03620
172380 0.991618
173110 0.946011
173475 0.922724
173657 0.910891
173749 0.904818
173794 0.901550
173817 0.899584
173828 0.898395
173834 0.899088
173837 0.908436
173838 0.949350
173839 1.08224
173840 3.91625
173840 7.12854
173840 4.11672
173841 1.15594
173842 0.982398
173843 0.927731
173846 0.908934
173853 0.902358
173865 0.899310
173890 0.896783
173939 0.893154
174038 0.886503
174235 0.873402
174432 0.860246
174531 0.853632
174580 0.850338
174605 0.848790
174617 0.848475
174624 0.850171
174627 0.858024
174628 0.883776
174630 1.85256
174630 2.86390
174630 1.85922
174631 0.909485
174633 0.867159
174635 0.852385
174639 0.847970
174648 0.846197
174667 0.844655
174703 0.842114
174775 0.837169
174920 0.827277
175210 0.807302
175790 0.766436
176370 0.724196
176660 0.702432
176805 0.691197
176877 0.685156
176914 0.681460
176932 0.678670
176941 0.676901
176945 0.680706
176948 0.710588
176949 0.820819
176949 1.16686
176950 5.27438
176950 10.2506
176950 5.66077
176951 1.23758
176952 0.909832
176953 0.766032
176955 0.711278
176960 0.692208
176970 0.684429
176990 0.680047
177029 0.675760
177108 0.669103
177265 0.656576
177580 0.631565
178210 0.580152
179470 0.470280
180730 0.349740
181360 0.285295
181675 0.252040
181832 0.235024
181911 0.226118
181950 0.221033
181970 0.217690
181980 0.216093
181985 0.221350
181987 0.256745
181989 0.384770
181989 0.719447
181990 4.17649
181990 8.47019
181990 4.51180
181991 1.05217
181991 0.534352
181993 0.327566
181995 0.256313
182000 0.232206
182009 0.222664
182028 0.217301
182066 0.211832
182141 0.203087
182291 0.186546
182592 0.153942
183194 0.0905381
183796 0.0352446
184097 0.0150559
184247 0.00878189
184322 0.0146496
184360 0.0621685
184379 0.264247
184384 0.456377
184388 0.924472
184391 1.46542
184393 2.52389
184395 5.23834
184397 8.21686
184398 13.0161
184399 21.1407
184400 26.8733
184401 21.8747
184402 13.8906
184404 8.06157
184405 5.20860
184408 2.62704
184410 1.57813
184413 1.05911
184418 0.583831
184423 0.378634
184434 0.207165
184444 0.137756
184486 0.0595585
184569 0.0370075
184736 0.0439369
184902 0.0729705
184986 0.0953366
185027 0.113126
185048 0.155908
185058 0.324429
185064 0.890102
185066 2.30085
185067 4.68076
185068 7.58481
185069 12.3211
185069 20.5752
185070 25.5282
185071 21.2997
185071 13.2887
185072 7.43228
185073 4.39432
185075 2.06902
185078 0.881670
185085 0.405942
185099 0.245901
185127 0.204216
185184 0.218967
185296 0.304432
185408 0.439345
185520 0.643936
185632 0.961516
185745 1.47319
185857 2.34100
185969 3.89580
186034 5.35119
186067 6.29238
186083 6.82507
186091 7.11301
186096 7.27550
186098 7.39821
186100 8.55595
186100 9.73080
186100 8.59071
186102 7.58704
186104 7.59690
186108 7.71625
186115 7.99796
186130 8.59155
186160 9.86667
186220 12.4838
186283 14.3679
186346 14.2169
186471 9.66545
186614 5.20760
186686 3.88059
186758 2.94828
186901 1.79173
187045 1.14313
187188 0.747154
187331 0.489612
187403 0.393871
187475 0.314022
187546 0.248252
187582 0.231669
187600 0.282487
187609 0.512170
187614 1.14559
187616 2.27129
187617 3.58533
187618 6.19343
187620 12.6997
187621 10.3437
187622 6.68327
187623 4.03756
187624 2.65781
187627 1.39430
187631 0.663163
187640 0.352361
187659 0.231238
187695 0.172374
187768 0.121533
187914 0.0618230
188060 0.0291063
188207 0.0177488
188353 0.0261375
188499 0.0542611
188645 0.103230
188791 0.175103
188937 0.272931
189083 0.400493
189376 0.765791
189668 1.32445
189960 2.14873
190055 2.48804
190102 2.67240
190126 2.76841
190138 2.81773
190144 2.84356
190147 2.86229
190148 2.89241
190150 3.53401
190150 4.24722
190150 3.58175
190153 2.89888
190156 2.89823
190161 2.91652
190171 2.96038
190192 3.05145
190234 3.24137
190318 3.64796
190485 4.57374
190820 6.86721
191490 12.0796
191777 13.5510
191921 13.9559
191992 14.1077
192010 14.1708
192028 14.3049
192037 14.4604
192046 14.8063
192051 15.1714
192055 15.8606
192060 17.3349
192062 18.6735
192064 20.8093
192067 25.0898
192070 28.0682
192073 25.5268
192076 21.3841
192080 18.2905
192083 16.7119
192087 15.8712
192091 15.3832
192098 14.8748
192106 14.6327
192120 14.4101
192135 14.3130
192165 14.2223
192194 14.1709
192312 13.9879
192548 13.4199
193020 11.7899
193871 8.95829
194296 7.87411
194402 7.63883
194509 7.42452
194562 7.33509
194615 7.28917
194642 7.32205
194668 7.49927
194682 7.75861
194688 8.00236
194695 8.39393
194702 9.08897
194708 10.4037
194711 11.5337
194715 13.2478
194718 15.9274
194721 20.1392
194726 28.5452
194730 34.3435
194734 29.1599
194739 21.1229
194742 17.0478
194745 14.3233
194748 12.5026
194751 11.2554
194757 9.73348
194764 8.88634
194770 8.36863
194776 8.02835
194788 7.62110
194801 7.38686
194813 7.23719
194838 7.05108
194887 6.84775
194936 6.71649
195035 6.51615
195134 6.34640
195332 6.04626
195529 5.77893
195925 5.31491
196122 5.11171
196221 5.01628
196270 4.97005
196295 4.94744
196307 4.93682
196314 4.93398
196317 4.94157
196318 4.97309
196320 6.24889
196320 7.57356
196320 6.24759
196322 4.96474
196324 4.93369
196327 4.92148
196333 4.91304
196347 4.90050
196373 4.87672
196426 4.83018
196531 4.74001
196743 4.57036
197165 4.26836
197587 4.00775
197799 3.89029
197904 3.83415
197957 3.80623
197983 3.79158
197997 3.78348
198003 3.78112
198007 3.79509
198008 3.86368
198009 4.07852
198010 9.17348
198010 14.9970
198010 9.61861
198011 4.58056
198011 4.12174
198012 3.89901
198015 3.82224
198019 3.79300
198027 3.77903
198045 3.76673
198079 3.74814
198147 3.71403
198284 3.64890
198559 3.52671
199107 3.30869
200203 2.95352
201300 2.67405
201848 2.55337
202122 2.49589
202259 2.47238
202327 2.49392
202345 2.53238
202362 2.64855
202370 2.80605
202379 3.19581
202383 3.64869
202387 4.60184
202390 5.53785
202392 7.04628
202394 9.73404
202396 14.8640
202398 22.7951
202400 28.2658
202402 23.6030
202404 15.8344
202406 10.4183
202409 7.57829
202411 5.98203
202413 5.02085
202417 3.98689
202422 3.47624
202431 3.00825
202439 2.80510
202457 2.63286
202475 2.56070
202510 2.49779
202545 2.46835
202686 2.41565
202967 2.35690
203249 2.31411
203319 2.31075
203390 2.32372
203425 2.35141
203460 2.43393
203478 2.54081
203495 2.79677
203504 3.07820
203513 3.64000
203517 4.14869
203522 4.96493
203526 6.34277
203531 8.72292
203535 12.6769
203540 15.4998
203545 13.0439
203549 9.06019
203555 6.30107
203560 4.82031
203565 3.99567
203570 3.51116
203580 2.98698
203590 2.73054
203610 2.49797
203630 2.39789
203671 2.31244
203711 2.27517
203792 2.23825
203873 2.21637
204196 2.15849
204358 2.13813
204520 2.13470
204601 2.15665
204641 2.18571
204681 2.24311
204722 2.36516
204742 2.47828
204762 2.66306
204783 2.98686
204803 3.61071
204813 4.14973
204823 4.97001
204833 6.25532
204843 8.27714
204857 12.3201
204870 15.1573
204884 12.7692
204897 8.96404
204908 6.85424
204918 5.49775
204929 4.62104
204940 4.03574
204961 3.33964
204983 2.96195
205004 2.73601
205025 2.59139
205068 2.43056
205111 2.37174
205154 2.43013
205175 2.56907
205197 2.95480
205207 3.40935
205218 4.36180
205223 5.26858
205229 6.74459
205234 9.32444
205239 13.9623
205245 21.4716
205250 26.8210
205255 22.2981
205261 15.0070
205264 11.5357
205268 9.14557
205275 6.38653
205282 4.94504
205289 4.13668
205297 3.62954
205304 3.29934
205318 2.89974
205332 2.67647
205347 2.53760
205375 2.37823
205432 2.23460
205489 2.16742
205604 2.09815
205718 2.05820
205946 2.00567
206175 1.96687
206632 1.90410
207089 1.85015
208003 1.75476
208917 1.66938
210745 1.51720
211660 1.44665
212117 1.41060
212345 1.39152
212459 1.38988
212516 1.43864
212531 1.49564
212545 1.64745
212552 1.83135
212559 2.22545
212566 3.27268
212570 4.52571
212574 6.96403
212577 10.5896
212580 13.1563
212583 11.0392
212586 7.57901
212589 5.77990
212591 4.62130
212596 3.30832
212600 2.64165
212605 2.27876
212614 1.90758
212624 1.73304
212642 1.57686
212661 1.50916
212698 1.45017
212735 1.42394
212884 1.38468
213181 1.35323
213775 1.30887
214964 1.22996
216153 1.15405
216748 1.11480
217045 1.09562
217194 1.10471
217231 1.12836
217268 1.20593
217287 1.31590
217305 1.60460
217315 1.95105
217324 2.71261
217329 3.48237
217333 4.81551
217338 7.37133
217340 9.51502
217342 12.5740
217346 20.0319
217350 25.2142
217354 20.6949
217358 13.6390
217361 9.28549
217365 6.74139
217368 5.17526
217371 4.16806
217378 3.01476
217385 2.41145
217399 1.83343
217412 1.57357
217440 1.34837
217467 1.25411
217521 1.17380
217576 1.13887
217685 1.10582
217794 1.08817
218012 1.06563
218230 1.04864
219101 0.992535
219973 0.939447
220409 0.910490
220627 0.894204
220736 0.897364
220791 0.972020
220804 1.05821
220818 1.29237
220825 1.58165
220831 2.23764
220835 2.91235
220838 4.14770
220842 6.65574
220843 8.87638
220845 12.2341
220848 19.6192
220850 24.6969
220853 20.5033
220855 13.3742
220857 9.50730
220859 6.95403
220863 4.31927
220868 3.06165
220872 2.40627
220880 1.75782
220888 1.46240
220905 1.20475
220921 1.09636
220954 1.00409
220988 0.964689
221054 0.929203
221120 0.911941
221385 0.879961
221914 0.843420
222974 0.781279
224033 0.721691
224298 0.709643
224563 0.707778
224695 0.722416
224761 0.742108
224828 0.781719
224894 0.867811
224927 0.949682
224960 1.08667
224993 1.33488
225026 1.83772
225043 2.29678
225059 3.02738
225076 4.25819
225092 6.34035
225111 10.0238
225130 12.6639
225149 10.5033
225168 6.98926
225183 5.02302
225198 3.77615
225213 2.97413
225228 2.44061
225258 1.80656
225289 1.46432
225319 1.25805
225349 1.12460
225410 0.966123
225470 0.877521
225531 0.821822
225651 0.755636
225772 0.716271
225893 0.688634
226014 0.673473
226075 0.717243
226090 0.777201
226105 0.949050
226113 1.17207
226120 1.69244
226124 2.25879
226128 3.35369
226131 5.77146
226133 8.09667
226135 11.6920
226138 18.8437
226140 23.8458
226142 19.7328
226145 12.8271
226147 8.16004
226150 5.61043
226152 4.13579
226155 3.22906
226160 2.23328
226165 1.73121
226175 1.26238
226185 1.05508
226205 0.876580
226225 0.800957
226265 0.735321
226305 0.705705
226465 0.659953
226785 0.623178
227425 0.575793
228065 0.533771
228385 0.509978
228545 0.494163
228625 0.490617
228665 0.536969
228685 0.751308
228695 1.34248
228700 2.38490
228703 3.56072
228705 5.78880
228708 9.29727
228710 11.8683
228713 9.82004
228715 6.55826
228718 3.86423
228722 2.58082
228728 1.51483
228735 1.11291
228742 0.920990
228755 0.742882
228768 0.663841
228821 0.562953
228928 0.519512
229141 0.492382
229567 0.461898
229992 0.434922
230205 0.419542
230312 0.409298
230365 0.407113
230391 0.440280
230405 0.609711
230411 1.18256
230415 2.49868
230416 4.59726
230418 10.3101
230419 16.3630
230420 21.2120
230421 17.2052
230422 11.3463
230423 5.90130
230425 3.65167
230428 1.88195
230434 0.974593
230445 0.616574
230468 0.487839
230514 0.440319
230607 0.418231
230791 0.401163
231160 0.378109
231899 0.336929
232637 0.295432
233006 0.271740
233191 0.258242
233283 0.265764
233329 0.355737
233341 0.456851
233352 0.723204
233358 1.04766
233364 1.74689
233367 2.45212
233369 3.69835
233372 6.09318
233375 10.7507
233378 17.6528
233380 22.3979
233382 18.5421
233385 11.8993
233387 8.81521
233388 6.68796
233391 4.12666
233395 2.82065
233398 2.08285
233405 1.33068
233411 0.978710
233424 0.659684
233437 0.522389
233464 0.405217
233490 0.355836
233542 0.312461
233595 0.292519
233805 0.260264
234225 0.230795
235064 0.187059
236744 0.112719
238423 0.0560791
239263 0.0385350
240102 0.0321280
240522 0.0344890
240942 0.0415377
241362 0.0542112
241782 0.0736425
242622 0.138694
243461 0.252203
244301 0.437980
245141 0.732967
245980 1.19450
246820 1.90949
247600 2.90616
248380 4.33161
249160 6.21991
249550 7.28511
249745 7.83860
249793 7.99458
249842 8.19824
249866 8.36505
249891 8.69409
249903 9.04350
249915 9.76810
249921 10.4678
249927 11.6791
249933 13.9581
249939 18.3873
249945 24.9093
249950 29.6644
249955 25.8759
249961 19.6194
249965 15.8638
249970 13.5858
249975 12.1871
249979 11.3068
249989 10.2829
249998 9.76283
250017 9.28433
250035 9.09544
250073 8.98486
250110 8.99342
250220 9.17888
250331 9.41327
250551 9.87122
250993 10.5740
251434 10.9491
251545 11.0371
251655 11.2224
251710 11.4463
251765 11.9650
251793 12.5164
251820 13.5670
251834 14.4717
251848 15.8502
251862 18.0217
251875 21.4333
251893 27.7915
251910 32.0395
251927 27.7344
251945 21.2663
251956 18.2793
251967 16.2390
251990 13.8887
252013 12.6873
252036 12.0107
252081 11.3103
252127 10.9626
252218 10.6026
252309 10.3852
252672 9.72813
253400 8.37767
254797 5.92256
256194 4.09484
257591 2.79789
258290 2.28736
258639 2.05835
258813 1.95112
258901 1.90653
258944 1.91645
258966 2.03961
258977 2.48096
258983 3.69140
258985 5.99027
258987 9.07462
258988 15.8650
258989 24.3724
258990 29.9727
258991 24.4271
258992 15.9765
258993 10.6328
258994 7.58296
258996 4.82189
259000 3.01031
259008 2.21621
259023 1.93820
259054 1.83854
259116 1.77893
259241 1.70082
259490 1.56082
259987 1.30204
260982 0.852853
261978 0.527279
262226 0.500459
262475 0.568705
262600 0.711250
262662 0.853758
262724 1.09523
262786 1.53389
262848 2.42101
262880 3.22756
262911 4.52204
262942 6.70160
262973 10.4251
263006 16.6253
263040 20.7421
263074 16.6184
263107 10.4610
263128 7.78714
263148 5.90798
263189 3.63918
263230 2.43785
263271 1.74341
263312 1.31010
263353 1.02249
263434 0.676351
263516 0.482213
263598 0.361540
263762 0.224071
263925 0.151864
264089 0.111582
264252 0.0905700
264334 0.0968803
264375 0.173870
264385 0.259802
264395 0.488588
264400 0.764902
264405 1.37251
264411 3.03798
264413 5.12434
264416 9.39740
264418 15.3034
264420 19.8629
264422 16.2541
264424 10.5710
264427 5.83585
264430 3.57471
264433 2.41525
264436 1.75725
264442 1.08329
264447 0.766949
264459 0.477241
264471 0.353987
264494 0.249742
264517 0.207534
264609 0.165065
264793 0.182028
264978 0.233564
265162 0.309904
265531 0.544488
265900 0.954561
265957 1.06075
266015 1.21056
266043 1.32428
266072 1.50538
266100 1.89229
266115 2.35940
266122 2.82136
266129 3.68751
266135 5.11246
266140 8.07613
266143 9.79169
266144 9.81266
266146 8.72561
266148 4.66645
266151 1.90196
266154 0.731677
266156 0.274926
266161 0.0852120
266172 0.246170
266192 0.565570
266213 0.751263
266233 0.872797
266274 1.03582
266316 1.15315
266480 1.50723
266808 2.18513
267466 3.89298
268780 8.07425
269500 9.60134
270220 10.0758
271660 9.06340
272066 8.61107
272269 8.38199
272371 8.28076
272421 8.29883
272447 8.53274
272460 9.13321
272466 10.0434
272469 10.9589
272472 12.4416
272476 15.2785
272480 17.3314
272484 15.7446
272488 13.0484
272493 10.7662
272499 9.71893
272510 8.88147
272521 8.56307
272532 8.40689
272554 8.25204
272576 8.17147
272664 8.00604
272841 7.79194
273018 7.60105
273194 7.41895
273900 6.75108
275313 5.66849
276725 4.85475
277431 4.52308
277784 4.37270
277961 4.30298
278049 4.27822
278093 4.30293
278115 4.44627
278126 4.90558
278132 5.99838
278135 7.83930
278136 9.86752
278137 13.5324
278139 18.9516
278140 22.8996
278141 18.9877
278143 13.6059
278145 9.24457
278146 7.26521
278150 5.63654
278157 4.73415
278170 4.37857
278198 4.25466
278253 4.20023
278362 4.14909
278582 4.06532
279021 3.91080
279459 3.76709
279679 3.69935
279789 3.66957
279843 3.66930
279871 3.72584
279885 3.95202
279891 4.65685
279895 6.28083
279897 8.86313
279897 11.7989
279898 16.5781
279899 24.2881
279900 29.6868
279901 24.3427
279902 16.6829
279903 11.4986
279904 8.52233
279906 6.03280
279909 4.54782
279917 3.91943
279932 3.70914
279963 3.63887
280025 3.60342
280147 3.56287
280393 3.49219
280884 3.36017
281865 3.12086
282356 3.01172
282847 2.90920
283338 2.81694
283461 2.79948
283583 2.79397
283645 2.80689
283706 2.86165
283737 2.94163
283767 3.15060
283783 3.40171
283798 3.95372
283806 4.51626
283813 5.52078
283817 6.36683
283821 7.56802
283825 9.34770
283829 11.9802
283834 17.6608
283840 21.3780
283846 17.5833
283851 12.0395
283857 8.57809
283862 6.59017
283868 5.42016
283873 4.70438
283884 3.90194
283894 3.49645
283916 3.11936
283937 2.95607
283980 2.81708
284023 2.75789
284109 2.70260
284194 2.67227
284537 2.59630
285223 2.47649
285909 2.36658
286252 2.31477
286424 2.29468
286510 2.30931
286553 2.41108
286563 2.51177
286574 2.76338
286579 3.05849
286585 3.67600
286590 5.35217
286593 7.36700
286595 11.2864
286598 16.7187
286600 20.4469
286602 16.7817
286605 11.4359
286606 8.72213
286608 6.88744
286611 4.92332
286618 3.42716
286625 2.90931
286631 2.67618
286645 2.47264
286658 2.38835
286711 2.28889
286818 2.24548
287031 2.20617
287457 2.14332
288310 2.02643
289162 1.91279
289589 1.85711
289695 1.84742
289802 1.85299
289855 1.87914
289909 1.97239
289935 2.10430
289962 2.43563
289975 2.81016
289988 3.56821
289995 4.26419
290002 5.36256
290008 7.23311
290015 10.3786
290023 15.9579
290030 20.0845
290038 16.9231
290045 11.5533
290050 8.92113
290055 7.14184
290065 5.05578
290075 3.97042
290085 3.35866
290105 2.72521
290125 2.42293
290166 2.14610
290206 2.02348
290286 1.91383
290326 1.90488
290346 1.99575
290356 2.30846
290361 2.96199
290364 3.83080
290366 5.84780
290370 10.4007
290372 8.88167
290374 6.43390
290377 3.96122
290380 3.03022
290387 2.38120
290400 2.05791
290427 1.92327
290480 1.86076
290586 1.81718
290799 1.77137
291224 1.70914
291649 1.65855
291862 1.64386
291968 1.67433
291995 1.71449
292021 1.82695
292035 1.97341
292048 2.33620
292055 2.75948
292061 3.64941
292065 4.51319
292068 6.00762
292071 8.81371
292074 14.3750
292077 22.1095
292080 27.2790
292083 22.1662
292086 14.4899
292089 9.30800
292092 6.51481
292095 4.95025
292098 4.01251
292104 3.01152
292110 2.52903
292121 2.08773
292133 1.90040
292157 1.74649
292181 1.68484
292276 1.61131
292467 1.57211
292848 1.52534
293610 1.44252
294373 1.36103
294754 1.32005
294945 1.31264
294992 1.32643
295040 1.37882
295064 1.45341
295088 1.63962
295099 1.84649
295111 2.25459
295123 3.17634
295129 4.08956
295135 5.54912
295143 8.38761
295150 10.4534
295158 8.86140
295165 6.20415
295170 4.86109
295175 3.95974
295185 2.91167
295196 2.37012
295206 2.06557
295226 1.75009
295247 1.59886
295288 1.45920
295329 1.39602
295410 1.33694
295492 1.30710
295820 1.24786
296474 1.17316
297129 1.10461
297456 1.06762
297620 1.04660
297702 1.04661
297742 1.11359
297763 1.37305
297773 1.97859
297778 2.87201
297783 5.15808
297787 7.95114
297790 9.98718
297793 8.47964
297797 5.87288
297800 4.20508
297803 3.20537
297809 2.22291
297822 1.56909
297848 1.25060
297899 1.11979
298000 1.06203
298204 1.02360
298612 0.976766
299427 0.895570
300242 0.815557
300649 0.773321
300853 0.749074
300955 0.736409
301006 0.748958
301031 0.854863
301044 1.24398
301050 2.22839
301054 3.85841
301055 5.60892
301057 8.50606
301058 13.5327
301060 17.3286
301062 14.4382
301063 9.58117
301065 6.14965
301067 4.20605
301071 2.50835
301078 1.46479
301093 1.00784
301123 0.835088
301183 0.768700
301302 0.734460
301541 0.702079
302020 0.651412
302976 0.554530
303932 0.454437
304410 0.400566
304649 0.379097
304709 0.384394
304769 0.420640
304799 0.481893
304828 0.656122
304843 0.875670
304858 1.37035
304866 1.87881
304873 2.78350
304881 4.59914
304884 6.14572
304888 8.39698
304894 13.7318
304900 17.6311
304906 14.6158
304912 9.58037
304919 5.93749
304925 3.97127
304932 2.86754
304938 2.21039
304951 1.48776
304965 1.13012
304991 0.795205
305017 0.646296
305070 0.514304
305122 0.455516
305227 0.399197
305332 0.369066
305543 0.330896
305753 0.302470
306173 0.254901
306593 0.213575
307014 0.179388
307434 0.163037
307644 0.175938
307749 0.197412
307855 0.241995
307960 0.339498
308012 0.432624
308065 0.589486
308117 0.880483
308144 1.12648
308170 1.49815
308196 2.09725
308222 3.12495
308249 5.04825
308275 8.80630
308297 14.0907
308320 17.6214
308343 14.1145
308365 8.85239
308387 5.58912
308408 3.71877
308430 2.61469
308451 1.92766
308494 1.16681
308537 0.784391
308581 0.565990
308624 0.430392
308710 0.277067
308796 0.196773
308882 0.149450
309054 0.0994358
309226 0.0770383
309398 0.0688310
309743 0.0803835
310087 0.126533
310431 0.215553
310775 0.364516
310948 0.469334
311034 0.530780
311077 0.563265
311098 0.578839
311109 0.585397
311114 0.590684
311117 0.614101
311118 0.707296
311120 4.06394
311120 8.01269
311120 4.55166
311121 1.07484
311122 0.777464
311124 0.668284
311127 0.632439
311135 0.624385
311149 0.631286
311178 0.654589
311235 0.707917
311350 0.828571
311580 1.12879
311770 1.44937
311959 1.86141
312054 2.12312
312149 2.47029
312196 2.72457
312244 3.13272
312267 3.47291
312291 4.01842
312315 4.99199
312339 6.87037
312359 9.61183
312380 11.6633
312401 10.2708
312422 7.84392
312447 6.01346
312472 5.11144
312497 4.66316
312521 4.43839
312571 4.29196
312621 4.32496
312721 4.59030
312821 4.96374
313220 6.72006
313696 8.34798
313934 8.67871
314053 8.74815
314082 8.78737
314112 8.89814
314127 9.04416
314142 9.39451
314149 9.78531
314157 10.5494
314164 12.3034
314168 14.0664
314171 17.0747
314176 22.2019
314180 25.6906
314184 22.2719
314189 17.2565
314191 15.0051
314194 13.4613
314199 11.5955
314204 10.5875
314210 10.0153
314220 9.41164
314231 9.11897
314252 8.84615
314273 8.71653
314315 8.57594
314356 8.48060
314524 8.14210
314860 7.37316
315180 6.60255
315340 6.23275
315420 6.05389
315460 5.96536
315480 5.92024
315490 5.89735
315495 5.89339
315497 5.93467
315499 6.10260
315500 9.80315
315500 14.2240
315500 10.3060
315502 6.11836
315504 5.96212
315507 5.89912
315514 5.86520
315528 5.82841
315556 5.76709
315611 5.65122
315723 5.42962
315945 5.01962
316390 4.32148
317279 3.30843
318169 2.62857
318391 2.49201
318613 2.36610
318836 2.26446
318891 2.25988
318947 2.30381
318975 2.38443
319003 2.59308
319017 2.81965
319030 3.24396
319044 4.11323
319051 4.87421
319058 5.99885
319069 8.64467
319080 10.5964
319091 9.16845
319102 6.74625
319113 5.09391
319124 4.13908
319135 3.57204
319146 3.21487
319169 2.80955
319191 2.59502
319235 2.37872
319279 2.26966
319368 2.15194
319457 2.08049
319634 1.98002
319812 1.90057
320167 1.76645
320521 1.65040
320876 1.54655
321231 1.45314
321586 1.37563
321675 1.36550
321763 1.37545
321808 1.40678
321852 1.50763
321874 1.64446
321896 1.98841
321908 2.38779
321919 3.24245
321924 4.08679
321930 5.52979
321935 8.24524
321941 13.6700
321945 21.2255
321950 26.1541
321955 21.2754
321959 13.7726
321962 10.4587
321965 8.09587
321971 5.36632
321977 3.93640
321983 3.14075
321995 2.32449
322007 1.94539
322030 1.61059
322054 1.47016
322102 1.35196
322149 1.30052
322244 1.24888
322339 1.21751
322718 1.13046
323098 1.05817
323477 0.991831
324236 0.871914
324995 0.767113
325754 0.680884
326134 0.650099
326513 0.637176
326893 0.665935
327082 0.716358
327272 0.820453
327462 1.03980
327557 1.23751
327652 1.54780
327747 2.06079
327841 2.96240
327936 4.66945
328031 8.04747
328116 13.1047
328200 16.9009
328285 14.1354
328369 9.32382
328468 5.70446
328566 3.79240
328665 2.73342
328764 2.09913
328862 1.69028
328961 1.41131
329158 1.06207
329356 0.855907
329553 0.720555
329948 0.551943
330342 0.447958
330737 0.375709
330934 0.348518
331131 0.330813
331230 0.331476
331329 0.356050
331378 0.398654
331427 0.517787
331452 0.667995
331477 1.01834
331489 1.39971
331501 2.14042
331508 2.80336
331514 3.82720
331520 5.53330
331526 8.32267
331533 13.2252
331540 16.4423
331547 13.1780
331554 8.36809
331563 4.84379
331571 3.06884
331579 2.12334
331588 1.57576
331605 1.00889
331621 0.740652
331655 0.501648
331688 0.400782
331755 0.316008
331822 0.279486
331956 0.243824
332091 0.223104
332627 0.170775
333163 0.132748
333700 0.102206
334236 0.0775353
334772 0.0567603
335309 0.0348539
335577 0.0384300
335644 0.0659184
335711 0.166879
335744 0.311779
335778 0.672829
335795 1.06873
335811 1.82023
335820 2.46265
335828 3.42201
335837 4.88541
335845 7.08236
335858 12.0747
335870 15.7851
335883 13.2092
335895 8.77573
335906 6.11412
335916 4.43821
335927 3.36209
335938 2.64543
335959 1.79145
335980 1.32391
336001 1.03886
336023 0.853024
336065 0.630289
336107 0.505223
336150 0.427549
336235 0.339004
336404 0.265207
336574 0.239103
336913 0.233442
337253 0.255024
337592 0.294063
337932 0.351312
338101 0.390900
338271 0.449901
338356 0.501378
338441 0.607176
338483 0.725663
338526 0.996044
338547 1.29345
338568 1.90345
338579 2.47733
338589 3.44013
338600 5.17274
338611 8.41900
338620 13.2026
338630 16.3509
338640 13.1766
338650 8.45582
338660 5.34746
338669 3.64259
338679 2.65849
338689 2.06751
338709 1.42767
338729 1.11659
338769 0.840218
338808 0.730135
338888 0.655357
338967 0.641948
339126 0.665347
339285 0.711547
339602 0.832153
339920 0.979795
340122 1.08779
340324 1.20945
340526 1.36496
340576 1.42793
340627 1.54304
340652 1.66532
340677 1.93944
340690 2.23939
340703 2.85159
340709 3.42320
340715 4.37205
340721 6.04917
340728 9.10848
340734 13.8510
340740 16.9342
340746 13.8759
340752 9.36939
340759 6.30492
340765 4.62397
340772 3.66964
340778 3.09933
340791 2.47502
340804 2.17250
340830 1.90444
340856 1.80048
340908 1.73749
340959 1.73737
341063 1.79031
341166 1.86779
341373 2.05247
341580 2.26455
341787 2.50718
341890 2.64608
341994 2.80660
342097 3.01309
342149 3.15395
342201 3.35048
342252 3.66865
342278 3.92489
342304 4.31094
342330 4.95203
342356 6.13610
342369 7.15242
342382 8.68351
342395 11.0879
342407 14.8938
342424 22.0035
342440 26.7577
342456 22.1173
342473 15.1373
342484 11.8199
342495 9.58022
342506 8.07193
342517 7.04331
342539 5.77996
342561 5.09327
342583 4.68685
342606 4.43521
342628 4.27232
342639 4.21170
342644 4.18458
342647 4.17280
342648 4.18083
342650 5.03216
342650 6.12710
342650 5.25935
342652 4.22806
342653 4.18394
342656 4.15729
342662 4.13217
342673 4.09753
342696 4.05107
342742 4.00989
342834 4.03093
342926 4.11338
343018 4.22323
343201 4.48153
343385 4.76482
344120 5.95905
345230 7.43214
345785 7.81212
346062 7.89287
346201 7.90487
346270 7.90087
346305 7.89107
346322 7.87749
346331 7.86865
346335 7.90663
346337 8.12996
346338 8.80209
346339 13.7322
346340 20.8838
346341 15.0434
346342 9.84418
346343 8.78077
346344 8.27414
346348 8.05561
346356 7.97026
346372 7.93392
346402 7.91532
346464 7.89905
346588 7.86818
346835 7.77841
347330 7.49261
347578 7.31015
347825 7.11363
348073 6.93298
348135 6.90838
348196 6.91990
348258 7.05143
348289 7.26898
348305 7.48508
348320 7.85406
348332 8.36279
348345 9.24470
348357 10.9041
348369 14.1781
348380 18.8291
348390 21.8862
348401 18.8341
348411 14.3132
348418 12.1395
348425 10.6807
348440 8.99287
348454 8.12650
348468 7.63848
348497 7.13103
348525 6.88065
348582 6.63187
348639 6.49734
348753 6.32449
348867 6.19168
349095 5.95851
349323 5.74112
349779 5.33002
350235 4.94643
351146 4.26191
352058 3.68305
352970 3.19589
353882 2.78380
354338 2.60033
354793 2.42808
355249 2.26124
355477 2.18331
355534 2.17557
355591 2.20476
355620 2.27111
355648 2.46958
355663 2.71652
355677 3.24638
355684 3.75251
355691 4.59766
355698 6.08630
355705 8.77654
355713 13.3801
355720 16.8213
355728 14.4062
355735 10.2054
355742 7.44912
355749 5.82086
355756 4.81338
355763 4.17739
355777 3.44157
355791 3.05225
355820 2.66890
355848 2.48728
355904 2.31528
355961 2.23047
356073 2.13762
356186 2.07908
356412 1.99298
356637 1.92222
357088 1.79846
357539 1.68746
358442 1.48967
359344 1.31596
361148 1.01943
362050 0.884460
362501 0.811970
362727 0.783119
362783 0.793950
362840 0.857314
362868 0.959022
362896 1.22937
362910 1.54085
362924 2.17058
362931 2.74156
362938 3.62717
362945 5.06515
362952 7.42110
362961 12.0691
362970 15.5624
362979 13.1525
362988 8.93565
362997 5.90875
363007 4.22450
363016 3.23584
363026 2.63058
363044 1.95327
363063 1.60593
363101 1.26880
363139 1.11246
363214 0.967343
363290 0.898480
363441 0.827598
363592 0.786690
363893 0.731775
364195 0.689706
364799 0.619096
365403 0.557091
366007 0.501046
366610 0.454435
366912 0.442228
367063 0.444741
367214 0.461188
367365 0.510227
367440 0.561775
367516 0.650920
367591 0.814255
367667 1.13868
367705 1.42461
367742 1.86281
367780 2.55471
367818 3.65168
367869 5.93146
367920 7.67544
367971 6.49353
368022 4.39043
368064 3.17302
368106 2.38902
368148 1.88146
368190 1.54133
368274 1.13301
368358 0.907008
368441 0.767835
368525 0.674940
368693 0.559720
368860 0.490798
369028 0.444113
369363 0.382406
369698 0.340696
370033 0.308631
370704 0.259095
371374 0.220269
372044 0.188283
372715 0.163817
373050 0.166525
373134 0.179734
373217 0.222075
373259 0.280517
373301 0.431936
373322 0.614460
373343 1.02000
373354 1.43648
373364 2.19048
373375 3.74304
373380 5.11393
373385 7.16189
373393 11.4761
373400 14.3039
373408 11.4745
373415 7.29325
373421 5.01870
373427 3.57639
373439 2.05586
373451 1.33902
373463 0.959763
373487 0.590779
373511 0.424908
373559 0.283144
373606 0.224845
373702 0.176666
373797 0.156306
374180 0.126972
374944 0.104524
375709 0.0914382
376474 0.0838866
378003 0.0838226
378767 0.0918039
379150 0.101307
379341 0.124146
379436 0.206613
379460 0.286215
379484 0.490236
379496 0.737569
379508 1.29157
379514 1.87172
379520 2.93419
379526 5.20981
379529 7.31602
379532 10.5334
379536 16.9121
379540 21.1297
379544 16.9922
379548 10.7084
379551 7.26484
379555 5.14462
379561 2.90125
379567 1.84552
379574 1.29465
379587 0.759715
379600 0.521217
379625 0.319799
379651 0.239085
379703 0.175332
379754 0.151408
379960 0.129066
380373 0.131743
381197 0.156645
382846 0.234865
384495 0.350610
385320 0.421147
385732 0.453712
385938 0.476348
385990 0.498013
386041 0.566981
386067 0.665330
386093 0.917171
386105 1.20581
386118 1.78974
386125 2.32136
386131 3.14823
386138 4.49843
386144 6.72742
386152 11.0809
386160 14.4479
386168 12.2344
386176 8.23673
386184 5.60658
386191 4.04259
386199 3.09518
386207 2.49155
386222 1.80334
386238 1.44408
386268 1.09399
386299 0.933778
386360 0.793914
386422 0.737072
386545 0.696781
386668 0.689657
387159 0.739176
388142 0.945538
388634 1.09489
389125 1.29235
389617 1.56852
390108 1.98840
390401 2.36341
390694 2.90579
390987 3.73384
391133 4.31064
391206 4.64915
391243 4.83134
391261 4.92617
391271 4.97830
391275 5.02069
391277 5.10099
391280 8.57959
391280 12.2335
391280 8.67402
391283 5.15639
391285 5.08775
391290 5.08706
391299 5.12894
391317 5.22651
391354 5.43042
391427 5.85140
391573 6.63746
391720 6.98678
391866 6.39041
392013 4.88256
392159 3.19602
392306 1.89990
392452 1.07463
392609 0.566486
392688 0.408825
392766 0.295178
392923 0.158040
393001 0.119408
393041 0.103556
393060 0.0931656
393070 0.0829774
393075 0.0746236
393077 0.0880967
393079 0.188920
393080 3.20447
393080 7.12613
393080 4.02772
393082 0.433078
393083 0.236698
393086 0.156174
393092 0.122677
393103 0.106776
393125 0.0968917
393170 0.0887770
393260 0.0842005
393439 0.0975757
393798 0.166956
394515 0.348957
395232 0.527426
395949 0.692920
396666 0.848082
397384 0.995703
398101 1.13580
398459 1.19931
398639 1.22824
398728 1.26416
398773 1.38839
398796 1.72878
398807 2.31955
398812 2.96972
398818 4.16064
398824 6.20151
398830 7.80680
398836 6.78130
398842 4.93214
398851 3.23276
398860 2.47141
398878 1.87592
398896 1.65834
398914 1.55516
398987 1.42628
399131 1.39712
399421 1.43059
400000 1.53468
400000 1.85293
405000 3.09700
410000 1.60930
415000 1.42780
420000 2.88570
425000 4.75780
430000 2.14700
435000 1.78020
440000 1.30910
445000 1.44140
450000 1.94080
455000 2.92350
460000 4.36580
462500 4.73800
465000 4.69910
467500 2.84470
470000 3.11690
472500 4.74190
475000 2.95730
480000 3.29570
485000 2.16730
487500 1.01640
490000 2.05920
495000 5.46710
500000 2.73200
505000 2.18020
510000 1.91840
515000 1.20540
520000 0.939969
522500 1.49520
525000 1.47550
530000 3.17950
532500 3.34170
535000 3.32010
540000 1.73200
545000 1.06160
550000 2.51870
552500 2.85960
555000 2.52900
560000 1.15330
565000 1.47860
570000 1.20730
575000 1.37360
580000 2.23430
585000 3.53390
590000 3.96960
595000 2.88580
597500 2.15130
600000 2.19500
605000 1.25720
610000 1.23320
615000 1.56390
620000 2.66870
625000 2.78380
627500 2.44600
630000 2.59650
635000 3.68760
640000 3.26580
645000 2.51810
650000 1.28110
655000 2.25530
660000 1.13430
665000 1.89270
670000 2.31000
675000 2.94530
680000 3.26050
685000 4.08760
690000 3.65310
695000 3.95560
700000 4.38620
705000 4.22650
710000 3.01770
715000 1.68710
720000 3.42790
725000 4.72610
730000 3.67440
735000 3.47200
740000 3.36650
745000 2.96330
750000 3.19630
755000 3.05980
760000 3.99180
765000 2.87030
770000 2.89240
775000 2.68450
780000 3.17780
785000 2.62770
790000 2.41660
795000 2.10520
800000 2.00160
805000 1.94090
810000 1.41360
815000 1.32880
820000 2.19820
825000 3.06060
830000 1.81870
835000 2.61860
840000 2.08710
845000 1.17980
850000 1.26810
855000 2.24360
860000 3.44340
865000 3.01400
870000 3.24200
875000 3.60560
880000 4.22870
885000 2.38000
890000 2.35780
895000 2.75950
900000 1.91120
905000 3.02820
910000 1.53160
915000 1.55950
920000 2.87260
925000 2.14910
930000 3.39150
935000 3.02470
940000 1.49260
945000 2.27280
950000 2.87480
955000 2.51160
960000 2.31340
965000 3.37340
970000 4.03730
975000 3.55250
980000 2.99830
985000 2.49200
990000 2.82380
995000 2.83050
1.00000E+06 2.87430
1.00419E+06 2.77206
1.00419E+06 2.77204
1.00420E+06 2.77182
1.01000E+06 2.63028
1.02000E+06 1.80005
1.03000E+06 2.38573
1.04000E+06 3.29722
1.05000E+06 3.17462
1.06000E+06 2.64762
1.07000E+06 3.21634
1.08000E+06 2.67145
1.09000E+06 2.40567
1.10000E+06 2.14360
1.11000E+06 3.38180
1.12000E+06 1.67990
1.13000E+06 2.55980
1.14000E+06 1.81280
1.15000E+06 1.44880
1.16000E+06 2.95920
1.17000E+06 2.69940
1.18000E+06 1.81550
1.19000E+06 2.63860
1.20000E+06 2.77240
1.21000E+06 3.10760
1.22000E+06 3.32490
1.23000E+06 3.11290
1.24000E+06 3.25440
1.25000E+06 3.09360
1.26000E+06 2.97600
1.27000E+06 2.55300
1.28000E+06 1.71520
1.29000E+06 2.05000
1.30000E+06 2.67150
1.31000E+06 3.41590
1.32000E+06 3.13850
1.33000E+06 3.06900
1.34000E+06 2.73370
1.35000E+06 1.80200
1.36000E+06 2.60170
1.37000E+06 2.69390
1.38000E+06 4.30100
1.39000E+06 3.00410
1.40000E+06 3.07630
1.41000E+06 3.04260
1.42000E+06 4.57930
1.43000E+06 2.94350
1.44000E+06 3.08770
1.45000E+06 2.61790
1.46000E+06 3.57900
1.47000E+06 3.50190
1.48000E+06 2.61430
1.49000E+06 2.99500
1.50000E+06 3.62460
1.51000E+06 3.25190
1.52000E+06 2.57240
1.53000E+06 2.11860
1.54000E+06 2.63890
1.55000E+06 3.20640
1.56000E+06 2.77100
1.57000E+06 2.86480
1.58000E+06 4.17360
1.59000E+06 2.33260
1.60000E+06 3.10560
1.61000E+06 2.88920
1.62000E+06 2.39560
1.63000E+06 3.18120
1.64000E+06 3.68220
1.65000E+06 2.58190
1.66000E+06 2.55640
1.67000E+06 2.93260
1.68000E+06 2.85700
1.69000E+06 3.09180
1.70000E+06 3.05550
1.71000E+06 2.90210
1.72000E+06 2.42510
1.73000E+06 3.10100
1.74000E+06 2.94840
1.75000E+06 2.70240
1.76000E+06 2.86360
1.77000E+06 2.69390
1.78000E+06 2.60880
1.79000E+06 3.29770
1.80000E+06 3.22070
1.81000E+06 2.88140
1.82000E+06 3.07050
1.83000E+06 3.15550
1.84000E+06 2.67720
1.85000E+06 2.63910
1.86000E+06 2.97260
1.87000E+06 2.89720
1.88000E+06 4.00130
1.89000E+06 3.02850
1.90000E+06 3.26440
1.91000E+06 3.35520
1.92000E+06 3.53570
1.93000E+06 4.30140
1.94000E+06 3.14550
1.95000E+06 2.96080
1.96000E+06 3.40480
1.97000E+06 3.17640
1.98000E+06 3.53340
1.99000E+06 3.57740
2.00000E+06 3.79870
2.01000E+06 3.14070
2.02000E+06 2.83430
2.03000E+06 3.36320
2.04000E+06 3.37730
2.05000E+06 3.30860
2.06000E+06 3.07550
2.07000E+06 2.77140
2.07414E+06 3.07374
2.08000E+06 3.50170
2.09000E+06 3.88200
2.10000E+06 3.14380
2.11000E+06 3.53180
2.12000E+06 3.38120
2.13000E+06 3.07610
2.14000E+06 3.22390
2.15000E+06 2.82630
2.16000E+06 3.25090
2.17000E+06 3.65020
2.18000E+06 4.06580
2.19000E+06 3.67500
2.20000E+06 3.24930
2.21000E+06 3.32580
2.22000E+06 3.17870
2.23000E+06 2.84340
2.24000E+06 3.15800
2.25000E+06 3.30280
2.26000E+06 3.18820
2.27000E+06 3.39150
2.28000E+06 3.64820
2.29000E+06 3.41030
2.30000E+06 3.18890
2.31000E+06 3.35560
2.32000E+06 3.61730
2.33000E+06 3.44940
2.34000E+06 2.74470
2.34389E+06 2.80558
2.34389E+06 2.80563
2.34390E+06 2.80573
2.35000E+06 2.90120
2.36000E+06 3.66930
2.37000E+06 3.62750
2.38000E+06 3.56640
2.39000E+06 3.39780
2.40000E+06 2.87390
2.41000E+06 3.36700
2.42000E+06 3.75790
2.43000E+06 4.39030
2.44000E+06 3.66240
2.45000E+06 3.44140
2.46000E+06 3.55790
2.47000E+06 3.64860
2.47190E+06 3.65166
2.47193E+06 3.65170
2.47193E+06 3.65170
2.47193E+06 3.65170
2.48000E+06 3.66469
2.49000E+06 3.29370
2.50000E+06 2.91550
2.51000E+06 3.04740
2.52000E+06 3.20070
2.53000E+06 3.59920
2.54000E+06 3.49750
2.55000E+06 3.83630
2.56000E+06 3.78850
2.57000E+06 3.72470
2.58000E+06 3.86910
2.59000E+06 4.24670
2.60000E+06 3.89760
2.61000E+06 3.67090
2.62000E+06 3.75790
2.63000E+06 3.77750
2.64000E+06 3.79940
2.65000E+06 3.53220
2.66000E+06 4.01640
2.67000E+06 3.91830
2.68000E+06 3.69330
2.69000E+06 3.83640
2.70000E+06 3.58640
2.71000E+06 3.25670
2.72000E+06 3.19020
2.73000E+06 3.64320
2.74000E+06 3.41380
2.75000E+06 3.37750
2.76000E+06 3.04520
2.77000E+06 3.16670
2.78000E+06 3.44990
2.79000E+06 2.90130
2.80000E+06 2.86170
2.81000E+06 3.26020
2.82000E+06 3.82940
2.83000E+06 3.33100
2.84000E+06 3.09460
2.85000E+06 3.62590
2.86000E+06 3.78920
2.87000E+06 3.89970
2.88000E+06 3.61590
2.89000E+06 3.48430
2.90000E+06 3.56130
2.91000E+06 3.54770
2.92000E+06 3.10750
2.93000E+06 3.45930
2.94000E+06 3.53880
2.95000E+06 3.44410
2.96000E+06 3.40730
2.97000E+06 3.88210
2.98000E+06 3.79450
2.99000E+06 3.58540
3.00000E+06 3.71610
3.01000E+06 3.64210
3.02000E+06 3.54090
3.03000E+06 3.39160
3.04000E+06 3.39410
3.05000E+06 3.58710
3.06000E+06 3.61640
3.06035E+06 3.61070
3.06035E+06 3.61064
3.06040E+06 3.60990
3.07000E+06 3.45370
3.08000E+06 3.51280
3.09000E+06 3.51970
3.10000E+06 3.36260
3.11000E+06 3.62380
3.12000E+06 3.36040
3.13000E+06 3.41730
3.14000E+06 3.25220
3.15000E+06 3.31810
3.16000E+06 3.46930
3.17000E+06 3.36720
3.18000E+06 3.65310
3.19000E+06 3.56910
3.20000E+06 3.61480
3.21000E+06 3.53930
3.22000E+06 3.70180
3.23000E+06 3.58730
3.24000E+06 3.68620
3.25000E+06 3.67050
3.26000E+06 3.62030
3.27000E+06 3.53150
3.27560E+06 3.53061
3.28000E+06 3.52990
3.29000E+06 3.35890
3.29182E+06 3.39630
3.29182E+06 3.39636
3.30000E+06 3.56440
3.30795E+06 3.37829
3.30796E+06 3.37815
3.30800E+06 3.37712
3.31000E+06 3.33030
3.32000E+06 3.52400
3.33000E+06 3.41190
3.34000E+06 3.48890
3.35000E+06 3.61210
3.36000E+06 3.59270
3.37000E+06 3.33390
3.38000E+06 3.61560
3.39000E+06 3.73430
3.40000E+06 3.82890
3.40332E+06 3.71177
3.41000E+06 3.47610
3.42000E+06 3.50330
3.42946E+06 3.64387
3.42950E+06 3.64447
3.43000E+06 3.65190
3.44000E+06 3.57020
3.44181E+06 3.56133
3.44181E+06 3.56131
3.45000E+06 3.52119
3.46000E+06 3.42869
3.47000E+06 3.51499
3.48000E+06 3.67480
3.49000E+06 3.58870
3.50000E+06 3.40990
3.51000E+06 3.92720
3.52000E+06 3.96300
3.53000E+06 3.78690
3.54000E+06 3.67660
3.55000E+06 3.81220
3.56000E+06 3.84820
3.57000E+06 3.84370
3.58000E+06 3.90350
3.58231E+06 3.86538
3.59000E+06 3.73850
3.60000E+06 3.75410
3.61000E+06 3.54010
3.62000E+06 3.67200
3.63000E+06 3.51200
3.64000E+06 3.79350
3.65000E+06 3.83530
3.66000E+06 3.90910
3.67000E+06 3.55890
3.68000E+06 3.65290
3.69000E+06 3.70980
3.69289E+06 3.57888
3.69290E+06 3.57843
3.70000E+06 3.25680
3.71000E+06 3.62700
3.71004E+06 3.62663
3.72000E+06 3.53540
3.73000E+06 3.84660
3.74000E+06 3.83800
3.75000E+06 3.81550
3.76000E+06 3.73240
3.77000E+06 3.59180
3.77722E+06 3.64942
3.77722E+06 3.64944
3.78000E+06 3.67159
3.78907E+06 3.48312
3.79000E+06 3.46380
3.80000E+06 3.71740
3.81000E+06 3.67770
3.81725E+06 3.65472
3.82000E+06 3.64600
3.83000E+06 3.51770
3.84000E+06 3.07850
3.85000E+06 3.36730
3.86000E+06 3.44260
3.86207E+06 3.40592
3.86207E+06 3.40588
3.87000E+06 3.26540
3.88000E+06 3.57920
3.88280E+06 3.54686
3.89000E+06 3.46370
3.90000E+06 3.56920
3.91000E+06 3.60110
3.92000E+06 3.66290
3.93000E+06 3.55020
3.93303E+06 3.52629
3.93303E+06 3.52626
3.93320E+06 3.52495
3.93324E+06 3.52465
3.93324E+06 3.52463
3.94000E+06 3.47130
3.95000E+06 3.73900
3.96000E+06 3.68610
3.97000E+06 3.62300
3.98000E+06 3.59640
3.99000E+06 3.50340
4.00000E+06 3.65540
4.10000E+06 3.68830
4.15660E+06 3.71100
4.20000E+06 3.72840
4.30000E+06 3.68400
4.40000E+06 3.59930
4.50000E+06 3.63920
4.60000E+06 3.55520
4.67940E+06 3.67811
4.70000E+06 3.71000
4.80000E+06 3.63560
4.90000E+06 3.52310
5.00000E+06 3.59411
5.10000E+06 3.56940
5.20000E+06 3.53619
5.30000E+06 3.47539
5.40000E+06 3.43009
5.50000E+06 3.54920
5.60000E+06 3.49399
5.70000E+06 3.42729
5.80000E+06 3.40059
5.90000E+06 3.42659
6.00000E+06 3.34870
6.50000E+06 3.25979
7.00000E+06 3.17139
7.50000E+06 3.08363
8.00000E+06 2.99683
8.50000E+06 2.91177
9.00000E+06 2.82953
9.41530E+06 2.76456
9.50000E+06 2.75132
9.64559E+06 2.73005
1.00000E+07 2.67827
1.05000E+07 2.61100
1.10000E+07 2.55042
1.15000E+07 2.49605
1.16866E+07 2.47809
1.18726E+07 2.46014
1.18727E+07 2.46013
1.20000E+07 2.44785
1.24644E+07 2.40663
1.25000E+07 2.40358
1.30000E+07 2.36730
1.35000E+07 2.33145
1.38921E+07 2.30910
1.40000E+07 2.30338
1.45000E+07 2.27460
1.50000E+07 2.25169
1.55000E+07 2.22869
1.60000E+07 2.20988
1.65000E+07 2.19186
1.70000E+07 2.17718
1.75000E+07 2.16393
1.80000E+07 2.15354
1.85000E+07 2.14493
1.90000E+07 2.13886
1.95000E+07 2.13466
2.00000E+07 2.13267