Mn-55(n,tot) ENDF/B-VII.1
Energy(eV) XS(b)
1.00000E-05 669.734
1.25000E-05 599.250
1.50000E-05 547.221
2.00000E-05 474.188
2.75000E-05 404.697
3.50000E-05 358.964
4.25000E-05 325.949
5.00000E-05 300.673
6.25000E-05 269.152
7.50000E-05 245.884
0.000100000 213.222
0.000125000 190.933
0.000150000 174.480
0.000200000 151.385
0.000275000 129.410
0.000350000 114.948
0.000425000 104.508
0.000500000 96.5151
0.000625000 86.5471
0.000750000 79.1891
0.00100000 68.8607
0.00125000 61.8123
0.00150000 56.6094
0.00200000 49.3062
0.00275000 42.3572
0.00350000 37.7839
0.00425000 34.4825
0.00500000 31.9550
0.00625000 28.8029
0.00750000 26.4761
0.0100000 23.2101
0.0125000 20.9813
0.0150000 19.3361
0.0200000 17.0268
0.0253000 15.3715
0.0314750 13.9987
0.0376500 12.9793
0.0500000 11.5408
0.0625000 10.5443
0.0750000 9.80882
0.100000 8.77658
0.125000 8.07230
0.150000 7.55254
0.200000 6.82323
0.275000 6.12976
0.350000 5.67379
0.500000 5.09348
0.750000 4.54967
1.00000 4.22697
1.50000 3.84823
2.00000 3.62574
2.75000 3.41848
3.50000 3.28621
5.00000 3.12641
7.50000 2.98947
10.0000 2.92298
15.0000 2.87755
20.0000 2.88531
27.5000 2.94516
30.0000 2.97353
35.0000 3.03731
50.0000 3.29148
60.0000 3.50813
75.0000 3.90652
100.000 4.80750
125.000 6.12141
150.000 8.08821
175.000 11.1540
200.000 16.2137
216.093 21.3650
232.185 29.1626
248.278 41.6477
264.370 63.2007
280.463 104.555
288.509 140.734
296.555 197.454
304.601 292.518
312.648 466.041
316.671 608.944
320.694 817.290
324.717 1127.31
328.740 1587.37
334.765 2580.61
340.790 3247.44
346.810 2616.44
352.830 1662.84
358.726 1054.61
364.623 705.303
370.519 499.395
376.415 371.148
382.311 286.848
388.208 228.801
400.000 156.514
412.500 113.092
425.000 86.5147
437.500 69.0520
450.000 56.9490
475.000 41.6810
500.000 32.7632
531.250 26.0296
562.500 21.9059
625.000 17.5080
687.500 15.6726
750.000 15.2460
800.000 15.6966
850.000 16.9182
900.000 19.2641
950.000 23.7860
975.000 27.7702
1000.00 34.2826
1022.65 44.9446
1033.98 53.8994
1045.30 67.8338
1056.63 91.8032
1062.29 111.160
1067.95 139.782
1073.61 185.001
1079.28 262.819
1082.11 324.462
1084.94 412.183
1087.77 540.390
1090.60 729.257
1098.40 1398.26
1100.38 1335.45
1102.35 1131.23
1106.30 661.671
1108.46 478.714
1110.61 349.458
1112.77 259.378
1114.92 196.088
1119.23 117.976
1123.54 75.1632
1127.85 50.0613
1132.16 34.5306
1136.47 24.5054
1140.78 17.8194
1145.09 13.2451
1149.40 10.0582
1158.02 6.21207
1166.64 4.27187
1175.26 3.33392
1183.88 2.95267
1192.50 2.89340
1209.73 3.27367
1244.21 4.74505
1278.69 6.40478
1313.17 8.06176
1382.12 11.3906
1520.03 19.1188
1588.99 24.1514
1623.47 27.1271
1640.71 28.7600
1649.32 29.6297
1651.48 29.8635
1653.63 30.1269
1654.71 30.2953
1655.25 30.4060
1655.79 30.5571
1656.33 30.8009
1656.60 30.9988
1656.87 31.3048
1657.14 31.8347
1657.27 32.2633
1657.41 32.8888
1657.54 33.8671
1657.67 35.4726
1657.81 38.3342
1657.94 43.5480
1658.07 51.4192
1658.20 56.6809
1658.33 51.4483
1658.46 43.6047
1658.54 39.9993
1658.62 37.5586
1658.79 34.7126
1658.96 33.2732
1659.12 32.4727
1659.29 31.9917
1659.46 31.6851
1659.79 31.3409
1660.12 31.1708
1660.46 31.0834
1661.12 31.0207
1661.79 31.0244
1662.46 31.0569
1663.79 31.1589
1666.46 31.4144
1669.13 31.6915
1679.80 32.8624
1701.15 35.3765
1743.84 41.1139
1829.23 56.3431
1914.61 79.2401
2000.00 115.247
2096.35 184.449
2192.70 308.429
2293.70 513.710
2394.70 655.192
2495.70 535.073
2596.70 346.879
2665.86 254.782
2735.03 191.367
2804.19 147.781
2873.35 117.195
3011.68 78.8283
3150.00 56.8342
3298.63 42.3056
3474.11 31.5224
3649.59 24.5139
3825.07 19.6714
3912.81 17.7851
3956.68 16.9441
3978.61 16.5461
3989.58 16.3526
3995.07 16.2577
3997.81 16.2126
3999.18 16.1968
3999.86 16.2069
4000.21 16.2470
4000.55 16.4619
4000.77 16.7573
4000.99 16.4546
4001.28 16.2408
4001.58 16.1850
4002.17 16.1484
4003.36 16.1182
4005.73 16.0746
4010.47 15.9932
4019.96 15.8336
4038.93 15.5221
4076.86 14.9260
4152.74 13.8323
4228.62 12.8532
4266.56 12.4014
4285.53 12.1843
4295.02 12.0784
4299.76 12.0281
4302.13 12.0113
4303.32 12.0311
4303.91 12.1235
4304.20 12.3529
4304.35 12.7311
4304.43 13.1411
4304.50 13.8775
4304.57 15.0308
4304.65 15.7868
4304.72 15.0131
4304.79 13.8749
4304.87 13.1080
4304.95 12.6931
4305.11 12.3199
4305.42 12.0961
4306.04 11.9974
4307.28 11.9535
4309.77 11.9175
4314.75 11.8608
4324.71 11.7527
4344.62 11.5415
4384.45 11.1355
4464.10 10.3825
4623.41 9.07772
4782.72 7.99066
4862.38 7.51620
4882.29 7.40556
4902.20 7.30157
4912.16 7.25631
4922.12 7.22843
4927.10 7.23759
4929.58 7.25991
4932.07 7.31123
4934.56 7.43403
4935.81 7.56049
4937.05 7.79081
4937.67 7.98275
4938.30 8.27013
4938.92 8.72754
4939.54 9.51796
4940.16 11.0605
4940.47 12.4424
4940.79 14.6802
4941.10 18.6350
4941.41 26.5314
4941.56 33.7328
4941.72 45.2669
4941.87 64.9978
4942.03 99.0829
4942.19 154.268
4942.36 191.056
4942.52 154.315
4942.68 99.1459
4942.79 72.7373
4942.91 54.9728
4943.02 43.0385
4943.13 34.8419
4943.35 24.8463
4943.58 19.3223
4943.80 15.9906
4944.03 13.8400
4944.47 11.3366
4944.92 9.99560
4945.37 9.19617
4946.26 8.33206
4947.16 7.89800
4948.06 7.64912
4948.95 7.49218
4949.85 7.38643
4951.64 7.25517
4953.43 7.17804
4957.01 7.09053
4960.59 7.03944
4964.18 7.00306
4971.34 6.94831
4985.67 6.86269
5000.00 6.78665
5041.61 6.58152
5083.22 6.38838
5166.44 6.02953
5332.87 5.41262
5665.74 4.59541
5998.61 4.58599
6165.04 5.17484
6248.26 5.74478
6289.87 6.13172
6300.27 6.24328
6310.67 6.36597
6315.87 6.43715
6321.07 6.53134
6323.68 6.60756
6324.98 6.66721
6326.28 6.76091
6327.58 6.93505
6328.23 7.09144
6328.88 7.35194
6329.53 7.84105
6329.85 8.26707
6330.18 8.93891
6330.50 10.0843
6330.83 12.2507
6330.99 14.1180
6331.15 16.9442
6331.31 21.4263
6331.48 28.4966
6331.68 41.6648
6331.88 50.4579
6332.09 41.6843
6332.29 28.5249
6332.45 21.7717
6332.60 17.4220
6332.75 14.5889
6332.90 12.6907
6333.21 10.4355
6333.51 9.22166
6333.81 8.50126
6334.12 8.04481
6334.73 7.52263
6335.34 7.24924
6335.94 7.09099
6337.16 6.92840
6338.38 6.85552
6339.59 6.82101
6342.03 6.80065
6346.89 6.82598
6351.76 6.87743
6361.49 7.00267
6371.22 7.14082
6410.16 7.77387
6488.02 9.45904
6565.88 11.9208
6643.75 15.5803
6721.61 21.1518
6799.47 29.8718
6877.34 43.8659
6955.20 66.4176
6959.89 68.1348
6962.24 69.0241
6963.41 69.5183
6964.00 69.8884
6964.29 70.3075
6964.44 70.7949
6964.58 71.8868
6964.68 73.1201
6964.77 73.9621
6964.87 73.1940
6964.96 72.0328
6965.16 70.8794
6965.36 70.5607
6965.75 70.4754
6966.54 70.6784
6968.12 71.2541
6971.29 72.4764
6977.61 74.9976
6990.25 80.2852
7015.55 91.7822
7066.13 117.382
7167.30 155.698
7273.40 134.996
7379.50 90.9559
7461.00 65.8690
7542.50 49.0181
7624.00 37.7552
7705.50 30.0507
7868.50 20.7820
8031.50 16.1462
8194.50 14.7067
8357.50 17.3847
8439.00 21.6413
8520.50 29.8196
8602.00 45.3268
8683.50 74.4115
8777.20 131.737
8870.90 181.133
8964.55 160.766
9058.20 114.101
9144.68 82.2784
9231.15 61.8823
9317.63 48.6966
9404.10 39.8087
9577.05 28.9494
9750.00 22.7358
9771.21 22.1572
9781.81 21.8800
9787.11 21.7474
9789.77 21.6938
9791.09 21.7075
9791.75 21.8276
9792.08 22.1210
9792.25 22.5725
9792.42 23.7794
9792.60 25.9485
9792.79 23.7730
9793.00 22.4156
9793.20 21.9888
9793.60 21.7286
9794.41 21.6049
9796.03 21.5304
9799.27 21.4401
9805.74 21.2781
9818.69 20.9661
9844.59 20.3710
9896.40 19.2817
10000.0 17.4346
10309.8 13.6268
10464.7 12.3147
10542.1 11.7544
10580.8 11.4942
10600.2 11.3693
10609.9 11.3107
10614.7 11.2920
10617.1 11.3206
10618.4 11.4581
10619.0 11.8634
10619.3 12.6934
10619.4 13.8387
10619.6 16.6436
10619.7 19.8455
10619.8 22.0771
10619.9 19.8529
10620.0 16.6518
10620.1 14.0831
10620.2 12.8574
10620.5 11.9561
10621.1 11.4836
10622.1 11.3037
10624.3 11.2364
10628.7 11.1942
10637.4 11.1363
10654.9 11.0292
10689.8 10.8230
10759.6 10.4350
10829.5 10.0792
10846.9 9.99825
10864.4 9.92871
10873.1 9.90800
10877.5 9.90824
10881.8 9.92567
10886.2 9.98547
10888.4 10.0536
10890.6 10.1826
10892.8 10.4563
10893.8 10.7190
10894.9 11.1719
10896.0 12.0467
10896.6 12.8315
10897.1 14.0632
10897.7 16.2392
10898.2 20.3689
10898.5 24.1398
10898.8 29.8188
10899.0 38.9770
10899.3 53.9102
10899.6 80.3828
10899.9 98.0332
10900.3 80.4597
10900.6 54.0068
10900.9 35.4964
10901.3 25.8217
10901.7 20.5312
10902.0 17.4146
10902.4 15.4507
10902.7 14.1425
10903.4 12.5871
10904.2 11.7129
10904.9 11.1872
10906.3 10.6005
10907.7 10.2975
10909.2 10.1217
10912.0 9.93095
10914.9 9.83119
10917.8 9.76976
10923.5 9.69408
10935.0 9.60567
10946.4 9.54130
10969.3 9.43090
10992.2 9.32891
11083.9 8.95136
11267.2 8.28544
11450.5 7.71000
11542.2 7.44992
11588.0 7.32622
11610.9 7.26711
11622.4 7.24304
11628.1 7.25031
11631.0 7.31922
11631.7 7.38565
11632.4 7.54147
11632.8 7.71458
11633.1 8.06174
11633.5 8.88759
11633.7 9.75266
11633.8 11.1419
11634.0 13.4890
11634.2 15.0492
11634.4 13.4956
11634.6 11.1494
11634.9 9.26624
11635.1 8.40215
11635.6 7.73213
11636.2 7.49381
11636.7 7.38411
11638.7 7.24892
11642.9 7.19773
11651.2 7.16509
11667.7 7.11989
11700.9 7.03612
11767.1 6.87509
11899.6 6.57200
12164.6 6.02939
12429.6 5.55486
12562.2 5.33906
12595.3 5.28780
12628.4 5.23935
12645.0 5.21829
12661.5 5.20591
12669.8 5.21149
12678.1 5.25042
12682.2 5.31482
12684.3 5.38129
12686.4 5.50307
12688.4 5.75852
12689.5 6.00634
12690.5 6.43501
12691.6 7.29256
12692.1 8.07782
12692.6 9.34533
12693.1 11.6883
12693.4 13.6477
12693.6 16.5988
12693.9 21.2985
12694.1 29.3056
12694.4 43.9906
12694.7 70.6035
12694.9 109.284
12695.1 134.859
12695.3 109.424
12695.6 70.7727
12695.8 44.1413
12696.1 29.8426
12696.3 21.8747
12696.6 17.2718
12696.8 14.1992
12697.1 12.2125
12697.5 9.73992
12698.0 8.33927
12698.5 7.50283
12699.5 6.57511
12700.5 6.09621
12701.5 5.82194
12703.5 5.53072
12705.4 5.38742
12707.4 5.30572
12711.3 5.21915
12719.2 5.14763
12727.1 5.11428
12742.9 5.07503
12758.6 5.04607
12790.1 4.99580
12821.6 4.94878
12947.7 4.77045
13199.8 4.43880
13704.1 3.84731
14208.3 3.32485
14460.4 3.08222
14586.5 2.96460
14649.5 2.90683
14681.0 2.87916
14696.8 2.86949
14704.7 2.88053
14708.6 2.94337
14710.6 3.15968
14711.1 3.34206
14711.6 3.74442
14712.1 4.89622
14712.3 6.45456
14712.6 9.78266
14712.7 14.0823
14712.9 16.7459
14713.1 13.8422
14713.3 9.79941
14713.5 6.46819
14713.7 4.94870
14714.2 3.78922
14714.7 3.36649
14715.2 3.17680
14717.0 2.94467
14720.8 2.86911
14728.4 2.84199
14743.5 2.82283
14773.8 2.79401
14834.4 2.73923
14895.0 2.68554
14925.3 2.66083
14940.4 2.65658
14948.0 2.68572
14949.9 2.71979
14951.8 2.81342
14952.7 2.93568
14953.7 3.23780
14954.2 3.60146
14954.6 4.38604
14954.9 5.19766
14955.1 6.60216
14955.3 9.55930
14955.5 12.2036
14955.6 16.1378
14955.7 24.2940
14955.9 29.7088
14956.1 24.3355
14956.3 16.1898
14956.4 11.4849
14956.6 8.63545
14956.7 6.89897
14956.9 5.79356
14957.2 4.54555
14957.5 3.90524
14958.1 3.30718
14958.6 3.05064
14959.8 2.83521
14961.0 2.74986
14963.4 2.68267
14965.8 2.65628
14975.3 2.62309
14994.4 2.59959
15032.5 2.56426
15108.7 2.49708
15261.1 2.36485
15565.9 2.10431
15870.7 1.84609
16023.1 1.71700
16099.3 1.65347
16137.4 1.62728
16156.4 1.63717
16161.2 1.65984
16165.9 1.72951
16168.3 1.82542
16170.7 2.07979
16171.9 2.39855
16173.1 3.16154
16173.7 4.02258
16174.3 5.75699
16174.6 7.40308
16174.9 10.1484
16175.2 15.0341
16175.4 23.6279
16175.7 37.1031
16176.0 45.6906
16176.3 36.6875
16176.6 23.7290
16176.8 17.2846
16177.0 13.1580
16177.4 8.40159
16177.7 5.99516
16178.1 4.64798
16178.9 3.29507
16179.6 2.67035
16181.2 2.12912
16182.7 1.91043
16185.7 1.73576
16188.8 1.66811
16194.9 1.61361
16201.0 1.59025
16225.3 1.55087
16274.0 1.50374
16371.5 1.41748
16566.4 1.24398
16956.3 0.873490
17151.2 0.666039
17346.1 0.431821
17443.6 0.301274
17541.0 0.163679
17589.7 0.0970259
17638.5 0.0418971
17662.8 0.0258820
17687.2 0.0274411
17699.4 0.0401050
17711.6 0.0663716
17723.7 0.115866
17729.8 0.161483
17732.9 0.220665
17734.4 0.355025
17735.2 0.692364
17735.5 1.35321
17735.7 2.23008
17735.9 4.33426
17736.1 6.85465
17736.2 8.48987
17736.3 6.86992
17736.5 4.35520
17736.6 2.71226
17736.7 1.79926
17737.0 1.00084
17737.6 0.512194
17738.6 0.317091
17740.8 0.271739
17745.2 0.306587
17753.9 0.455851
17762.7 0.707692
17771.4 1.15005
17775.8 1.50304
17780.1 2.00791
17784.5 2.76376
17788.8 3.94998
17793.2 5.94855
17797.6 9.59955
17799.8 12.6326
17801.9 17.0625
17804.1 23.7357
17806.3 33.9209
17812.7 81.9512
17814.3 83.1440
17815.9 75.0319
17819.1 50.0382
17821.3 36.6764
17823.4 27.4292
17825.6 21.1206
17827.8 16.7541
17832.1 11.4013
17836.4 8.43890
17840.7 6.66062
17845.0 5.53667
17853.7 4.30748
17862.3 3.78032
17871.0 3.63320
17888.3 4.07473
17905.5 5.44350
17922.8 8.17145
17940.1 13.4027
17957.4 23.5018
17993.4 61.0576
18002.4 61.9395
18011.4 56.3172
18029.4 39.2672
18041.8 29.8277
18054.2 23.0914
18066.6 18.3652
18079.0 15.0010
18103.8 10.7006
18128.6 8.17746
18153.4 6.56635
18178.2 5.46898
18227.8 4.09437
18277.4 3.28256
18326.9 2.75299
18426.1 2.11146
18624.5 1.51549
18723.6 1.37102
18773.2 1.32420
18798.0 1.31518
18810.4 1.34992
18813.5 1.39220
18816.6 1.51246
18818.2 1.67393
18819.7 2.09844
18820.5 2.63383
18821.3 3.89777
18821.7 5.32628
18822.0 8.16270
18822.2 10.9537
18822.4 15.3660
18822.6 23.0929
18822.8 37.9969
18823.0 59.5698
18823.2 74.9939
18823.4 59.7241
18823.6 38.1860
18823.7 25.5711
18823.9 18.2380
18824.0 13.6028
18824.2 10.5656
18824.5 6.95188
18824.8 5.12247
18825.4 3.34791
18826.0 2.57665
18827.2 1.92420
18828.4 1.66509
18830.8 1.46251
18833.3 1.38614
18838.1 1.32706
18843.0 1.30391
18862.3 1.27402
18901.1 1.25586
18978.7 1.25042
19056.2 1.27450
19095.0 1.29769
19114.4 1.31228
19124.0 1.32065
19128.9 1.32632
19131.3 1.33390
19132.5 1.35293
19133.1 1.40339
19133.4 1.50299
19133.7 1.96366
19133.9 2.60172
19134.1 1.96666
19134.5 1.47928
19134.9 1.38987
19135.6 1.35028
19137.0 1.33745
19139.9 1.33590
19145.6 1.34019
19157.0 1.35132
19179.9 1.37636
19225.6 1.43596
19317.1 1.59665
19500.0 2.12846
19750.0 3.57269
19875.0 4.81816
20000.0 6.64036
20118.3 9.16182
20177.4 10.8308
20207.0 11.7963
20221.8 12.3247
20229.2 12.6350
20232.9 12.9219
20233.8 13.0949
20234.7 13.4613
20235.2 13.8545
20235.6 14.6578
20236.1 16.7055
20236.3 19.0656
20236.6 23.7496
20236.8 30.4124
20237.0 34.7354
20237.2 30.4679
20237.4 23.8288
20237.6 19.1564
20237.8 16.8066
20238.3 14.7586
20238.8 13.9874
20239.2 13.6305
20240.2 13.3365
20241.1 13.2368
20244.9 13.2302
20252.3 13.4803
20267.3 14.0777
20297.3 15.3869
20357.2 18.4346
20477.0 26.6264
20656.2 45.3259
20745.8 56.8606
20790.6 62.4654
20813.0 65.0735
20824.2 66.3219
20829.8 66.9865
20832.6 67.5185
20833.3 67.8002
20834.0 68.3523
20834.7 69.9099
20835.0 72.1112
20835.2 74.1596
20835.3 77.5883
20835.6 83.7620
20835.8 87.8325
20836.0 83.8561
20836.2 77.7394
20836.5 72.8218
20836.8 70.6172
20837.4 69.0025
20838.0 68.4713
20838.6 68.2608
20840.9 68.1725
20845.7 68.5355
20855.2 69.3977
20874.1 71.0100
20912.0 73.5249
21020.5 74.7031
21129.0 68.2764
21346.0 48.5680
21485.0 38.0952
21623.9 30.2653
21762.9 24.5199
21832.4 22.2371
21867.1 21.2151
21884.5 20.7309
21893.2 20.4956
21897.5 20.3808
21899.7 20.3282
21900.8 20.3162
21901.3 20.3468
21901.8 20.7786
21902.0 21.2917
21902.2 20.7713
21902.7 20.3395
21903.1 20.2671
21903.9 20.2195
21905.7 20.1664
21909.1 20.0743
21915.9 19.8964
21929.6 19.5490
21957.0 18.8818
22011.9 17.6502
22121.5 15.5378
22231.1 13.8035
22285.9 13.0519
22313.3 12.7016
22327.0 12.5339
22333.9 12.4568
22337.3 12.4376
22339.0 12.4883
22339.9 12.6690
22340.3 13.0368
22340.7 14.5716
22341.0 16.7760
22341.3 14.5660
22341.7 13.2244
22342.0 12.7893
22342.6 12.5115
22343.9 12.3818
22346.4 12.3140
22351.4 12.2436
22361.5 12.1236
22381.6 11.8946
22421.8 11.4602
22502.2 10.6753
22582.7 10.0015
22602.8 9.85786
22622.9 9.74415
22633.0 9.72192
22638.0 9.73603
22643.0 9.78990
22648.1 9.93873
22650.6 10.0964
22653.1 10.3796
22655.6 10.9471
22656.9 11.4610
22658.1 12.2865
22659.4 13.7497
22660.6 16.6093
22661.3 19.1841
22661.9 23.2692
22662.5 30.0553
22663.1 41.2865
22663.8 60.5434
22664.5 73.4699
22665.2 60.7070
22665.9 41.4821
22666.8 27.5485
22667.6 20.5730
22668.4 16.8255
22669.2 14.6420
22670.1 13.2619
22670.9 12.3592
22672.5 11.2763
22674.2 10.6739
22675.8 10.3072
22679.1 9.89486
22682.4 9.67459
22685.7 9.53920
22692.2 9.37711
22698.8 9.27712
22705.4 9.20333
22718.5 9.08954
22744.8 8.91180
22771.1 8.76040
22876.2 8.29327
23086.5 8.11194
23191.6 8.69123
23296.7 10.2409
23401.9 13.8237
23507.0 21.8795
23696.0 50.3839
23791.0 47.3773
23886.0 34.2495
23954.4 26.5086
24022.8 20.9956
24159.7 14.3534
24296.5 10.7392
24364.9 9.50985
24382.1 9.24275
24399.2 8.99028
24416.3 8.75741
24424.8 8.67716
24429.1 8.75575
24431.2 9.17821
24431.8 9.55708
24432.3 10.3869
24432.8 12.7531
24433.1 15.9126
24433.4 22.7008
24433.6 31.4508
24433.8 37.0581
24433.9 31.5550
24434.1 22.8345
24434.3 18.2453
24434.5 15.2359
24434.8 12.1331
24435.4 10.0092
24436.0 9.30474
24436.7 8.98872
24439.2 8.59525
24444.3 8.42037
24454.4 8.26181
24474.6 8.00855
24515.1 7.55346
24596.0 6.76746
24758.0 5.53299
25081.8 3.79201
25405.6 2.48042
25567.5 1.89090
25648.5 1.60555
25688.9 1.46591
25709.2 1.39786
25719.3 1.36691
25724.4 1.36208
25726.9 1.39759
25728.1 1.53337
25728.8 1.88991
25729.1 2.56268
25729.4 5.01775
25729.7 8.73696
25729.9 5.04251
25730.1 3.21017
25730.3 2.38429
25730.7 1.78663
25731.4 1.48155
25732.9 1.36553
25735.9 1.32154
25741.9 1.29226
25753.9 1.25101
25777.8 1.17620
25825.7 1.05546
25849.7 1.03508
25861.7 1.05379
25873.7 1.11670
25885.6 1.27914
25891.6 1.44168
25897.6 1.71826
25903.6 2.22402
25909.6 3.25724
25912.6 4.20844
25915.6 5.74626
25918.6 8.37120
25921.6 12.9534
25924.7 20.3693
25927.8 25.3417
25931.0 20.4262
25934.1 13.0080
25936.0 9.81160
25937.9 7.54850
25941.7 4.81622
25945.4 3.36473
25949.2 2.52483
25953.0 1.99719
25956.8 1.64535
25964.3 1.21785
25971.9 0.972841
25979.4 0.815500
25994.5 0.621697
26009.6 0.500832
26024.8 0.412535
26055.0 0.281287
26085.2 0.182103
26115.4 0.106143
26145.6 0.0554587
26160.7 0.0420694
26175.9 0.0388440
26191.0 0.0481338
26206.1 0.0730495
26221.2 0.117713
26236.3 0.187618
26251.4 0.290153
26266.5 0.435362
26281.6 0.637067
26296.7 0.914540
26311.8 1.29504
26327.0 1.81763
26342.1 2.53913
26357.2 3.54300
26372.3 4.95255
26387.4 6.94883
26402.5 9.78939
26417.6 13.8056
26450.0 27.5483
26482.4 42.0095
26514.8 40.7303
26547.2 31.0466
26581.6 23.1925
26615.9 18.7511
26650.3 16.5553
26684.6 15.8403
26753.3 17.6958
26822.0 23.9204
26917.5 41.2929
27013.0 59.9326
27108.5 57.0939
27204.0 42.5586
27278.0 33.1243
27352.0 26.3632
27426.0 21.5952
27500.0 18.1640
27596.0 14.9919
27692.0 12.7361
27883.9 9.77118
28075.9 7.91333
28171.9 7.21916
28219.9 6.91345
28243.9 6.77000
28255.9 6.70291
28261.9 6.67958
28264.9 6.70061
28266.4 6.80092
28267.1 7.02878
28267.5 7.35376
28267.9 8.17804
28268.3 9.73563
28268.8 8.18595
28269.3 7.23672
28269.8 6.92350
28270.7 6.73058
28272.6 6.64062
28276.5 6.59276
28284.1 6.54234
28299.5 6.45627
28330.1 6.29357
28391.4 5.98978
28514.0 5.45237
28636.7 4.98918
28698.0 4.78020
28728.6 4.68178
28743.9 4.63896
28751.6 4.63891
28755.4 4.71619
28757.4 5.00685
28758.3 5.81463
28758.8 7.43483
28759.0 9.59529
28759.3 14.2333
28759.4 20.0034
28759.6 23.9325
28759.8 20.0646
28759.9 14.3070
28760.1 10.2195
28760.3 8.11042
28760.7 6.27297
28761.5 5.20314
28763.0 4.76891
28766.1 4.61918
28772.2 4.55951
28784.4 4.51076
28808.9 4.43406
28857.9 4.29092
28955.8 4.02380
29151.7 3.54811
29543.5 2.76051
29935.3 2.09809
30131.2 1.75602
30180.2 1.64830
30204.7 1.58369
30229.2 1.50566
30253.7 1.40350
30265.9 1.33685
30278.2 1.25361
30290.4 1.14692
30302.7 1.02028
30308.8 0.979257
30311.8 0.993273
30314.9 1.07369
30318.0 1.31797
30319.5 1.57535
30321.0 2.01381
30322.6 2.78322
30324.1 4.19323
30325.6 6.91514
30326.4 9.18890
30327.1 12.3682
30330.2 33.8667
30331.0 35.0811
30331.8 32.6067
30333.3 23.7468
30335.1 15.9424
30336.9 11.4648
30338.7 8.83839
30340.4 7.19509
30342.2 6.10059
30344.0 5.33249
30347.5 4.34359
30351.1 3.74524
30354.6 3.34918
30361.7 2.86220
30368.8 2.57572
30375.8 2.38753
30390.0 2.15322
30404.2 2.01031
30418.3 1.91164
30446.7 1.77840
30503.3 1.61574
30560.0 1.50404
30786.6 1.19110
31013.2 0.948705
31126.5 0.842033
31183.2 0.791926
31211.5 0.767711
31225.7 0.756047
31232.8 0.751373
31236.3 0.753520
31238.1 0.770721
31239.0 0.829681
31239.4 0.976672
31239.9 2.13430
31240.1 3.54554
31240.2 2.15317
31240.7 1.00077
31241.1 0.841529
31241.9 0.774067
31243.6 0.750336
31247.0 0.740905
31253.7 0.733475
31267.1 0.721977
31294.0 0.700301
31347.8 0.658733
31455.3 0.581913
31562.9 0.513969
31616.6 0.483768
31643.5 0.470454
31656.9 0.467413
31663.7 0.478977
31667.0 0.532212
31668.7 0.714408
31669.5 1.22518
31670.0 2.28994
31670.2 3.78555
31670.4 7.50410
31670.7 14.5642
31670.9 7.52619
31671.2 3.07857
31671.5 1.70180
31672.1 0.914800
31673.3 0.596660
31675.7 0.493053
31680.5 0.461475
31690.1 0.448966
31709.3 0.437969
31728.4 0.429257
31738.0 0.426317
31742.8 0.429667
31745.2 0.449040
31746.4 0.515946
31747.0 0.696818
31747.3 1.04912
31747.6 2.48932
31747.8 4.57813
31748.1 2.51354
31748.4 1.08764
31748.6 0.728871
31749.2 0.531015
31750.3 0.453939
31752.6 0.428551
31757.2 0.419554
31766.3 0.413824
31784.5 0.406089
31821.0 0.392727
31894.0 0.370864
32039.8 0.347483
32185.7 0.357609
32258.7 0.387699
32276.9 0.407358
32295.1 0.453385
32304.3 0.511402
32308.8 0.566845
32313.4 0.664513
32317.9 0.862673
32320.2 1.04919
32322.5 1.36791
32324.8 1.97917
32325.9 2.51876
32327.1 3.37794
32328.2 4.85844
32329.3 7.69633
32329.9 10.1632
32330.5 13.9626
32331.1 20.0323
32331.6 29.6009
32332.3 47.3964
32333.0 59.1540
32333.7 47.3925
32334.4 29.9250
32335.1 18.1988
32335.9 11.8068
32336.6 8.19814
32337.3 6.04764
32338.0 4.64770
32338.8 3.71549
32340.2 2.57135
32341.7 1.93144
32343.1 1.53903
32346.0 1.10384
32348.9 0.880635
32351.8 0.752215
32357.6 0.617818
32369.2 0.518234
32380.8 0.485218
32404.1 0.470183
32415.7 0.475233
32421.5 0.493736
32424.4 0.555558
32425.8 0.740352
32426.5 1.17487
32426.9 1.86263
32427.3 3.95435
32427.6 7.47675
32428.0 4.00183
32428.5 1.68352
32428.9 1.03851
32429.8 0.681624
32431.6 0.540327
32435.2 0.495866
32442.4 0.485852
32456.8 0.490194
32485.6 0.509033
32543.1 0.558903
32658.3 0.694100
32888.5 1.12134
33118.8 1.83417
33233.9 2.36728
33262.7 2.55019
33291.4 2.81435
33305.8 3.04358
33313.0 3.22684
33320.2 3.51272
33327.4 4.02630
33331.0 4.46477
33334.6 5.14887
33338.2 6.31562
33341.8 8.53293
33343.6 10.4523
33345.4 13.4022
33347.2 18.1084
33349.0 25.6381
33351.2 39.4377
33353.4 48.6839
33355.6 39.6177
33357.8 25.9678
33359.2 19.7639
33360.6 15.4768
33363.4 10.4731
33366.2 7.89775
33369.0 6.45356
33371.9 5.57171
33374.7 5.00375
33380.3 4.34842
33385.9 4.00860
33391.6 3.81878
33402.8 3.64556
33425.3 3.59976
33447.8 3.68091
33537.8 4.29440
33717.9 6.03697
34078.0 11.6798
34488.9 23.2756
34694.4 31.6903
34797.1 36.6690
34848.5 39.4064
34874.2 40.8514
34887.0 41.5967
34893.5 41.9802
34896.7 42.1926
34898.3 42.3649
34899.1 42.6304
34899.5 43.1188
34899.7 43.8002
34899.9 45.5815
34900.1 48.8709
34900.4 45.6507
34900.8 43.2669
34901.1 42.7908
34901.9 42.5998
34903.5 42.6081
34906.6 42.7694
34912.8 43.1406
34925.3 43.9075
34950.2 45.4987
35000.0 48.9208
35001.0 48.9931
35003.7 49.1883
35006.4 49.3845
35011.8 49.7796
35022.5 50.5839
35044.0 52.2475
35087.0 55.8003
35173.0 63.6553
35218.7 67.8910
35241.5 69.8757
35252.9 70.8099
35258.6 71.2697
35261.5 71.5345
35262.9 71.7975
35263.6 72.2626
35264.0 73.1037
35264.1 74.1813
35264.3 76.5286
35264.6 81.4659
35264.8 76.6302
35265.0 74.3018
35265.2 73.2408
35265.5 72.4517
35266.3 72.0702
35267.7 72.0091
35270.5 72.1608
35276.1 72.5429
35287.4 73.2823
35310.0 74.5437
35387.3 76.1990
35464.5 73.9835
35619.0 64.6931
35781.5 55.6081
35944.0 48.6352
36269.0 38.5875
36424.3 34.9298
36502.0 33.3052
36540.8 32.5474
36560.2 32.2191
36565.1 32.1722
36569.9 32.2016
36572.3 32.3097
36574.8 32.6363
36576.0 33.0395
36577.2 33.9022
36577.8 34.7442
36578.4 36.1581
36579.0 38.7984
36579.6 43.8812
36580.2 51.1938
36580.7 56.1089
36581.2 51.3065
36581.8 44.0045
36582.2 39.8551
36582.7 37.3496
36583.1 35.7807
36583.6 34.7592
36584.5 33.5663
36585.4 32.9428
36587.2 32.3301
36589.0 32.0420
36592.6 31.7625
36596.3 31.6114
36603.5 31.4124
36610.7 31.2555
36625.2 30.9747
36639.7 30.7094
36697.6 29.7030
36813.4 27.8532
37044.9 24.6740
37508.1 19.8581
37971.3 16.4043
38202.8 15.0136
38318.6 14.3808
38376.5 14.0779
38405.5 13.9300
38419.9 13.8588
38427.2 13.8311
38430.8 13.8459
38432.6 13.9448
38433.5 14.2205
38434.0 14.7390
38434.4 16.6976
38434.8 19.6524
38435.1 16.7322
38435.4 15.1076
38435.7 14.4986
38436.3 14.0746
38437.5 13.8697
38439.9 13.7864
38444.7 13.7404
38454.4 13.6862
38473.6 13.5891
38512.1 13.4003
38589.0 13.0329
38742.9 12.3313
39050.6 11.0304
39666.1 8.61316
39973.8 7.34811
40127.7 6.65881
40281.5 5.91489
40435.4 5.12224
40589.3 4.37687
40666.2 4.14579
40743.1 4.22187
40820.1 5.05796
40858.5 6.07636
40897.0 7.86733
40911.1 8.84411
40925.1 10.1512
40932.1 11.0624
40939.2 12.4485
40942.7 13.6157
40946.2 15.6785
40948.0 17.4993
40949.7 20.4694
40951.5 25.8509
40953.2 36.1186
40954.7 50.5321
40956.3 60.2422
40957.8 51.1402
40959.3 37.2959
40961.0 27.7734
40962.6 22.8390
40964.3 20.2252
40966.0 18.7874
40969.3 17.5184
40972.6 17.2063
40979.3 17.6413
40985.9 18.6677
41012.6 25.5166
41079.0 56.9571
41096.3 63.0007
41138.2 64.0421
41180.0 56.3115
41220.0 48.5363
41260.0 42.0174
41342.2 32.4937
41424.4 26.5404
41506.6 22.6457
41588.8 19.9569
41753.2 16.5347
41917.6 14.4574
42081.9 13.0537
42246.3 12.0305
42575.1 10.6094
42903.9 9.63795
43232.7 8.90862
43561.4 8.32635
43643.6 8.19739
43725.8 8.07416
43808.0 7.95858
43849.1 7.91660
43859.4 7.91966
43869.7 7.95531
43874.8 8.01661
43879.9 8.19303
43882.5 8.42383
43885.1 8.99359
43886.4 9.64967
43887.6 11.0215
43888.3 12.3361
43888.9 14.5775
43889.6 18.6953
43890.2 26.6530
43890.8 38.0676
43891.3 45.8291
43891.9 38.3567
43892.5 27.0239
43892.8 21.9023
43893.2 18.2779
43893.9 14.0895
43894.7 11.9085
43895.4 10.6930
43896.9 9.45018
43898.4 8.87034
43901.3 8.36368
43904.2 8.15310
43910.1 7.97990
43916.0 7.90814
43927.8 7.84313
43939.5 7.80898
43986.5 7.73009
44033.6 7.68409
44045.3 7.68847
44057.1 7.72818
44063.0 7.79331
44068.8 7.97302
44071.8 8.19681
44074.7 8.71480
44076.2 9.26548
44077.7 10.3225
44078.4 11.2490
44079.1 12.6559
44079.9 14.8945
44080.6 18.4878
44081.5 25.0970
44082.4 29.5728
44083.3 25.2478
44084.2 18.6656
44085.1 14.4299
44086.0 12.0714
44086.9 10.6895
44087.8 9.85082
44089.6 8.92897
44091.3 8.46952
44094.9 8.04780
44098.5 7.86575
44105.7 7.71108
44112.8 7.64517
44127.1 7.58313
44141.4 7.54874
44198.7 7.46169
44313.1 7.32278
44542.1 7.07096
45000.0 6.62459
45195.1 6.45232
45292.6 6.36951
45341.4 6.32905
45365.8 6.31027
45378.0 6.30708
45384.1 6.33073
45387.1 6.43367
45388.6 6.76001
45389.4 7.54970
45389.8 8.87336
45390.1 13.2256
45390.5 20.2917
45390.9 13.3520
45391.3 8.97044
45391.6 7.62056
45392.4 6.79793
45394.0 6.45148
45397.0 6.33335
45403.2 6.29346
45415.5 6.27327
45440.1 6.25030
45489.2 6.20986
45587.6 6.13204
45784.3 5.98221
46177.7 5.70134
46374.5 5.56921
46571.2 5.44263
46669.5 5.38222
46767.9 5.32663
46817.1 5.30456
46866.2 5.29812
46890.8 5.31570
46903.1 5.34012
46915.4 5.38917
46927.7 5.49600
46933.9 5.59859
46940.0 5.77316
46946.2 6.10199
46949.2 6.38386
46952.3 6.81819
46955.4 7.53371
46958.5 8.80159
46961.5 11.2759
46963.1 13.3989
46964.6 16.4524
46967.0 23.3041
46969.4 27.9519
46971.8 23.4841
46974.2 16.6755
46976.1 13.0527
46978.0 10.7410
46979.9 9.25783
46981.7 8.27956
46985.5 7.12193
46989.3 6.50467
46993.0 6.13846
46996.8 5.90520
47004.3 5.63490
47011.8 5.48917
47019.3 5.40100
47034.3 5.30171
47049.3 5.24758
47064.3 5.21284
47094.3 5.16825
47154.4 5.11333
47214.4 5.07251
47334.5 5.00572
47394.6 4.97923
47424.6 4.96897
47439.6 4.96509
47447.1 4.96400
47450.8 4.96554
47452.7 4.97353
47453.7 4.99951
47454.6 5.51725
47454.8 6.08245
47455.0 5.52810
47455.9 5.01168
47456.7 4.97849
47458.3 4.96665
47461.6 4.96267
47468.2 4.96104
47481.3 4.96058
47507.6 4.96577
47533.8 4.98329
47560.1 5.02491
47586.3 5.12104
47599.5 5.21385
47612.6 5.36964
47625.7 5.65255
47638.9 6.22952
47645.4 6.76098
47652.0 7.62435
47658.5 9.10572
47665.1 11.7099
47671.9 15.9057
47678.7 18.7483
47685.5 16.0102
47692.3 11.8339
47697.7 9.57052
47703.1 8.13902
47708.6 7.22726
47714.0 6.62723
47724.8 5.92277
47735.6 5.54681
47746.5 5.32323
47757.3 5.17934
47779.0 5.00929
47800.6 4.91374
47822.3 4.85239
47865.6 4.77556
47909.0 4.72555
47952.3 4.68712
48039.0 4.62519
48125.6 4.57189
48212.3 4.52238
48299.0 4.47480
48342.3 4.45179
48364.0 4.44320
48374.8 4.45289
48380.2 4.51291
48382.9 4.72341
48384.3 5.27754
48384.9 6.31509
48385.6 10.1790
48386.2 16.1099
48386.7 10.3618
48387.1 7.46163
48387.5 6.19319
48388.3 5.21232
48389.9 4.70994
48393.0 4.51717
48399.3 4.45150
48411.9 4.42560
48437.1 4.40634
48487.6 4.37818
48588.4 4.32594
48790.0 4.22477
49193.4 4.02881
50000.0 3.65210
50414.1 3.46334
50621.1 3.36954
50724.6 3.32271
50776.4 3.29932
50802.3 3.28771
50815.2 3.28247
50821.7 3.28244
50824.9 3.29268
50826.5 3.33329
50827.3 3.45371
50827.7 3.71085
50828.1 5.05446
50828.4 6.87336
50828.6 5.09118
50829.0 3.83264
50829.3 3.52745
50830.0 3.36512
50831.3 3.30281
50834.0 3.28195
50839.3 3.27367
50850.0 3.26712
50871.4 3.25698
50914.2 3.23767
50999.7 3.20032
51085.2 3.17172
51106.6 3.17358
51128.0 3.19774
51138.7 3.23996
51149.4 3.36398
51154.7 3.52953
51157.4 3.68518
51160.1 3.94897
51162.8 4.44814
51164.1 4.88001
51165.4 5.54594
51166.8 6.66120
51168.1 8.66632
51168.8 10.3224
51169.4 12.7357
51170.1 16.3297
51170.8 21.5774
51171.7 32.7740
51172.7 40.3717
51173.7 33.0994
51174.7 21.9627
51175.3 16.7551
51176.0 13.2370
51177.3 9.13797
51178.5 7.03036
51179.8 5.85365
51181.1 5.12868
51182.4 4.65958
51185.0 4.10617
51187.5 3.80427
51190.1 3.62231
51195.2 3.42289
51205.5 3.26063
51215.8 3.19516
51236.3 3.13888
51256.8 3.11174
51297.9 3.07934
51339.0 3.05541
51503.3 2.97487
51831.9 2.82275
52160.5 2.67115
52324.9 2.59766
52407.0 2.57231
52427.5 2.57641
52448.1 2.60498
52458.4 2.65062
52468.6 2.77444
52473.8 2.92569
52478.9 3.26407
52481.5 3.61046
52484.0 4.24020
52485.3 4.76397
52486.6 5.52428
52487.9 6.65975
52489.2 8.35341
52491.0 11.9276
52492.9 14.3550
52494.8 12.0534
52496.6 8.52944
52498.2 6.58531
52499.7 5.36452
52501.2 4.59177
52502.7 4.08495
52505.8 3.49450
52508.8 3.18139
52514.9 2.87916
52520.9 2.74291
52533.1 2.62408
52545.3 2.57283
52569.6 2.52554
52593.9 2.50077
52642.5 2.46909
52691.1 2.44516
52788.4 2.40662
52885.6 2.37975
52982.8 2.37363
53080.1 2.41442
53177.3 2.58254
53225.9 2.79015
53250.2 2.95982
53262.4 3.07076
53268.5 3.13643
53271.5 3.17974
53273.0 3.23026
53273.8 3.33489
53274.2 3.54541
53274.6 4.53845
53274.8 5.90419
53275.0 4.57741
53275.5 3.49851
53276.0 3.33144
53276.9 3.26922
53278.9 3.26834
53282.7 3.31158
53290.4 3.42146
53305.7 3.69384
53336.4 4.53153
53367.0 6.08602
53397.7 9.17610
53426.0 14.6264
53454.3 21.6566
53468.5 23.1004
53482.6 21.8502
53510.9 15.5255
53533.2 11.3258
53555.4 8.57386
53577.7 6.81635
53599.9 5.66175
53644.5 4.30996
53689.0 3.57915
53733.5 3.13235
53778.0 2.83110
53867.1 2.43666
54045.1 1.87064
54089.7 1.68147
54111.9 1.55601
54134.2 1.39219
54156.4 1.16178
54167.6 1.00567
54178.7 0.808723
54189.8 0.560799
54201.0 0.287297
54206.5 0.213707
54209.3 0.246368
54212.1 0.387874
54214.9 0.748512
54217.7 1.55663
54219.1 2.26889
54220.4 3.31878
54221.8 4.86224
54223.2 7.10959
54224.8 10.7884
54226.4 15.7829
54229.5 26.3787
54231.1 28.3572
54232.6 27.3111
54235.7 21.4552
54237.8 17.7819
54239.9 14.9262
54244.0 11.1271
54248.1 8.88620
54252.3 7.46662
54256.4 6.50596
54260.5 5.82017
54268.8 4.91563
54277.0 4.35086
54285.3 3.96658
54301.8 3.47848
54318.3 3.18060
54334.8 2.97912
54367.9 2.72122
54400.9 2.56098
54433.9 2.45125
54467.0 2.37330
54500.0 2.32159
54532.0 2.30405
54547.9 2.31773
54563.9 2.36412
54579.9 2.48590
54587.9 2.61130
54595.9 2.83260
54603.8 3.26354
54607.8 3.64284
54611.8 4.24086
54615.8 5.25497
54619.8 7.13023
54621.8 8.70532
54623.8 11.0300
54625.8 14.5864
54627.8 19.9800
54630.6 30.9300
54633.3 38.3441
54636.1 31.2560
54638.9 20.4526
54640.8 15.2188
54642.7 11.7081
54644.6 9.34166
54646.5 7.71094
54650.3 5.71281
54654.1 4.60089
54657.9 3.92535
54661.7 3.48583
54669.3 2.96779
54676.9 2.68449
54684.5 2.51140
54699.7 2.31600
54714.9 2.21022
54730.1 2.14371
54760.5 2.06199
54790.9 2.01025
54821.3 1.97184
54882.1 1.91365
55003.7 1.82910
55125.3 1.76455
55611.8 1.62296
56098.2 1.71147
56341.4 1.90516
56463.0 2.03496
56493.5 2.05702
56523.9 2.05467
56539.1 2.03010
56554.3 1.96741
56569.5 1.82972
56577.1 1.85482
56579.0 2.01274
56580.9 2.47305
56581.8 2.98590
56582.8 3.92800
56583.7 5.75009
56584.7 9.42977
56585.6 16.7245
56586.6 25.8607
56587.1 27.6451
56587.6 26.3901
56588.5 19.8472
56589.7 13.5573
56590.8 9.99145
56591.9 7.91850
56593.1 6.65186
56595.3 5.22992
56597.6 4.48936
56599.9 4.04479
56602.1 3.75451
56606.7 3.40591
56611.2 3.20828
56615.7 3.08481
56624.8 2.94488
56633.9 2.87434
56643.0 2.83757
56661.1 2.81399
56733.7 2.93775
56878.8 3.50369
57023.9 4.41581
57169.0 5.99015
57199.9 6.50618
57215.4 6.80610
57223.1 6.96899
57227.0 7.05541
57228.9 7.10474
57229.9 7.14793
57230.9 7.91119
57231.0 8.70713
57231.2 7.94109
57232.1 7.20953
57233.0 7.20260
57234.7 7.23517
57238.3 7.31705
57245.3 7.49277
57259.5 7.87848
57287.7 8.81263
57316.0 10.0473
57330.1 10.8232
57337.2 11.2740
57340.7 11.5655
57342.5 11.8738
57343.3 12.3822
57343.8 13.1473
57344.2 15.4349
57344.7 19.2566
57345.1 15.5691
57345.8 12.8758
57346.4 12.3288
57347.8 12.1298
57350.4 12.2173
57355.7 12.5930
57366.4 13.4849
57387.6 15.6682
57446.2 25.0838
57504.8 36.5526
57563.4 38.8168
57621.9 34.3764
57676.9 30.6587
57732.0 28.4172
57842.0 26.5250
58003.9 25.3194
58084.8 24.4034
58125.2 23.8025
58145.5 23.4708
58155.6 23.3190
58160.6 23.3331
58163.2 23.6514
58164.4 24.6250
58165.1 26.5695
58165.4 29.1638
58165.7 34.8959
58165.9 42.1497
58166.2 47.0413
58166.4 42.4385
58166.6 35.2707
58167.0 29.1475
58167.3 26.5564
58168.0 24.6046
58169.4 23.5955
58172.1 23.1711
58177.5 22.9476
58188.4 22.7017
58210.2 22.2570
58253.7 21.3288
58340.8 19.3115
58515.0 15.0861
58748.8 9.95613
58982.5 5.78700
59216.3 2.75471
59274.7 2.34872
59333.1 2.23324
59391.6 2.55842
59450.0 3.52607
59498.2 4.96258
59546.5 7.05470
59594.7 9.74240
59618.8 11.2366
59630.8 12.0021
59636.9 12.3912
59639.9 12.6060
59641.4 12.7839
59642.1 13.0592
59642.5 13.5555
59642.9 15.6459
59643.2 18.6159
59643.4 15.7483
59643.9 13.4676
59644.4 13.1165
59645.4 13.0086
59647.4 13.0750
59651.3 13.3065
59659.2 13.7958
59675.1 14.7602
59706.7 16.5442
59770.0 19.1928
59929.5 20.1762
60089.0 17.6232
60174.4 16.1504
60217.0 15.4636
60238.4 15.1381
60249.0 14.9931
60254.4 14.9745
60257.0 15.1333
60258.4 15.6144
60259.0 16.4992
60259.7 19.4875
60260.3 24.2901
60260.9 19.6131
60261.4 17.0019
60261.9 15.9800
60262.9 15.2696
60264.9 14.9145
60268.9 14.7380
60276.8 14.5860
60292.8 14.3495
60324.6 13.9129
60356.5 13.5009
60372.5 13.3041
60380.4 13.2116
60384.4 13.1812
60386.4 13.2179
60387.4 13.3791
60387.9 13.7396
60388.4 15.4447
60388.7 17.8126
60389.1 15.4763
60389.7 13.5678
60390.4 13.2707
60391.6 13.1319
60394.2 13.0592
60399.4 12.9857
60409.7 12.8620
60430.4 12.6270
60471.7 12.1815
60554.4 11.3745
60719.7 10.0335
61050.3 8.09052
61380.9 6.72992
61546.3 6.18264
61628.9 5.93312
61670.3 5.81358
61690.9 5.75701
61701.2 5.74099
61706.4 5.78534
61709.0 5.99615
61710.3 6.65094
61710.9 8.15488
61711.3 10.4201
61711.6 16.7067
61711.9 28.0637
61712.3 17.0707
61712.5 11.8850
61712.8 9.37315
61713.3 7.37434
61714.2 6.30788
61716.1 5.88649
61720.0 5.73940
61727.6 5.67608
61743.0 5.62107
61773.6 5.53443
61835.0 5.37361
61896.3 5.22148
61926.9 5.14955
61942.3 5.11584
61949.9 5.10211
61953.8 5.10507
61955.7 5.13975
61956.6 5.25260
61957.1 5.51141
61957.6 6.96764
61957.9 8.87078
61958.1 6.99096
61958.9 5.34112
61959.6 5.17043
61961.0 5.10373
61964.0 5.07801
61969.8 5.06117
61981.4 5.03982
62004.7 5.02077
62016.4 5.04103
62028.0 5.13385
62033.9 5.26199
62039.7 5.55829
62042.6 5.86320
62045.5 6.41308
62048.4 7.50552
62049.9 8.45595
62051.3 9.83627
62053.6 12.8923
62055.8 14.9789
62058.1 13.0109
62060.3 9.98495
62062.0 8.43249
62063.6 7.41999
62065.3 6.75311
62066.9 6.30151
62070.2 5.75675
62073.5 5.45657
62080.1 5.15377
62086.7 5.00793
62099.9 4.86605
62113.1 4.79100
62139.5 4.69672
62165.9 4.62581
62218.7 4.50396
62271.5 4.39230
62482.7 3.99004
62905.2 3.37490
63116.4 3.22143
63327.6 3.28988
63538.8 3.82284
63750.0 5.39732
63918.0 8.22440
64026.3 11.2950
64134.5 15.5463
64351.0 24.7938
64519.4 26.5228
64603.6 25.2156
64645.7 24.2650
64666.8 23.7482
64677.3 23.4836
64682.6 23.3545
64685.2 23.3078
64686.5 23.3457
64687.2 23.5290
64687.5 23.9239
64687.8 25.6282
64688.1 28.1171
64688.3 25.6931
64688.7 23.8468
64689.1 23.4645
64689.8 23.2617
64691.3 23.1560
64694.3 23.0575
64700.3 22.8962
64712.2 22.5829
64736.2 21.9563
64784.0 20.7123
64909.3 17.7051
65034.5 15.2130
65285.0 11.6111
65535.5 9.23356
65598.1 8.77532
65660.8 8.39616
65692.1 8.27501
65723.4 8.29950
65739.0 8.46687
65754.7 8.94082
65762.5 9.45102
65770.4 10.3742
65778.2 12.1619
65786.0 15.7788
65792.6 20.8095
65799.1 24.2449
65805.7 20.9222
65812.2 15.8117
65816.5 13.4241
65820.8 11.7797
65829.5 9.85490
65838.1 8.85235
65842.4 8.52959
65844.6 8.41610
65845.7 8.42692
65846.2 8.57605
65846.7 9.77717
65847.0 11.3302
65847.3 9.80127
65847.9 8.46392
65848.5 8.27080
65849.8 8.14628
65852.3 8.01519
65857.3 7.82279
65867.3 7.54070
65887.4 7.17515
65907.5 6.92912
65927.5 6.73612
65967.7 6.41900
65987.7 6.27733
65997.7 6.21098
66002.8 6.18835
66005.3 6.21646
66006.5 6.35976
66007.2 6.77401
66007.5 7.58071
66007.8 10.8960
66008.0 15.7757
66008.2 11.0109
66008.5 7.65311
66008.9 6.81738
66009.5 6.37579
66010.7 6.19901
66013.2 6.12837
66018.1 6.07919
66028.0 6.00896
66047.8 5.87803
66087.4 5.62094
66166.6 5.09909
66325.0 3.90868
66404.2 3.16486
66483.3 2.28440
66522.9 1.84049
66562.5 1.56412
66582.3 1.63061
66602.1 2.02023
66621.9 3.03000
66641.7 5.16930
66658.5 8.37741
66675.3 13.0802
66692.1 18.5633
66708.9 23.0121
66742.6 24.6039
66776.2 21.0871
66798.4 18.6857
66820.6 16.6894
66865.0 13.8149
66909.3 11.9428
66953.7 10.6538
67042.4 9.00041
67131.2 7.97084
67219.9 7.25019
67308.7 6.70385
67397.4 6.26582
67441.8 6.07687
67464.0 5.99389
67475.1 5.97670
67480.6 6.04800
67483.4 6.30021
67484.8 6.83833
67485.5 7.57261
67486.1 9.30366
67487.1 12.8338
67488.0 9.42779
67488.9 7.45678
67489.7 6.71863
67491.4 6.22501
67494.8 5.98906
67501.6 5.88420
67515.2 5.81033
67542.4 5.71077
67569.6 5.62589
67596.8 5.55568
67624.0 5.51406
67637.5 5.51687
67651.1 5.55496
67664.7 5.67130
67671.5 5.79246
67678.3 5.99966
67685.1 6.37561
67691.9 7.11914
67695.3 7.77606
67698.7 8.79476
67702.1 10.4289
67705.5 13.0589
67709.7 17.9597
67713.9 21.3108
67718.1 18.1934
67722.3 13.3926
67726.9 10.0862
67731.5 8.29346
67736.0 7.28058
67740.6 6.66609
67745.1 6.26766
67749.7 5.99431
67758.8 5.65089
67767.9 5.44615
67777.0 5.31008
67795.3 5.13528
67813.5 5.02063
67831.7 4.93325
67868.2 4.79563
67904.7 4.68072
67941.1 4.57661
68014.0 4.38463
68159.9 4.03018
68305.7 3.69127
68597.4 3.00919
68743.3 2.64703
68816.2 2.45663
68852.6 2.35865
68870.9 2.30995
68880.0 2.29135
68884.6 2.30727
68886.8 2.40456
68888.0 2.70594
68888.5 3.36408
68889.1 6.72190
68889.5 11.3314
68889.8 6.87496
68890.2 3.98456
68890.6 3.11182
68891.3 2.58704
68892.9 2.35991
68895.9 2.27559
68902.0 2.23492
68914.2 2.19338
68938.7 2.12188
68987.5 1.97996
69085.1 1.68612
69182.8 1.38164
69280.5 1.08424
69378.1 0.851478
69427.0 0.807040
69475.8 0.871570
69524.6 1.14702
69549.0 1.42276
69573.4 1.84474
69597.9 2.47943
69622.3 3.42495
69646.7 4.82724
69671.1 6.88676
69716.1 13.1177
69761.0 21.2038
69770.9 22.4042
69775.8 22.8279
69778.3 23.0238
69779.5 23.2245
69780.2 23.6049
69780.5 24.2531
69780.8 26.3913
69781.0 29.7962
69781.3 26.5056
69781.9 23.8151
69782.4 23.4150
69783.5 23.2624
69785.7 23.2364
69790.0 23.2006
69798.7 22.8138
69816.1 20.8507
69850.9 14.5505
69891.1 7.77279
69911.2 5.20286
69931.3 3.19237
69951.3 1.73399
69961.4 1.22355
69971.4 0.874182
69981.5 0.702136
69991.5 0.729281
70001.6 0.980558
70011.6 1.48296
70026.4 2.73389
70041.2 4.63462
70070.8 10.1590
70100.4 16.4312
70130.0 21.0020
70189.2 22.7802
70248.4 20.2428
70289.5 18.2564
70330.5 16.5123
70412.6 13.8316
70494.7 11.9615
70576.8 10.6108
70740.9 8.80431
70823.0 8.17014
70864.1 7.89799
70884.6 7.77301
70894.8 7.71967
70900.0 7.71913
70902.5 7.80508
70903.8 8.08995
70904.5 8.73431
70905.1 12.4001
70905.5 17.1844
70905.8 12.4306
70906.2 9.62477
70906.5 8.63495
70907.2 8.02366
70908.6 7.75131
70911.4 7.64720
70916.9 7.59013
70928.0 7.52129
70950.3 7.39965
70994.7 7.17508
71083.6 6.78162
71128.1 6.61169
71172.5 6.46940
71194.8 6.42384
71217.0 6.44034
71228.1 6.52568
71233.7 6.62281
71239.2 6.80034
71244.8 7.15209
71247.6 7.46275
71250.3 7.94823
71253.1 8.76206
71255.9 10.2386
71258.7 13.1996
71260.1 15.7919
71261.4 19.5845
71263.5 27.8511
71265.6 33.5284
71267.7 28.2473
71269.8 20.0742
71271.1 16.4867
71272.4 13.9678
71274.9 10.9241
71277.4 9.30067
71280.0 8.36335
71282.5 7.77454
71285.1 7.38417
71290.2 6.91076
71295.3 6.64328
71300.3 6.47457
71310.5 6.27475
71320.7 6.15764
71330.9 6.07732
71351.2 5.96517
71391.9 5.81122
71432.6 5.68908
71514.0 5.47971
71595.4 5.29577
71676.9 5.13026
71758.3 4.98332
71799.0 4.92096
71839.7 4.87972
71860.0 4.88406
71880.4 4.95180
71890.6 5.06277
71895.7 5.17114
71900.7 5.35531
71905.8 5.69856
71908.4 5.98968
71910.9 6.42959
71913.5 7.13836
71916.0 8.35242
71918.5 10.6079
71921.1 15.0177
71923.3 21.2336
71925.5 25.5068
71927.7 21.4687
71929.8 15.2010
71931.3 12.2719
71932.7 10.2691
71935.6 7.95708
71938.5 6.78706
71941.4 6.13332
71944.3 5.73285
71947.2 5.47160
71953.0 5.16291
71964.6 4.88741
71976.2 4.76558
71999.4 4.64919
72022.6 4.58457
72068.9 4.49604
72115.3 4.42498
72208.0 4.30143
72300.7 4.19245
72486.1 4.01133
72578.8 3.94106
72625.2 3.91201
72648.4 3.89923
72660.0 3.89337
72665.8 3.89097
72668.7 3.89147
72670.1 3.89753
72671.6 4.14352
72671.8 4.40789
72672.0 4.15253
72673.7 3.89579
72675.4 3.88883
72678.8 3.88534
72685.6 3.88174
72699.2 3.87594
72726.3 3.86624
72753.5 3.85894
72767.0 3.85639
72773.8 3.85593
72777.2 3.85795
72778.9 3.86622
72780.6 4.09309
72780.9 4.33998
72781.3 4.10187
72783.2 3.86580
72785.2 3.85769
72789.1 3.85479
72796.8 3.85356
72812.4 3.85333
72843.5 3.85773
72905.8 3.89668
72936.9 3.95200
72952.5 4.00371
72968.1 4.09148
72983.6 4.26047
72991.4 4.41170
72999.2 4.65670
73007.0 5.09248
73014.8 5.96948
73018.7 6.77326
73022.6 8.08001
73026.5 10.3245
73030.3 14.2798
73034.4 20.6959
73038.4 25.0949
73042.5 21.0209
73046.5 14.7292
73051.0 10.3328
73055.4 8.00235
73059.9 6.70900
73064.3 5.94216
73068.8 5.45508
73073.3 5.13040
73082.2 4.74036
73091.1 4.52743
73100.1 4.40128
73117.9 4.27230
73135.8 4.21988
73153.6 4.20307
73189.4 4.22162
73260.8 4.36049
73332.2 4.59103
73475.1 5.35316
73618.0 6.68597
73863.5 11.0346
74109.0 16.7977
74148.5 17.4122
74168.2 17.6688
74178.1 17.8449
74183.0 18.1498
74185.5 18.8616
74186.7 20.1372
74187.3 21.6799
74187.9 24.7258
74188.5 29.0614
74189.0 32.0109
74189.5 29.3618
74190.0 25.1473
74191.0 21.1514
74191.9 19.6413
74193.8 18.6421
74197.5 18.1956
74205.0 18.0736
74220.0 18.1014
74250.0 18.1743
74331.6 17.9301
74413.1 17.1563
74494.6 16.0935
74535.4 15.5177
74555.8 15.2271
74566.0 15.0820
74571.1 15.0100
74573.6 14.9761
74574.9 14.9662
74576.2 15.2466
74576.4 15.5646
74576.6 15.2520
74578.1 14.9201
74579.6 14.8910
74582.7 14.8455
74588.8 14.7586
74601.0 14.5865
74632.0 14.1560
74663.0 13.7369
74725.0 12.9405
74849.0 11.5380
75097.0 9.44504
75345.0 8.03920
75469.0 7.50687
75531.0 7.27239
75562.0 7.16201
75577.5 7.10848
75585.3 7.08255
75589.2 7.07171
75591.1 7.07369
75593.0 7.42027
75593.4 7.80094
75593.7 7.43518
75595.6 7.06351
75597.5 7.04638
75601.3 7.03010
75609.0 7.00364
75624.3 6.95330
75654.9 6.85596
75716.2 6.67178
75838.7 6.33963
76083.8 5.78914
76574.0 4.98350
77064.1 4.40197
77309.2 4.16047
77431.8 4.04987
77493.0 4.00547
77523.7 4.02304
77531.3 4.06106
77539.0 4.17115
77542.8 4.31047
77546.7 4.63346
77548.6 4.97589
77550.5 5.62161
77552.4 7.00950
77553.4 8.32187
77554.3 10.3580
77555.6 14.3210
77556.8 17.0215
77558.0 14.5033
77559.3 10.6247
77560.9 7.64100
77562.4 6.18126
77564.0 5.41902
77565.6 4.98477
77568.7 4.53492
77571.8 4.32188
77578.1 4.13064
77584.4 4.04778
77596.9 3.97394
77609.4 3.93837
77659.5 3.86887
77759.8 3.77853
77860.0 3.69766
77960.3 3.62121
78060.6 3.55019
78160.8 3.49255
78210.9 3.47989
78236.0 3.48521
78261.1 3.50828
78286.1 3.57112
78298.7 3.63460
78311.2 3.74224
78323.7 3.93640
78336.2 4.32123
78342.5 4.66245
78348.8 5.19342
78355.0 6.05319
78361.3 7.45418
78368.9 10.0112
78376.4 11.7703
78384.0 10.1438
78391.6 7.62268
78399.7 5.89695
78407.8 4.95871
78415.9 4.42824
78424.0 4.10696
78432.2 3.89871
78440.3 3.75622
78456.5 3.57797
78472.7 3.47263
78489.0 3.40320
78521.4 3.31517
78553.9 3.25825
78586.4 3.21524
78651.3 3.14768
78781.2 3.03860
78911.0 2.93994
79170.8 2.74969
79300.7 2.66131
79333.1 2.64694
79365.6 2.65309
79381.8 2.68445
79398.1 2.79248
79406.2 2.94205
79414.3 3.31855
79418.3 3.75248
79422.4 4.66400
79424.4 5.53283
79426.5 7.00173
79428.5 9.66276
79430.5 14.6476
79432.4 22.1187
79434.3 27.2798
79436.2 22.5458
79438.0 15.1798
79440.0 10.3106
79441.9 7.60280
79443.8 6.04921
79445.7 5.10507
79449.6 4.07376
79453.4 3.55953
79457.3 3.26734
79461.1 3.08515
79468.8 2.87767
79484.3 2.69855
79499.7 2.61979
79530.5 2.54257
79561.3 2.49764
79622.9 2.43250
79684.5 2.37671
79931.0 2.16286
80177.5 1.93260
80423.9 1.66928
80670.4 1.35436
80916.9 0.965431
81040.1 0.744305
81163.3 0.537174
81225.0 0.472478
81286.6 0.486042
81317.4 0.550254
81348.2 0.680197
81379.0 0.911479
81394.4 1.08642
81402.1 1.21637
81406.0 1.37139
81407.9 1.66177
81408.8 2.14323
81409.8 3.78024
81410.7 6.43728
81411.5 3.96579
81412.9 2.07771
81414.2 1.69100
81416.9 1.53519
81422.3 1.55708
81433.1 1.75606
81454.6 2.32445
81497.7 4.19096
81530.4 6.53275
81563.1 9.86846
81628.4 17.5600
81661.1 19.4306
81693.7 19.1996
81759.0 15.7037
81813.9 12.7074
81868.7 10.4662
81923.6 8.85953
81978.4 7.69253
82088.2 6.15327
82197.9 5.20171
82307.6 4.55964
82417.3 4.09713
82527.0 3.74757
82581.9 3.60290
82609.3 3.53675
82623.0 3.50613
82629.9 3.49659
82633.3 3.51376
82635.0 3.59443
82635.9 3.82067
82636.8 5.90262
82637.1 8.41939
82637.4 5.99487
82637.9 4.21956
82638.4 3.80475
82639.4 3.58969
82641.3 3.50381
82645.1 3.46869
82652.8 3.44379
82668.2 3.40863
82699.0 3.34560
82760.6 3.23174
82883.8 3.04175
83130.2 2.78508
83376.6 2.68677
83438.2 2.69304
83499.8 2.71964
83530.6 2.74808
83561.4 2.80811
83576.8 2.87658
83592.2 3.04346
83599.9 3.24513
83607.6 3.71642
83611.5 4.22963
83615.3 5.24788
83617.2 6.16745
83619.2 7.62563
83621.1 10.0589
83623.0 14.1947
83625.1 21.2896
83627.3 26.1737
83629.4 21.7062
83631.5 14.7782
83632.9 11.5456
83634.3 9.33037
83637.1 6.72978
83639.9 5.39540
83642.7 4.64106
83645.5 4.17870
83648.3 3.87679
83653.8 3.52230
83659.4 3.33120
83665.0 3.21842
83676.1 3.10100
83698.5 3.02689
83720.8 3.02315
83765.4 3.08545
83810.0 3.20259
83854.6 3.38860
83899.2 3.73245
83921.5 4.06601
83943.8 4.71976
83954.9 5.33709
83966.1 6.40628
83977.2 8.45879
83982.8 10.2027
83988.4 12.7173
83997.1 18.3563
84005.9 22.2708
84014.6 18.7431
84023.4 13.2167
84033.8 9.16958
84044.2 7.14615
84054.6 6.08687
84065.0 5.49420
84085.9 4.93117
84106.7 4.72399
84148.3 4.68446
84190.0 4.83842
84274.6 5.39412
84316.9 5.75271
84338.0 5.94982
84348.6 6.05493
84353.9 6.11995
84356.5 6.19592
84357.8 6.36739
84358.5 6.75666
84359.2 9.38498
84359.5 12.7536
84359.8 9.52860
84360.4 7.04272
84360.9 6.54907
84362.0 6.31786
84364.1 6.25104
84368.4 6.26631
84376.9 6.34645
84394.0 6.52721
84428.1 6.91481
84496.4 7.77298
84632.9 9.75830
84769.5 11.8752
84837.7 12.8524
84871.9 13.2947
84906.0 13.6979
84916.5 13.8177
84921.8 13.8968
84924.4 14.0171
84925.8 14.3239
84926.4 15.0081
84927.1 18.8696
84927.5 24.1050
84927.8 19.1807
84928.4 15.3681
84929.0 14.5753
84930.2 14.1891
84932.6 14.0629
84937.3 14.0608
84946.8 14.1382
84965.8 14.3116
85003.8 14.6470
85022.9 14.8321
85041.9 15.1031
85051.4 15.3459
85060.9 15.8109
85065.6 16.2428
85070.4 16.9745
85075.1 18.3261
85079.9 20.9670
85084.0 24.7246
85088.1 27.3303
85092.2 24.9827
85096.3 21.3056
85100.1 19.0826
85103.8 17.7630
85107.6 16.9670
85111.3 16.4652
85118.8 15.9017
85126.3 15.6142
85133.8 15.4486
85141.3 15.3438
85156.3 15.2189
85186.2 15.0824
85216.2 14.9726
85276.1 14.7126
85306.1 14.5524
85321.1 14.4639
85328.5 14.4171
85332.3 14.3979
85334.2 14.4162
85335.1 14.5187
85336.0 16.0209
85336.3 17.9460
85336.6 16.2980
85337.2 14.8725
85337.8 14.5912
85338.9 14.4489
85341.1 14.3808
85345.6 14.3321
85354.5 14.2663
85372.4 14.1436
85408.2 13.8897
85479.8 13.3429
85623.0 12.1711
85858.1 10.2020
85916.9 9.66474
85975.7 9.03879
86005.1 8.65731
86034.5 8.20712
86049.2 7.97407
86063.8 7.82603
86071.2 7.87784
86078.5 8.16915
86085.9 9.02783
86093.2 11.2254
86101.0 16.4985
86108.7 23.7777
86116.4 25.4559
86124.2 22.1616
86130.6 19.3495
86136.9 17.2304
86143.3 15.6999
86149.7 14.5815
86162.4 13.0956
86175.2 12.1685
86187.9 11.5376
86200.6 11.0852
86213.4 10.7933
86219.8 10.8866
86222.9 11.5360
86224.5 13.0187
86225.3 15.1397
86226.1 20.2282
86226.7 26.2864
86227.2 30.5501
86227.7 26.6878
86228.2 20.7396
86228.9 16.1350
86229.6 13.8635
86230.9 11.9877
86233.6 10.9217
86238.9 10.4149
86249.6 10.1036
86271.0 9.77246
86292.3 9.52801
86313.7 9.32567
86356.4 8.99982
86399.1 8.74904
86441.9 8.57149
86463.2 8.52405
86484.6 8.52904
86506.0 8.64200
86516.6 8.78141
86527.3 9.03054
86538.0 9.48572
86548.7 10.3680
86554.0 11.1197
86559.4 12.2401
86564.7 13.9446
86570.0 16.5315
86577.7 21.9806
86585.4 25.7351
86593.1 22.3131
86600.7 16.9976
86607.5 13.8306
86614.3 11.9023
86621.1 10.7042
86627.9 9.92646
86641.4 9.01551
86655.0 8.51749
86668.6 8.20692
86682.1 7.99349
86709.3 7.71035
86736.4 7.51962
86763.5 7.37297
86790.7 7.25054
86804.2 7.19523
86811.0 7.16909
86814.4 7.15889
86816.1 7.16534
86817.0 7.20751
86817.8 8.28997
86818.0 9.51083
86818.2 8.36387
86819.1 7.21263
86820.1 7.16055
86822.0 7.13696
86825.7 7.11762
86833.3 7.08855
86848.4 7.03533
86878.7 6.93630
86939.2 6.75715
87060.2 6.44698
87181.2 6.17890
87241.7 6.05656
87272.0 5.99843
87287.1 5.97366
87294.7 5.97779
87298.4 6.03625
87300.3 6.21233
87301.3 6.55972
87302.2 7.94274
87303.0 10.0545
87303.7 8.05129
87305.2 6.35789
87306.8 6.10223
87309.8 5.98616
87316.0 5.93595
87328.2 5.90088
87352.8 5.85258
87401.9 5.76554
87500.0 5.60363
87837.6 5.12890
88175.1 4.74630
88512.7 4.42756
88681.5 4.28697
88765.9 4.22624
88808.0 4.22432
88818.6 4.24830
88829.1 4.32598
88834.4 4.42910
88839.7 4.67572
88842.3 4.94439
88845.0 5.46721
88847.6 6.65255
88848.9 7.82530
88850.2 9.73329
88851.8 13.1948
88853.4 15.6010
88854.9 13.4242
88856.5 10.0155
88858.4 7.50463
88860.2 6.23304
88862.1 5.54563
88864.0 5.14642
88867.7 4.72712
88871.4 4.52460
88878.9 4.34064
88886.4 4.25973
88901.3 4.18673
88916.2 4.15102
88975.9 4.08005
89095.2 3.98741
89214.6 3.90501
89333.9 3.82692
89572.6 3.67952
89691.9 3.60969
89751.6 3.57967
89781.4 3.58576
89796.4 3.67159
89800.1 3.75975
89803.8 3.98227
89805.7 4.24218
89807.6 4.79485
89809.4 6.26004
89810.3 7.99769
89811.3 11.4323
89812.1 16.2919
89812.9 19.6759
89813.7 16.6030
89814.5 11.7904
89815.3 8.65983
89816.1 6.89717
89817.7 5.24146
89819.3 4.55538
89820.9 4.21487
89824.1 3.89946
89827.3 3.76325
89840.2 3.60007
89865.9 3.53645
89917.3 3.49248
90020.1 3.43104
90225.8 3.31865
90637.1 3.09641
90842.8 2.97611
90945.6 2.90915
91048.5 2.83354
91151.3 2.74281
91202.7 2.68803
91254.1 2.62353
91305.5 2.54528
91356.9 2.45032
91382.7 2.40124
91408.4 2.37464
91421.2 2.39940
91434.1 2.51875
91440.5 2.67507
91446.9 2.99785
91453.4 3.73078
91456.6 4.43340
91459.8 5.54463
91464.0 7.73137
91468.2 9.24375
91476.7 5.64854
91480.5 4.31329
91484.4 3.50949
91492.1 2.69149
91499.7 2.32295
91507.4 2.15747
91515.1 2.15587
91522.8 2.40683
91530.5 3.21870
91534.3 4.06674
91538.2 5.45467
91541.6 7.36707
91545.0 10.0713
91551.8 16.6046
91555.2 18.3745
91558.6 18.2236
91565.5 14.8991
91570.4 12.4090
91575.3 10.4915
91580.2 9.08439
91585.1 8.05026
91595.0 6.67662
91604.8 5.83335
91614.6 5.27418
91624.5 4.88026
91644.1 4.36644
91663.8 4.04780
91683.5 3.83138
91722.8 3.55501
91762.1 3.38398
91801.4 3.26581
91880.1 3.10844
91958.7 3.00369
92037.4 2.92652
92076.7 2.89681
92116.0 2.87982
92135.7 2.88672
92155.3 2.93594
92165.2 3.01537
92175.0 3.23292
92179.9 3.50040
92184.8 4.10090
92187.3 4.71622
92189.8 5.83950
92191.0 6.76505
92192.2 8.11593
92193.4 10.1300
92194.7 13.0994
92196.5 19.5178
92198.3 23.9840
92200.1 19.9838
92201.9 13.6998
92203.6 9.93612
92205.2 7.67445
92206.8 6.29432
92208.5 5.41340
92211.7 4.41320
92215.0 3.89586
92221.5 3.40227
92228.0 3.18180
92241.0 2.99000
92254.1 2.90706
92280.1 2.83066
92306.2 2.79133
92358.3 2.74289
92410.4 2.70766
92514.6 2.64993
92618.8 2.59942
92827.2 2.50825
93035.6 2.42416
93244.0 2.34421
93452.4 2.26812
93556.6 2.23342
93660.8 2.20820
93712.9 2.20890
93765.0 2.24688
93791.0 2.31373
93804.0 2.38126
93817.1 2.49929
93830.1 2.72605
93836.6 2.92300
93843.1 3.22895
93849.6 3.73581
93856.1 4.64211
93862.7 6.42555
93865.9 7.96264
93869.2 10.1929
93874.3 15.2083
93879.3 18.6944
93884.4 15.5522
93889.5 10.6200
93895.4 7.04260
93901.3 5.19390
93907.2 4.18669
93913.1 3.59500
93919.0 3.22070
93924.9 2.97067
93936.7 2.66740
93948.4 2.49664
93960.2 2.39025
93983.8 2.26777
94007.4 2.19997
94031.0 2.15645
94078.1 2.10132
94172.4 2.03569
94266.7 1.98782
94455.3 1.90487
94643.9 1.82514
94832.4 1.74378
95021.0 1.65845
95209.6 1.56774
95303.9 1.52772
95327.5 1.52699
95351.1 1.55121
95362.9 1.59713
95374.6 1.73107
95380.5 1.90220
95386.4 2.29976
95389.4 2.72018
95392.3 3.51015
95393.8 4.18661
95395.3 5.19671
95396.7 6.75615
95398.2 9.17102
95400.2 14.0298
95402.2 17.3947
95404.2 14.3889
95406.2 9.69254
95407.5 7.54592
95408.7 6.05443
95411.2 4.27008
95413.8 3.33503
95416.3 2.79753
95421.4 2.24168
95426.4 1.97551
95436.5 1.73480
95446.7 1.62927
95466.9 1.53475
95487.1 1.48936
95527.6 1.43803
95568.1 1.40249
95730.0 1.28508
95891.9 1.16278
96053.8 1.02139
96215.8 0.851847
96377.7 0.653626
96458.6 0.563120
96539.6 0.544311
96580.1 0.623304
96620.6 0.856966
96640.8 1.08406
96661.0 1.43588
96681.3 1.97582
96701.5 2.79449
96723.3 4.12084
96745.1 6.01873
96788.7 10.6434
96810.5 11.9319
96832.3 11.8983
96875.8 9.70348
96926.3 7.15028
96976.9 5.50880
97027.4 4.47864
97077.9 3.79752
97128.5 3.32002
97179.0 2.96786
97280.1 2.48013
97381.1 2.15109
97482.2 1.90561
97684.3 1.53770
97886.5 1.23911
98088.6 0.952689
98189.7 0.802119
98290.7 0.641969
98391.8 0.482449
98417.1 0.457061
98442.3 0.471842
98455.0 0.531389
98467.6 0.718504
98473.9 0.953036
98480.2 1.46741
98483.4 1.97338
98486.6 2.85050
98489.7 4.48975
98492.9 7.68855
98495.6 12.3282
98498.4 15.5519
98501.2 12.6686
98504.0 8.13902
98505.9 5.89231
98507.9 4.38690
98509.8 3.36879
98511.7 2.67133
98515.6 1.81293
98519.5 1.33254
98527.3 0.843658
98535.1 0.609349
98550.6 0.389024
98566.2 0.283138
98597.3 0.177876
98628.4 0.142657
98659.5 0.187596
98675.0 0.260891
98690.6 0.390968
98706.2 0.608570
98721.7 0.962587
98737.3 1.53109
98752.8 2.43168
98768.2 3.80451
98783.7 5.77149
98814.5 10.5563
98830.0 11.9497
98845.4 12.0951
98876.3 10.4535
98909.4 8.76508
98942.5 8.04480
98975.5 8.30585
99008.6 9.75884
99036.5 12.4543
99050.4 14.5507
99064.3 17.0523
99078.2 18.8475
99092.1 16.7905
99106.0 9.98756
99113.0 6.72827
99119.9 4.45089
99127.9 3.06665
99135.8 2.66483
99142.4 2.82706
99148.9 3.28200
99162.0 4.72950
99188.2 8.62136
99240.5 16.0081
99292.8 17.7432
99345.1 15.2519
99373.7 13.5627
99388.0 12.7677
99395.2 12.3925
99398.8 12.2279
99400.6 12.2164
99401.4 12.4017
99402.3 14.8007
99402.7 17.7965
99403.0 15.0054
99403.6 12.7139
99404.2 12.2589
99405.3 11.9974
99407.7 11.8074
99412.3 11.5580
99421.6 11.1200
99440.3 10.3291
99477.6 9.00775
99552.2 7.13986
99626.9 5.92905
99701.5 5.09869
99850.8 4.04724
100000 3.41075
100060 3.22056
100089 3.13501
100104 3.09473
100112 3.07853
100115 3.08498
100117 3.13823
100118 3.27512
100119 4.54300
100120 6.09923
100120 4.64462
100121 3.36355
100122 3.17330
100124 3.08819
100127 3.05111
100134 3.02350
100148 2.98537
100177 2.91723
100233 2.79382
100346 2.58231
100459 2.40564
100516 2.32706
100544 2.28949
100558 2.27130
100565 2.26496
100569 2.27589
100570 2.33818
100571 2.54850
100572 5.07542
100572 8.07980
100573 5.25906
100573 3.08044
100574 2.57778
100575 2.36220
100577 2.28734
100580 2.25778
100588 2.24011
100604 2.21836
100635 2.18048
100697 2.11023
100822 1.98275
101071 1.76492
101570 1.41541
102230 1.03028
102560 0.847615
102890 0.662761
103220 0.470066
103550 0.266045
103715 0.164746
103798 0.120517
103880 0.0907759
103921 0.0877679
103963 0.100068
104004 0.139187
104045 0.227192
104066 0.302905
104086 0.411453
104107 0.568632
104128 0.799043
104148 1.14494
104169 1.67090
104189 2.49401
104210 3.80947
104226 5.33412
104242 7.44640
104273 12.9720
104289 14.7985
104305 14.6471
104337 10.6480
104364 7.37784
104392 5.24044
104419 3.88784
104446 3.00364
104473 2.39717
104500 1.96618
104555 1.40285
104609 1.05719
104664 0.827963
104773 0.552169
104881 0.416790
104936 0.393020
104990 0.409234
105045 0.496976
105072 0.592046
105099 0.751387
105126 1.02407
105154 1.50986
105181 2.42188
105208 4.21969
105223 5.88457
105238 8.22007
105268 14.1397
105283 15.9988
105298 16.0530
105328 12.9631
105351 10.4904
105374 8.72260
105397 7.54948
105420 6.78808
105447 6.23950
105461 6.06744
105468 6.00621
105471 5.99849
105473 6.04827
105474 7.04238
105475 8.22530
105476 7.11291
105477 6.07133
105479 5.97316
105482 5.91944
105488 5.87691
105500 5.83377
105524 5.82724
105572 6.04480
105668 7.10978
105860 10.2642
105968 11.3375
106075 11.1935
106290 8.58587
106503 5.85335
106716 3.87770
106822 3.10880
106929 2.43805
106982 2.13274
107035 1.85252
107062 1.73323
107088 1.66291
107101 1.68807
107115 1.85968
107121 2.11042
107128 2.68206
107131 3.27823
107135 4.30290
107138 6.24696
107141 10.1286
107144 15.8317
107147 19.6815
107150 16.0891
107153 10.6883
107156 6.62936
107160 4.56076
107163 3.44281
107166 2.79889
107173 2.09276
107180 1.73397
107193 1.37294
107207 1.18356
107233 0.952668
107260 0.788378
107314 0.528669
107368 0.329966
107395 0.258344
107422 0.212691
107449 0.201999
107476 0.238852
107502 0.340469
107529 0.529852
107556 0.836673
107583 1.29496
107629 2.55736
107676 4.50478
107768 9.11590
107814 10.3355
107861 10.4792
107953 9.13927
107983 8.60205
108013 8.11925
108028 7.93297
108043 7.86477
108050 7.95620
108058 8.29892
108062 8.70426
108065 9.44382
108069 10.9046
108073 13.9114
108076 18.1514
108079 21.1210
108082 18.4425
108085 14.2064
108087 12.2427
108089 10.8684
108093 9.22492
108097 8.34692
108101 7.83390
108109 7.24691
108117 6.91537
108133 6.51213
108149 6.23879
108180 5.81884
108212 5.47558
108275 4.90577
108339 4.43974
108465 3.71066
108592 3.15738
108718 2.71408
108845 2.34395
108908 2.17914
108972 2.02719
109035 1.90438
109051 1.89442
109067 1.92822
109075 1.99695
109082 2.18198
109086 2.39583
109090 2.81194
109094 3.79762
109096 4.79673
109098 6.36505
109101 9.25043
109103 11.2910
109105 9.47883
109107 6.60948
109110 4.51934
109113 3.47698
109115 2.90172
109118 2.55861
109123 2.18538
109128 2.00284
109139 1.82470
109149 1.73651
109170 1.63820
109191 1.57296
109275 1.37848
109359 1.20806
109443 1.04540
109611 0.737648
109695 0.598357
109737 0.536069
109758 0.507798
109769 0.495690
109774 0.495896
109777 0.518818
109778 0.596655
109779 1.79655
109780 3.18963
109780 1.87525
109782 0.578702
109784 0.511912
109787 0.485280
109794 0.470261
109808 0.453947
109835 0.430258
109890 0.411373
109945 0.447914
110000 0.575044
110035 0.728556
110070 0.962963
110105 1.30588
110140 1.79114
110201 3.09571
110263 5.08005
110385 9.84103
110508 11.5423
110631 10.7086
110761 9.68051
110890 9.15255
111086 9.26109
111183 9.66682
111208 9.80958
111232 9.98665
111244 10.1102
111257 10.3166
111263 10.5167
111269 10.9321
111272 11.3649
111275 12.1591
111276 12.8999
111278 13.9818
111279 15.7135
111281 18.5237
111283 23.9665
111285 27.5948
111287 24.1598
111288 19.1305
111290 15.8685
111292 14.0137
111294 12.9327
111296 12.2678
111299 11.5462
111303 11.2024
111310 10.9015
111317 10.8031
111331 10.7859
111345 10.8487
111374 11.0484
111403 11.2861
111517 12.3950
111631 13.6238
111688 14.2478
111716 14.6010
111724 14.7366
111731 14.9750
111734 15.2223
111738 15.7268
111740 16.2459
111741 17.2010
111743 19.1768
111744 20.9610
111745 23.3343
111746 28.7674
111748 32.6278
111749 29.3583
111750 24.1929
111751 20.9606
111753 19.0612
111755 17.1409
111758 16.3312
111760 15.9298
111765 15.5780
111770 15.4489
111780 15.3934
111790 15.4257
111814 15.5952
111826 15.7045
111832 15.8073
111835 16.0188
111837 16.5175
111838 17.4919
111838 20.7025
111839 26.0229
111840 21.0990
111841 17.6132
111841 16.7036
111843 16.1873
111846 15.9906
111853 15.9673
111866 16.0583
111892 16.3208
111905 16.5071
111918 16.8029
111924 17.0477
111931 17.4348
111937 18.1061
111944 19.3421
111950 21.2022
111956 22.4929
111962 21.4032
111968 19.6843
111974 18.5929
111979 17.9759
111985 17.6148
111991 17.3948
112002 17.1631
112014 17.0614
112037 16.9916
112059 16.9773
112151 16.9070
112334 16.1441
112700 13.1806
113239 9.17970
113778 6.66253
114048 5.78674
114317 5.08688
114452 4.80188
114587 4.59230
114654 4.55604
114721 4.65855
114755 4.84348
114789 5.25481
114806 5.63239
114822 6.21798
114839 7.14977
114856 8.62895
114878 11.5298
114900 13.5965
114923 11.7565
114945 8.80366
114959 7.49731
114973 6.57387
115000 5.43797
115036 4.68476
115071 4.27449
115106 4.01565
115142 3.83336
115213 3.58062
115283 3.40070
115354 3.26189
115425 3.17082
115460 3.16706
115478 3.19188
115496 3.25442
115514 3.39442
115531 3.71996
115540 4.04483
115549 4.59650
115558 5.61780
115567 7.53526
115575 10.4371
115583 12.4634
115591 10.6188
115599 7.71762
115604 6.40569
115609 5.49984
115619 4.40753
115629 3.82492
115639 3.48314
115659 3.11430
115679 2.92369
115700 2.80373
115720 2.71838
115760 2.59442
115840 2.41535
115920 2.26432
116241 1.69724
116401 1.41936
116561 1.20244
116642 1.18358
116722 1.33944
116762 1.55171
116802 1.93006
116842 2.59774
116862 3.12333
116882 3.90568
116893 4.54850
116904 5.53208
116915 7.32934
116920 8.89614
116926 11.3135
116932 15.6488
116939 18.8170
116945 16.6981
116952 13.1066
116958 10.9872
116964 9.91171
116977 9.25445
116989 9.44785
117001 9.96973
117050 12.7707
117092 14.3464
117134 14.4626
117217 12.1202
117277 10.1747
117337 8.59974
117397 7.39129
117456 6.46773
117576 5.17214
117696 4.30896
117935 3.18560
118175 2.40046
118414 1.71280
118534 1.36370
118653 0.994308
118773 0.600003
118893 0.212658
118953 0.0736909
118983 0.0472057
119012 0.0768883
119042 0.203144
119057 0.323921
119072 0.499351
119087 0.751244
119102 1.10272
119117 1.59472
119132 2.26781
119148 3.22438
119163 4.50599
119194 8.08067
119214 10.6625
119255 14.0001
119295 15.2582
119346 16.8885
119422 17.0162
119498 14.1843
119582 11.1745
119665 9.10273
119749 7.72817
119832 6.80618
119916 6.21111
119999 5.94551
120041 6.00283
120083 6.30618
120124 7.10805
120166 8.96866
120201 11.6904
120235 13.6238
120270 11.8198
120304 8.96334
120330 7.44442
120356 6.42613
120408 5.25136
120459 4.62689
120511 4.24602
120563 3.99574
120615 3.85632
120641 3.85917
120654 3.90309
120666 4.00431
120679 4.22299
120692 4.70787
120699 5.17501
120705 5.93451
120712 7.26977
120718 9.58774
120725 13.5225
120732 16.3143
120739 13.9213
120746 10.1029
120753 7.59907
120759 6.18251
120766 5.33203
120773 4.80585
120787 4.20445
120800 3.88686
120814 3.69090
120828 3.55800
120855 3.38497
120883 3.27016
120910 3.18363
120964 3.05100
121074 2.85515
121183 2.70603
121231 2.65911
121278 2.64721
121302 2.68505
121325 2.83266
121337 3.03372
121343 3.21325
121349 3.49741
121355 3.98570
121361 4.86356
121367 6.62215
121370 8.18762
121373 10.4120
121377 15.5158
121382 19.0311
121387 15.9323
121391 11.0991
121395 8.42056
121398 6.70211
121402 5.59393
121405 4.85553
121413 3.97872
121420 3.50245
121427 3.21529
121434 3.02786
121449 2.80284
121463 2.67424
121477 2.59076
121506 2.48602
121564 2.36986
121621 2.29845
121679 2.25466
121737 2.26246
121765 2.32403
121780 2.39374
121794 2.51882
121809 2.75662
121823 3.25743
121830 3.72581
121837 4.49416
121845 5.82019
121852 8.11696
121859 11.9711
121867 14.7032
121875 12.3748
121882 8.63225
121888 6.61193
121894 5.32145
121900 4.46475
121906 3.89832
121917 3.21136
121929 2.83337
121941 2.60272
121952 2.45026
121976 2.26345
121999 2.15297
122023 2.07833
122069 1.97854
122116 1.90872
122163 1.85245
122256 1.75859
122444 1.59971
122631 1.45496
123005 1.17916
123379 0.911485
123481 0.844116
123583 0.789726
123633 0.778408
123684 0.805641
123710 0.862694
123735 1.00881
123748 1.16401
123761 1.44798
123773 2.01304
123780 2.50493
123786 3.20933
123796 4.85663
123806 6.01212
123817 5.01350
123827 3.43259
123835 2.49705
123844 1.92136
123853 1.56244
123862 1.33117
123879 1.05879
123897 0.914066
123932 0.771446
123967 0.707404
124037 0.667489
124107 0.696621
124178 0.800005
124248 1.01590
124318 1.42015
124388 2.14529
124443 3.07008
124498 4.41858
124608 7.98827
124663 9.17934
124718 9.29648
124828 7.49507
124914 5.90407
125000 4.69711
125000 5.74525
128263 5.65774
130000 5.67266
140000 5.48754
150000 5.32091
170000 5.06772
200000 4.68795
240000 4.34025
250000 4.27961
300000 3.97639
350000 3.79821
400000 3.62004
500000 3.42606
550000 3.36228
600000 3.31785
700000 3.25244
800000 3.18636
800000 3.18636
900000 3.15319
900000 3.15319
950000 3.13998
950000 3.13998
999999 3.11474
1.00233E+06 3.11084
1.10000E+06 3.09728
1.20000E+06 3.11528
1.25000E+06 3.12337
1.30000E+06 3.13082
1.31277E+06 3.11376
1.31584E+06 3.11211
1.31674E+06 3.11206
1.40000E+06 3.14503
1.50000E+06 3.17521
1.55642E+06 3.14839
1.60000E+06 3.18646
1.70000E+06 3.21465
1.80000E+06 3.26006
1.90000E+06 3.30481
1.91867E+06 3.29823
2.00000E+06 3.34905
2.05220E+06 3.34994
2.23879E+06 3.42235
2.25000E+06 3.44002
2.25567E+06 3.43726
2.29381E+06 3.43141
2.30851E+06 3.43328
2.32288E+06 3.44090
2.35389E+06 3.46173
2.40000E+06 3.49403
2.40924E+06 3.48772
2.42370E+06 3.48383
2.44245E+06 3.48319
2.47108E+06 3.49158
2.50000E+06 3.51199
2.61021E+06 3.51124
2.62941E+06 3.51330
2.66984E+06 3.52296
2.74407E+06 3.54517
2.75000E+06 3.54822
2.77739E+06 3.53812
2.79133E+06 3.53546
2.80323E+06 3.53459
2.87392E+06 3.54352
2.87549E+06 3.54406
2.88037E+06 3.54672
2.90000E+06 3.56690
2.92604E+06 3.56976
2.97000E+06 3.57687
2.97870E+06 3.57829
3.00000E+06 3.58562
3.00768E+06 3.58505
3.03079E+06 3.58385
3.03879E+06 3.58361
3.04670E+06 3.58355
3.06109E+06 3.58399
3.08360E+06 3.58515
3.09166E+06 3.58574
3.09327E+06 3.58591
3.09571E+06 3.58620
3.50000E+06 3.64357
4.00000E+06 3.69567
4.50000E+06 3.70714
5.00000E+06 3.69689
5.50000E+06 3.68173
6.00000E+06 3.64610
7.00000E+06 3.51523
8.00000E+06 3.34213
8.00000E+06 3.34213
8.50000E+06 3.25440
8.50000E+06 3.25440
9.00000E+06 3.16815
9.00000E+06 3.16815
9.50000E+06 3.08448
9.50000E+06 3.08448
1.00000E+07 3.00392
1.04138E+07 2.93983
1.05000E+07 2.92660
1.10000E+07 2.85268
1.15000E+07 2.78220
1.20000E+07 2.71535
1.25000E+07 2.65231
1.30000E+07 2.59330
1.35000E+07 2.53857
1.40000E+07 2.48845
1.45000E+07 2.44289
1.50000E+07 2.40211
1.55000E+07 2.36590
1.60000E+07 2.33419
1.65000E+07 2.30671
1.70000E+07 2.28318
1.75000E+07 2.26322
1.80000E+07 2.24651
1.85000E+07 2.23272
1.90000E+07 2.22156
1.95000E+07 2.21271
1.95159E+07 2.21250
2.00000E+07 2.20595
2.10000E+07 2.19790
2.20000E+07 2.19611
2.30000E+07 2.19949
2.40000E+07 2.20731
2.50000E+07 2.21885
2.60000E+07 2.23338
2.80000E+07 2.26883
3.00000E+07 2.30835
3.17912E+07 2.34376
3.20000E+07 2.34788
3.21758E+07 2.35112
3.40000E+07 2.38472
3.60000E+07 2.41695
3.80000E+07 2.44386
4.00000E+07 2.46487
4.50000E+07 2.49113
5.00000E+07 2.48293
5.50000E+07 2.44677
6.00000E+07 2.38991