Fe-56(n,tot) ENDF/B-VII.1
Energy(eV) XS(b)
1.00000E-05 142.259
1.25000E-05 128.513
1.50000E-05 118.365
2.00000E-05 104.122
2.75000E-05 90.5695
3.50000E-05 81.6502
4.25000E-05 75.2113
5.00000E-05 70.2820
6.25000E-05 64.1344
7.50000E-05 59.5964
0.000100000 53.2266
0.000125000 48.8796
0.000150000 45.6708
0.000200000 41.1666
0.000275000 36.8810
0.000350000 34.0604
0.000425000 32.0243
0.000500000 30.4655
0.000625000 28.5214
0.000750000 27.0864
0.00100000 25.0721
0.00125000 23.6975
0.00150000 22.6827
0.00200000 21.2584
0.00275000 19.9031
0.00350000 19.0112
0.00425000 18.3673
0.00500000 17.8744
0.00625000 17.2596
0.00750000 16.8058
0.0100000 16.1688
0.0125000 15.7341
0.0150000 15.4132
0.0200000 14.9628
0.0253000 14.6399
0.0314750 14.3721
0.0376500 14.1732
0.0500000 13.8925
0.0625000 13.6980
0.0750000 13.5545
0.100000 13.3529
0.125000 13.2153
0.150000 13.1138
0.200000 12.9711
0.275000 12.8353
0.350000 12.7457
0.414000 12.6894
0.414000 12.6894
0.414001 12.6894
0.414002 12.6894
0.414003 12.6894
0.414005 12.6894
0.414011 12.6894
0.414021 12.6894
0.414042 12.6894
0.414084 12.6893
0.414168 12.6893
0.414336 12.6891
0.414672 12.6889
0.415344 12.6884
0.416688 12.6873
0.419375 12.6853
0.424750 12.6812
0.435500 12.6733
0.457000 12.6584
0.500000 12.6314
0.625000 12.5694
0.750000 12.5235
1.00000 12.4587
1.50000 12.3811
2.00000 12.3340
2.75000 12.2880
3.50000 12.2567
5.00000 12.2146
7.50000 12.1707
10.0000 12.1404
15.0000 12.0963
20.0000 12.0620
27.5000 12.0186
35.0000 11.9801
50.0000 11.9101
75.0000 11.8037
100.000 11.7038
150.000 11.5155
200.000 11.3381
275.000 11.0880
350.000 10.8543
500.000 10.4282
750.000 9.81754
999.999 9.30430
1000.00 9.30430
1000.01 9.30429
1000.01 9.30428
1000.02 9.30426
1000.04 9.30423
1000.07 9.30416
1000.15 9.30402
1000.29 9.30375
1000.59 9.30320
1001.17 9.30210
1002.34 9.29991
1004.67 9.29553
1009.34 9.28679
1018.67 9.26941
1037.35 9.23509
1074.69 9.16891
1093.37 9.13839
1102.70 9.12484
1112.04 9.11399
1121.37 9.10984
1126.04 9.11396
1130.71 9.12832
1133.04 9.14325
1135.38 9.16825
1137.71 9.21187
1140.05 9.29415
1141.21 9.36431
1142.38 9.47166
1143.55 9.64683
1144.71 9.96001
1145.30 10.2182
1145.88 10.6023
1146.47 11.2116
1147.05 12.2576
1147.63 14.2866
1147.92 16.0980
1148.22 19.0055
1148.51 24.1230
1148.80 34.2344
1148.95 43.3171
1149.09 57.7892
1149.24 81.9906
1149.38 122.872
1149.54 191.244
1149.70 236.856
1149.86 191.269
1150.02 122.908
1150.14 86.9388
1150.26 64.1135
1150.39 49.4099
1150.51 39.6419
1150.75 28.1340
1151.00 21.9855
1151.24 18.3589
1151.48 16.0542
1151.97 13.4118
1152.46 12.0147
1152.95 11.1922
1153.44 10.6669
1153.92 10.3112
1154.90 9.87381
1155.88 9.62561
1156.85 9.47079
1157.83 9.36772
1159.78 9.24248
1161.74 9.17148
1163.69 9.12674
1165.64 9.09623
1169.55 9.05724
1173.45 9.03281
1177.36 9.01536
1181.27 9.00167
1189.08 8.98007
1196.89 8.96232
1212.51 8.93155
1243.76 8.87656
1275.01 8.82461
1400.00 8.62901
1400.00 8.62900
1400.01 8.62899
1400.01 8.62899
1400.02 8.62897
1400.04 8.62894
1400.09 8.62887
1400.17 8.62875
1400.34 8.62849
1400.69 8.62797
1401.37 8.62694
1402.74 8.62489
1405.47 8.62078
1410.94 8.61258
1421.88 8.59626
1443.75 8.56390
1487.51 8.50033
1575.01 8.37753
1787.50 8.10098
2000.00 7.85114
2000.00 7.85114
2000.01 7.85113
2000.01 7.85113
2000.02 7.85111
2000.04 7.85109
2000.09 7.85104
2000.17 7.85095
2000.34 7.85076
2000.68 7.85038
2001.37 7.84961
2002.73 7.84809
2005.46 7.84504
2010.91 7.83895
2021.82 7.82683
2043.64 7.80275
2087.28 7.75528
2174.56 7.66299
2261.84 7.57406
2305.49 7.53082
2327.31 7.50961
2338.22 7.49953
2343.67 7.49618
2346.40 7.50015
2347.76 7.51817
2348.44 7.56092
2348.79 7.62732
2349.13 7.80980
2349.31 8.00307
2349.50 8.13095
2349.69 8.00173
2349.88 7.80923
2350.19 7.63301
2350.51 7.56493
2351.15 7.51814
2352.42 7.49559
2354.96 7.48568
2360.03 7.47858
2370.19 7.46823
2390.51 7.44870
2431.14 7.41038
2512.41 7.33562
2674.94 7.19290
3000.00 6.93152
3000.00 6.93152
3000.01 6.93151
3000.01 6.93151
3000.03 6.93150
3000.05 6.93148
3000.10 6.93144
3000.20 6.93137
3000.39 6.93122
3000.78 6.93093
3001.55 6.93034
3003.10 6.92916
3006.20 6.92681
3012.41 6.92211
3033.11 6.90651
3053.82 6.89101
3095.22 6.86033
3178.04 6.80020
3343.67 6.68462
3674.94 6.47023
4500.00 6.01359
4500.00 6.01359
4500.01 6.01359
4500.02 6.01358
4500.03 6.01357
4500.06 6.01356
4500.12 6.01353
4500.25 6.01347
4500.49 6.01334
4500.98 6.01310
4501.96 6.01261
4503.91 6.01164
4507.81 6.00970
4515.63 6.00581
4531.25 5.99807
4562.50 5.98265
4625.00 5.95216
4750.00 5.89244
5000.00 5.77777
5000.00 5.77777
5000.01 5.77777
5000.01 5.77777
5000.02 5.77776
5000.05 5.77775
5000.09 5.77773
5000.19 5.77769
5000.37 5.77761
5000.73 5.77744
5001.47 5.77712
5002.93 5.77646
5005.86 5.77516
5011.72 5.77254
5023.44 5.76733
5046.88 5.75693
5093.75 5.73630
5187.50 5.69560
5375.00 5.61644
5750.00 5.46622
6500.00 5.19307
6500.00 5.19306
6500.01 5.19306
6500.02 5.19306
6500.03 5.19305
6500.06 5.19304
6500.12 5.19302
6500.25 5.19298
6500.49 5.19290
6500.98 5.19273
6501.96 5.19239
6503.91 5.19172
6507.81 5.19038
6515.63 5.18771
6531.25 5.18236
6562.50 5.17170
6625.00 5.15054
6750.00 5.10876
7000.00 5.02734
7500.00 4.87212
9000.00 4.45351
9000.00 4.45351
9000.01 4.45351
9000.02 4.45351
9000.03 4.45350
9000.06 4.45349
9000.12 4.45348
9000.25 4.45345
9000.49 4.45338
9000.98 4.45326
9001.96 4.45300
9003.91 4.45249
9007.81 4.45147
9015.63 4.44944
9031.25 4.44538
9062.50 4.43726
9125.00 4.42109
9250.00 4.38897
9500.00 4.32558
9999.99 4.20184
10000.0 4.20184
10000.1 4.20182
10000.2 4.20180
10000.3 4.20176
10000.6 4.20169
10001.2 4.20154
10002.4 4.20125
10004.8 4.20067
10009.6 4.19950
10019.1 4.19717
10038.3 4.19252
10076.5 4.18322
10153.0 4.16469
10306.0 4.12785
10612.0 4.05498
11223.9 3.91199
11835.8 3.77176
12141.8 3.70236
12294.8 3.66778
12371.3 3.65052
12409.5 3.64192
12428.7 3.63774
12438.2 3.63610
12443.0 3.63701
12445.4 3.64364
12446.6 3.66664
12447.2 3.72829
12447.5 3.84715
12447.8 4.30637
12448.0 4.97858
12448.2 4.30783
12448.6 3.82858
12448.9 3.71873
12449.5 3.66230
12450.8 3.64138
12453.4 3.63442
12458.6 3.63147
12468.9 3.62867
12489.6 3.62388
12531.0 3.61451
12613.8 3.59585
12779.5 3.55858
13110.7 3.48407
13773.1 3.33473
15098.0 3.03062
16422.9 2.71119
17085.3 2.54238
17416.5 2.45505
17582.2 2.41056
17665.0 2.38811
17706.4 2.37691
17727.1 2.37165
17737.4 2.37045
17742.6 2.37544
17745.2 2.39812
17746.5 2.47371
17747.1 2.67913
17747.4 3.07377
17747.6 3.58357
17747.8 4.78605
17748.0 7.20709
17748.2 4.79480
17748.5 3.20113
17748.8 2.76240
17749.3 2.51001
17750.4 2.40948
17752.6 2.37676
17757.0 2.36638
17765.8 2.36147
17783.4 2.35596
17818.6 2.34610
17889.0 2.32659
18029.7 2.28733
18311.2 2.20738
18874.1 2.04114
20000.0 1.67889
20000.0 1.67888
20000.1 1.67887
20000.1 1.67885
20000.2 1.67883
20000.3 1.67877
20000.7 1.67866
20001.3 1.67844
20002.6 1.67799
20005.3 1.67709
20010.5 1.67530
20021.0 1.67172
20041.9 1.66454
20083.8 1.65014
20125.7 1.63574
20146.7 1.62881
20157.2 1.62649
20162.4 1.62954
20165.0 1.64514
20166.3 1.69249
20167.0 1.79617
20167.6 2.36108
20168.0 3.10067
20168.4 2.36086
20169.0 1.79851
20169.7 1.69298
20170.9 1.64386
20173.5 1.62592
20178.7 1.61908
20188.9 1.61412
20209.5 1.60658
20250.6 1.59207
20332.9 1.56301
20497.3 1.50411
20826.3 1.38298
21484.2 1.12695
22142.1 0.853283
22471.0 0.711229
22635.5 0.639662
22717.8 0.604854
22758.9 0.591831
22779.4 0.602354
22784.6 0.619453
22789.7 0.668821
22792.3 0.733573
22794.9 0.895140
22796.2 1.08439
22797.4 1.49055
22798.1 1.89205
22798.7 2.60179
22799.4 3.97947
22799.7 5.15191
22800.0 6.84393
22800.5 10.6786
22801.0 13.1857
22801.5 10.6246
22802.0 6.87628
22802.4 4.88696
22802.8 3.61583
22803.6 2.26926
22804.3 1.62697
22805.1 1.28804
22806.7 0.957728
22808.2 0.810695
22811.3 0.685272
22814.4 0.634644
22820.6 0.593446
22826.8 0.576289
22851.5 0.550585
22901.0 0.524915
23000.0 0.480720
23000.0 0.480711
23000.1 0.480681
23000.1 0.480654
23000.3 0.480602
23000.5 0.480493
23001.0 0.480274
23002.0 0.479836
23004.0 0.478960
23008.0 0.477215
23016.0 0.473728
23031.9 0.466767
23063.9 0.452895
23127.7 0.425324
23255.4 0.370887
23510.8 0.265929
24021.5 0.0870933
24149.2 0.0537549
24276.9 0.0274539
24340.7 0.0174765
24404.6 0.00995001
24468.4 0.00515816
24532.3 0.00341909
24596.1 0.00508816
24660.0 0.0105610
24723.8 0.0202824
24787.6 0.0347449
24851.5 0.0545089
24915.3 0.0801916
25043.0 0.152212
25170.7 0.257557
25298.4 0.404816
25426.1 0.605026
25553.8 0.872432
25809.1 1.68916
26064.5 3.08698
26319.9 5.48066
26575.3 9.63049
26830.6 16.9344
27086.0 29.7715
27438.5 61.0236
27791.0 93.3837
27967.3 96.2237
28143.5 89.4231
28496.0 66.6818
28777.5 51.5958
29059.0 40.9236
29340.5 33.4896
29622.0 28.2017
30185.0 21.4070
30748.0 17.3526
31311.0 14.7112
31874.0 12.8722
33000.0 10.4987
33000.0 10.4986
33000.1 10.4985
33000.2 10.4984
33000.3 10.4981
33000.6 10.4977
33001.2 10.4967
33002.4 10.4948
33004.8 10.4909
33009.6 10.4832
33019.3 10.4678
33038.5 10.4373
33077.1 10.3769
33154.1 10.2591
33308.2 10.0342
33616.3 9.62352
33770.4 9.43551
33924.5 9.25787
34001.5 9.17279
34078.5 9.09046
34155.6 9.01375
34194.1 8.99103
34203.7 8.99837
34213.4 9.03546
34218.2 9.09218
34223.0 9.24527
34225.4 9.43562
34227.8 9.87585
34229.0 10.3521
34230.2 11.2712
34230.8 12.0807
34231.4 13.3444
34232.0 15.4001
34232.6 18.7896
34233.3 24.7585
34234.0 28.7716
34234.7 24.8079
34235.4 18.8488
34236.0 15.4100
34236.6 13.3371
34237.2 12.0691
34237.8 11.2593
34239.1 10.3416
34240.3 9.87155
34242.7 9.42682
34245.1 9.23173
34250.0 9.06748
34254.9 8.99989
34264.6 8.94163
34274.3 8.91380
34313.2 8.85671
34391.0 8.77613
34546.5 8.62934
34702.1 8.49067
34857.7 8.35868
35479.9 7.88736
36102.2 7.48970
36413.3 7.31302
36568.9 7.22953
36646.7 7.18961
36685.6 7.17369
36705.0 7.18230
36714.7 7.25166
36719.6 7.51812
36720.8 7.76521
36722.0 8.35929
36722.6 9.03710
36723.2 10.4564
36723.9 14.1206
36724.2 18.2544
36724.5 26.2629
36724.7 37.9231
36725.0 45.5754
36725.3 38.0825
36725.5 26.4615
36725.8 20.5219
36726.0 16.5994
36726.4 12.4662
36726.8 10.4629
36727.2 9.41559
36728.0 8.38589
36728.9 7.92915
36730.5 7.53906
36732.2 7.38216
36738.8 7.20990
36752.0 7.15489
36778.4 7.12793
36831.3 7.09753
36937.0 7.04438
37148.5 6.94368
37571.5 6.75599
37994.5 6.58379
38206.0 6.50285
38311.8 6.46384
38364.6 6.44612
38391.1 6.44391
38404.3 6.46937
38410.9 6.58163
38412.6 6.69089
38414.2 6.97180
38415.0 7.31611
38415.9 8.09760
38416.3 8.95229
38416.7 10.5689
38417.1 14.1685
38417.3 17.7992
38417.5 23.4580
38417.8 33.9258
38418.0 40.6134
38418.2 34.0276
38418.5 23.5804
38418.7 17.2720
38419.0 13.6332
38419.4 10.0843
38419.9 8.59688
38420.4 7.86560
38421.3 7.18359
38422.2 6.89145
38424.1 6.65147
38425.9 6.55816
38433.4 6.45744
38448.3 6.42475
38478.1 6.40654
38537.7 6.38323
38657.0 6.34090
38895.5 6.25992
39372.5 6.10777
40326.4 5.83604
42234.4 5.39021
44142.3 5.03373
44619.3 4.95472
45096.3 4.87915
45334.8 4.84276
45573.3 4.80800
45692.6 4.79227
45811.8 4.78099
45871.4 4.78156
45901.2 4.78674
45931.1 4.80014
45960.9 4.83422
45975.8 4.87049
45990.7 4.93811
46005.6 5.08279
46013.0 5.22440
46020.5 5.47531
46024.2 5.68028
46027.9 5.98302
46031.7 6.45617
46035.4 7.25117
46039.1 8.74523
46041.0 10.0287
46042.8 12.0192
46044.7 15.3452
46046.6 21.3451
46047.5 26.2680
46048.4 33.4384
46049.4 44.1157
46050.3 59.9989
46051.7 93.4366
46053.0 115.775
46054.4 93.7532
46055.7 60.5974
46057.2 38.2020
46058.6 26.0770
46060.0 19.2697
46061.5 15.1856
46062.9 12.5786
46064.4 10.8256
46067.2 8.70618
46070.1 7.52047
46073.0 6.79745
46078.7 5.99491
46084.5 5.58409
46090.2 5.34590
46096.0 5.19539
46101.7 5.09410
46113.2 4.97003
46124.7 4.89935
46147.7 4.82487
46170.7 4.78734
46193.7 4.76491
46239.7 4.73871
46331.7 4.71091
46423.8 4.69246
46607.8 4.66262
46791.8 4.63572
47159.8 4.58482
47527.9 4.53590
49000.0 4.35211
49000.0 4.35211
49000.1 4.35210
49000.1 4.35210
49000.3 4.35208
49000.5 4.35205
49001.0 4.35200
49002.0 4.35188
49003.9 4.35164
49007.8 4.35118
49015.6 4.35024
49031.3 4.34838
49062.5 4.34465
49125.0 4.33722
49250.0 4.32243
49500.0 4.29313
50000.0 4.23564
50532.8 4.17609
50799.2 4.14716
51065.6 4.11922
51332.0 4.09353
51465.2 4.08277
51598.4 4.07558
51731.6 4.07763
51798.2 4.08749
51864.8 4.11217
51898.1 4.13582
51931.4 4.17417
51964.7 4.23961
51998.0 4.36082
52014.6 4.46274
52031.3 4.61665
52047.9 4.86336
52064.6 5.29259
52081.2 6.13363
52089.6 6.89139
52097.9 8.11975
52106.2 10.2967
52114.5 14.6394
52118.7 18.5787
52122.8 24.9147
52127.0 35.6421
52131.2 54.2092
52135.6 84.6351
52140.0 105.211
52144.4 85.3344
52148.8 55.0527
52151.6 41.6081
52154.4 32.2020
52159.9 21.0386
52165.4 15.2030
52170.9 11.8765
52176.4 9.81983
52181.9 8.47217
52193.0 6.87524
52204.0 6.00333
52215.0 5.47712
52237.1 4.89965
52259.1 4.60554
52281.2 4.43493
52303.2 4.32655
52325.3 4.25297
52369.4 4.16123
52413.5 4.10721
52457.6 4.07176
52501.7 4.04653
52589.9 4.01220
52678.1 3.98875
52854.5 3.95549
53030.9 3.92987
53207.3 3.90742
53383.7 3.88663
53471.9 3.87759
53516.0 3.87894
53538.1 3.90540
53549.1 4.01884
53551.9 4.13011
53554.6 4.41561
53556.0 4.76322
53557.4 5.55917
53558.1 6.40042
53558.8 8.00818
53559.5 11.5376
53559.8 14.8733
53560.1 20.3426
53560.6 30.2384
53561.0 37.1033
53561.4 30.4764
53561.9 20.6319
53562.3 13.9859
53562.8 10.3480
53563.7 7.06311
53564.6 5.74090
53565.5 5.09390
53567.3 4.51042
53569.0 4.26478
53572.6 4.06376
53576.2 3.98499
53590.6 3.89957
53619.3 3.87197
53648.0 3.86350
53662.4 3.86093
53669.6 3.86160
53673.2 3.87007
53675.0 3.90430
53675.9 4.01107
53676.3 4.25966
53676.8 5.73755
53677.0 7.67765
53677.2 5.79869
53677.6 4.45575
53677.9 4.12584
53678.6 3.95527
53680.0 3.88957
53682.7 3.86779
53688.1 3.86032
53698.9 3.85665
53720.6 3.85302
53764.0 3.84740
53850.8 3.83740
54024.3 3.81861
54371.3 3.78242
55065.3 3.71204
56453.3 3.57416
57841.3 3.43653
58535.4 3.36654
58882.4 3.33159
58969.1 3.32404
59055.9 3.32067
59099.3 3.32560
59142.6 3.35112
59164.3 3.39315
59175.2 3.43716
59186.0 3.51882
59196.9 3.69281
59202.3 3.86208
59207.7 4.15937
59213.1 4.74967
59215.8 5.28796
59218.5 6.17280
59221.2 7.76721
59222.6 9.08974
59224.0 11.0405
59225.3 14.1122
59226.7 19.1683
59228.0 28.1651
59229.4 44.4658
59230.7 69.6733
59232.0 86.6166
59233.3 70.2111
59234.6 45.4130
59236.1 27.7585
59237.6 18.6286
59239.1 13.6107
59240.6 10.6760
59242.1 8.81310
59243.6 7.57924
59246.6 6.08874
59249.6 5.26325
59252.6 4.75946
59258.6 4.20164
59264.5 3.91527
59270.5 3.74839
59282.5 3.57042
59294.4 3.48149
59306.4 3.43010
59330.3 3.37486
59378.1 3.32880
59426.0 3.30792
59521.6 3.28533
59617.3 3.27035
59808.7 3.24635
60000.0 3.22474
60000.0 3.22474
60868.3 3.13103
61736.7 3.03594
62605.0 2.93687
63039.2 2.88515
63256.2 2.85829
63364.8 2.84448
63419.1 2.83954
63446.2 2.85057
63459.8 2.91764
63466.5 3.18703
63468.2 3.44495
63469.9 4.08492
63470.8 4.83565
63471.6 6.46340
63472.5 10.9352
63472.9 16.3929
63473.3 27.7621
63473.7 42.8646
63474.0 53.2941
63474.3 43.3708
63474.7 28.4005
63475.0 19.6463
63475.3 14.3927
63475.8 9.05135
63476.4 6.65849
63477.0 5.41390
63478.2 4.23570
63479.3 3.71686
63481.6 3.28195
63484.0 3.10765
63493.3 2.91586
63511.8 2.85623
63549.0 2.83383
63623.3 2.81858
63771.9 2.79765
64069.2 2.75870
64663.6 2.67927
65852.6 2.50636
67041.5 2.30658
68230.5 2.06603
69419.5 1.76010
70013.9 1.56917
70608.4 1.34083
71202.9 1.06094
71797.4 0.711648
72094.6 0.507581
72391.8 0.290514
72540.5 0.184422
72689.1 0.0898893
72763.4 0.0516198
72837.7 0.0235923
72912.0 0.0126230
72949.2 0.0256720
72967.7 0.0745552
72977.0 0.226950
72981.7 0.628506
72984.0 1.40685
72985.2 2.41517
72986.3 4.62542
72987.2 7.40478
72988.0 9.22508
72988.9 7.36228
72989.7 4.61593
72990.4 3.04713
72991.1 2.09048
72992.6 1.12482
72995.4 0.468481
73001.2 0.166569
73012.6 0.0649582
73035.5 0.0445716
73081.4 0.0688767
73127.2 0.117734
73173.0 0.189884
73218.9 0.290391
73264.7 0.426423
73356.4 0.845799
73448.0 1.56340
73539.7 2.77547
73631.3 4.81516
73723.0 8.21928
73799.5 12.6229
73876.0 18.7626
74029.0 32.8399
74105.5 36.2055
74182.0 35.4716
74335.0 28.0453
74506.6 20.2553
74678.1 15.2781
74849.7 12.1568
75021.3 10.1008
75192.8 8.67084
75364.4 7.62801
75707.5 6.21551
76050.7 5.29992
76393.8 4.64952
76737.0 4.15379
76822.7 4.04657
76908.5 3.94520
76994.3 3.85453
77037.2 3.84134
77047.9 3.86623
77058.6 3.95654
77064.0 4.08518
77069.4 4.42154
77072.0 4.82653
77074.7 5.73084
77076.1 6.65501
77077.4 8.34751
77078.1 9.74965
77078.7 11.8093
77079.4 14.9076
77080.1 19.6215
77081.0 29.2957
77082.0 35.9714
77083.0 29.6948
77083.9 20.1029
77084.8 14.0832
77085.8 10.5988
77086.7 8.54657
77087.6 7.28261
77089.4 5.87363
77091.2 5.16183
77094.9 4.50051
77098.6 4.21359
77105.9 3.97113
77113.2 3.87020
77127.9 3.78141
77142.5 3.73789
77201.2 3.64740
77318.4 3.52309
77435.7 3.41157
77552.9 3.30606
78021.9 2.92177
78959.8 2.24166
79428.8 1.91051
79897.8 1.56963
80366.8 1.21822
80484.0 1.13588
80542.6 1.10025
80601.3 1.07431
80659.9 1.07296
80689.2 1.09500
80718.5 1.15380
80733.2 1.21051
80747.8 1.30164
80762.5 1.45477
80777.1 1.73080
80791.8 2.29014
80799.1 2.80701
80806.4 3.66523
80813.8 5.24007
80817.4 6.56647
80821.1 8.56895
80824.8 11.7901
80828.4 17.3226
80832.1 27.6418
80835.7 47.9237
80838.9 76.2167
80842.0 95.0896
80845.1 76.2215
80848.3 47.9302
80850.4 34.5071
80852.5 25.4810
80854.6 19.3866
80856.8 15.1833
80861.0 10.0333
80865.2 7.17304
80869.5 5.43832
80873.7 4.31825
80882.2 3.00907
80890.7 2.30289
80899.2 1.87953
80916.1 1.41548
80933.1 1.17636
80950.1 1.03395
80967.0 0.939776
80984.0 0.872357
81017.9 0.779545
81051.9 0.715053
81119.7 0.621073
81187.6 0.546374
81255.5 0.479817
81391.2 0.358640
81662.7 0.151193
81798.4 0.0721113
81866.3 0.0422574
81934.1 0.0209547
82002.0 0.0102337
82069.9 0.0126147
82137.7 0.0312082
82205.6 0.0698561
82273.5 0.133340
82341.3 0.227577
82409.2 0.359932
82477.1 0.539535
82612.8 1.08900
82748.5 2.00409
82884.3 3.47806
83020.0 5.78463
83172.0 9.76327
83324.0 15.4990
83628.0 28.6891
83780.0 31.9097
83932.0 31.6837
84236.0 26.3055
84426.3 22.6834
84616.7 19.6782
84997.4 15.4216
85378.0 12.7376
85758.7 10.9541
86139.4 9.70197
86520.1 8.78101
87281.4 7.52243
88042.8 6.70290
88804.1 6.12457
89184.8 5.89437
89375.1 5.79095
89565.5 5.69509
89755.8 5.60830
89851.0 5.57026
89946.1 5.53938
90041.3 5.52515
90088.9 5.53315
90136.5 5.56575
90160.3 5.60048
90184.1 5.65865
90207.9 5.75917
90231.6 5.94425
90255.4 6.32400
90267.3 6.67657
90279.2 7.26187
90291.1 8.32874
90297.1 9.21730
90303.0 10.5443
90309.0 12.6388
90314.9 16.1513
90320.9 22.4483
90326.8 34.1465
90332.4 51.7987
90338.0 63.9625
90343.6 52.6878
90349.2 35.1775
90353.8 25.4057
90358.4 19.3221
90363.0 15.4857
90367.6 12.9875
90376.8 10.0892
90386.0 8.56167
90395.3 7.66597
90404.5 7.09738
90422.9 6.44283
90441.3 6.09287
90459.7 5.88223
90478.1 5.74425
90496.6 5.64794
90533.4 5.52296
90570.2 5.44507
90607.1 5.39084
90643.9 5.34992
90717.6 5.28944
90791.2 5.24383
90938.6 5.17231
91085.9 5.11294
91233.3 5.05965
91528.0 4.96344
91822.7 4.87620
92117.3 4.79550
92412.0 4.72049
92559.4 4.68669
92633.1 4.67820
92669.9 4.70444
92688.3 4.82797
92692.9 4.94858
92697.5 5.25853
92699.8 5.63669
92702.1 6.51341
92703.3 7.45737
92704.4 9.30895
92705.6 13.5709
92706.2 17.9443
92706.7 25.2335
92707.4 37.5295
92708.0 45.7742
92708.6 37.5135
92709.3 25.1992
92709.7 19.4681
92710.1 15.5053
92711.0 11.0119
92711.8 8.74715
92712.7 7.48369
92714.4 6.21524
92716.1 5.63694
92719.5 5.13939
92722.9 4.93838
92729.7 4.78019
92736.5 4.71992
92763.8 4.65384
92818.3 4.62493
92872.9 4.60814
92900.1 4.60461
92913.8 4.63133
92920.6 4.77013
92924.0 5.27992
92925.7 6.72071
92926.5 9.63016
92927.0 13.5802
92927.4 22.5947
92927.7 33.7527
92928.0 41.4234
92928.3 34.4181
92928.6 23.4509
92929.0 14.7661
92929.4 10.6560
92930.2 7.38612
92931.8 5.64190
92935.0 4.94638
92941.4 4.71172
92954.1 4.63423
92979.6 4.60369
93030.6 4.58330
93132.7 4.55735
93336.7 4.51249
93744.8 4.42978
94561.0 4.28059
94969.1 4.21240
95377.2 4.14785
95785.3 4.08735
95989.4 4.06170
96091.4 4.05618
96142.4 4.06418
96167.9 4.08887
96180.6 4.16274
96187.0 4.40637
96190.2 5.16815
96191.8 7.13622
96192.6 10.8812
96193.0 15.6193
96193.4 25.4883
96193.7 38.3923
96194.0 46.7589
96194.3 38.3292
96194.6 25.3552
96194.9 17.5220
96195.2 13.0302
96195.7 8.67677
96196.9 5.87677
96199.1 4.64321
96203.6 4.23335
96212.6 4.12301
96230.6 4.11473
96248.5 4.14696
96266.5 4.21442
96284.5 4.35721
96293.5 4.49192
96302.5 4.71881
96311.5 5.14103
96316.0 5.50033
96320.4 6.04746
96324.9 6.93497
96329.4 8.47579
96333.9 11.3861
96338.4 17.1972
96342.2 25.3391
96346.0 30.9451
96349.8 25.7815
96353.6 17.7646
96357.9 12.0638
96362.2 9.08205
96366.5 7.44228
96370.8 6.47493
96375.1 5.86133
96379.4 5.45171
96388.0 4.95585
96396.5 4.67937
96405.1 4.50946
96422.3 4.31933
96439.5 4.22007
96456.7 4.16115
96491.0 4.09678
96525.4 4.06474
96559.7 4.05217
96594.1 4.08837
96602.7 4.13677
96611.3 4.27214
96615.6 4.44874
96619.9 4.89031
96622.0 5.41134
96624.2 6.55061
96625.2 7.71322
96626.3 9.80409
96627.4 14.0188
96627.9 17.7831
96628.4 23.3029
96629.2 34.8908
96630.0 42.6512
96630.8 34.9186
96631.6 23.3493
96632.4 15.6212
96633.2 11.4322
96634.0 9.07107
96634.8 7.65050
96636.5 6.12387
96638.1 5.38412
96641.4 4.71722
96644.7 4.43696
96651.3 4.21014
96657.9 4.12171
96684.2 4.02457
96736.8 3.98798
96842.1 3.96159
97052.6 3.92718
97473.7 3.87040
97894.7 3.81854
98315.8 3.76934
99157.9 3.67663
100000 3.58979
100672 3.52391
101343 3.46080
101679 3.43100
102015 3.40585
102182 3.40040
102266 3.40370
102350 3.41741
102434 3.45798
102476 3.50334
102518 3.58921
102539 3.66235
102560 3.77322
102581 3.95091
102602 4.25623
102623 4.84677
102634 5.36711
102644 6.19060
102655 7.59240
102665 10.2193
102670 12.4708
102676 15.7837
102681 20.8752
102686 28.7262
102693 44.5188
102700 55.2733
102707 45.2503
102714 29.8763
102720 21.1040
102726 15.6702
102732 12.2718
102738 10.0944
102749 7.54671
102761 6.20430
102773 5.41184
102785 4.91394
102808 4.34081
102831 4.03393
102855 3.85092
102878 3.73130
102902 3.64877
102949 3.54258
102996 3.47597
103042 3.42303
103066 3.39193
103078 3.38499
103083 3.48254
103086 3.92310
103088 5.17805
103089 7.17651
103089 13.4205
103090 19.8962
103090 25.1416
103090 21.1567
103091 15.1416
103091 9.26201
103092 6.62736
103094 4.84276
103096 3.98138
103102 3.63645
103113 3.50195
103135 3.44085
103180 3.40245
103269 3.36739
103447 3.32841
103625 3.30202
103803 3.28060
104158 3.24423
104514 3.21182
105226 3.15215
105582 3.12467
105760 3.11510
105849 3.12541
105871 3.14104
105893 3.18676
105905 3.24893
105916 3.41453
105921 3.62773
105927 4.14212
105930 4.74719
105932 6.06098
105934 7.37081
105935 9.71010
105937 14.3202
105937 18.2952
105938 23.6891
105939 35.6252
105940 44.1824
105941 35.6217
105942 23.6734
105943 16.9789
105944 13.0080
105945 10.1635
105946 8.50623
105947 6.43336
105949 5.38969
105952 4.33923
105955 3.87041
105962 3.47637
105969 3.31959
105982 3.19698
105995 3.15117
106048 3.10174
106154 3.08178
106366 3.06246
106789 3.02930
107636 2.96524
109329 2.83989
111023 2.71568
111870 2.65372
112293 2.62454
112505 2.61779
112558 2.62304
112611 2.64470
112637 2.67749
112664 2.76940
112677 2.89236
112690 3.20853
112697 3.59599
112700 3.94181
112703 4.49915
112707 5.47746
112710 7.41049
112712 9.21315
112713 11.9167
112715 16.7386
112716 24.4883
112718 37.8053
112720 46.7637
112722 37.8147
112724 24.4953
112726 15.0371
112728 10.4056
112730 7.76473
112732 6.29333
112734 5.32234
112736 4.70860
112740 3.96549
112744 3.54406
112748 3.29410
112756 3.01467
112772 2.79048
112789 2.70405
112821 2.63718
112853 2.61117
112918 2.58896
112983 2.57788
113242 2.55219
113761 2.51111
114798 2.43009
116872 2.25996
118946 2.07198
119983 1.96810
120501 1.91311
120761 1.88489
120890 1.87062
120955 1.86343
120987 1.85978
121004 1.85796
121012 1.85747
121016 1.85959
121018 1.86968
121019 1.90187
121020 2.61953
121020 3.42235
121020 2.65921
121022 1.88919
121023 1.86727
121026 1.85940
121033 1.85633
121045 1.85417
121070 1.85114
121119 1.84558
121218 1.83468
121415 1.81330
121810 1.77553
122008 1.76512
122205 1.77531
122304 1.80129
122402 1.86388
122452 1.92405
122501 2.02256
122550 2.19540
122575 2.33654
122587 2.43961
122594 2.52818
122597 2.64261
122598 2.84199
122599 3.26270
122600 6.15888
122600 8.32980
122600 4.62718
122601 2.52538
122602 2.40961
122603 2.43284
122606 2.49354
122611 2.57652
122621 2.71613
122642 3.04993
122664 3.53637
122685 4.29146
122706 5.56000
122727 7.87515
122737 9.79381
122748 12.5681
122758 16.6980
122769 22.8391
122784 36.0864
122800 45.3666
122816 37.1677
122831 24.1872
122842 17.9395
122852 13.6831
122863 10.7915
122874 8.80188
122895 6.31870
122916 4.93069
122937 4.07701
122958 3.52090
123000 2.85904
123043 2.49444
123085 2.27056
123170 2.01694
123254 1.87969
123339 1.79358
123508 1.68822
123677 1.62110
123846 1.57041
124016 1.53328
124058 1.53194
124100 1.55014
124121 1.58622
124142 1.69475
124153 1.83958
124164 2.19213
124169 2.59293
124174 3.41632
124177 4.20045
124179 5.44265
124182 7.58423
124185 11.3758
124187 17.5771
124190 21.9419
124193 18.0862
124195 11.9952
124197 8.86002
124199 6.88707
124201 5.56467
124203 4.65663
124207 3.54682
124211 2.92989
124218 2.30546
124226 2.01976
124241 1.76651
124257 1.65920
124287 1.56753
124318 1.52704
124379 1.48664
124440 1.46295
124562 1.42939
124684 1.40261
124807 1.38067
124929 1.36976
124990 1.37834
125051 1.42535
125082 1.49903
125097 1.57279
125112 1.70275
125127 1.96427
125135 2.20633
125143 2.60180
125150 3.33279
125154 3.93698
125158 4.84477
125162 6.28611
125166 8.73320
125169 13.2080
125173 21.7748
125177 34.1615
125180 42.4601
125183 34.1778
125187 21.7978
125189 16.1800
125191 12.4632
125195 7.96421
125200 5.64137
125204 4.32439
125208 3.51603
125213 2.98756
125221 2.36959
125230 2.02911
125238 1.82614
125255 1.60187
125272 1.48718
125290 1.41989
125324 1.34610
125392 1.28084
125461 1.24701
125597 1.20179
125734 1.16437
126008 1.09274
126282 1.01880
126829 0.854937
127376 0.660551
127924 0.425467
128198 0.292383
128471 0.156712
128608 0.0949284
128745 0.0464397
128813 0.0313826
128882 0.0261514
128950 0.0348924
129019 0.0635613
129087 0.120867
129156 0.219238
129224 0.377382
129292 0.623305
129361 1.00021
129429 1.57206
129498 2.43810
129566 3.74385
129640 5.86144
129713 8.95836
129860 17.2922
129934 20.1934
130007 20.6435
130081 19.1166
130117 17.9874
130154 16.8368
130162 16.7396
130165 17.0982
130167 18.2553
130168 20.2149
130169 22.7624
130169 27.6309
130170 38.8722
130171 27.4971
130171 22.0679
130172 19.8064
130173 17.7662
130175 16.6529
130180 16.1157
130188 15.7129
130206 15.1245
130241 14.0632
130311 12.2007
130450 9.42269
130590 7.58000
130730 6.32068
131009 4.75489
131288 3.83679
131568 3.23323
131847 2.80191
132406 2.20906
133523 1.47369
134640 0.941926
135758 0.477260
136317 0.269539
136875 0.100910
137155 0.0450672
137294 0.0284509
137434 0.0217391
137574 0.0272157
137713 0.0477173
137853 0.0867304
137993 0.148500
138132 0.238411
138272 0.362945
138551 0.749479
138831 1.39538
139110 2.42363
139453 4.43975
139795 7.53332
140480 15.7408
140815 18.4304
140982 19.0152
141066 19.1234
141108 19.1385
141128 19.1472
141139 19.1907
141144 19.3516
141147 19.8333
141148 20.9328
141149 22.8745
141149 27.8282
141150 36.4247
141151 27.7168
141151 22.8863
141152 20.9404
141153 19.7958
141156 19.3330
141162 19.1726
141173 19.1185
141194 19.0826
141238 19.0141
141326 18.8182
141500 18.2267
141850 16.6150
142080 15.4787
142195 14.9240
142252 14.6513
142281 14.5177
142295 14.4704
142302 14.5452
142306 14.9462
142308 16.1540
142309 18.6197
142309 21.3624
142309 26.7596
142310 40.1088
142311 27.7412
142311 21.3451
142312 18.4596
142313 16.3656
142314 15.1596
142318 14.6302
142325 14.4196
142340 14.2922
142370 14.1388
142428 13.8720
142546 13.3702
142781 12.4508
143251 10.9133
144191 8.76261
145130 7.38622
146070 6.44667
147010 5.76670
147950 5.25033
148890 4.84230
149360 4.66782
149595 4.58641
149712 4.54679
149771 4.52683
149800 4.51623
149815 4.51067
149822 4.51146
149826 4.53381
149828 4.62898
149829 4.91865
149829 5.67753
149830 8.61138
149830 13.0503
149830 8.94815
149831 5.64006
149831 4.99925
149832 4.68885
149834 4.57059
149838 4.52909
149846 4.51271
149862 4.50244
149895 4.49008
149959 4.46877
150088 4.42820
150345 4.35039
150860 4.20477
151889 3.94565
152918 3.71895
153433 3.61416
153690 3.56254
153819 3.53717
153883 3.53326
153915 3.57794
153931 3.77509
153935 3.95223
153939 4.35486
153943 5.54193
153945 7.13636
153947 10.9975
153949 15.7519
153950 19.0793
153951 16.2666
153953 11.6215
153955 7.78358
153957 6.07857
153961 4.71436
153964 4.21162
153968 3.97417
153976 3.76103
153983 3.67155
154014 3.56214
154075 3.51587
154197 3.48095
154442 3.43181
154931 3.34362
155909 3.17846
157865 2.86957
159821 2.56685
160798 2.40967
161287 2.32896
161532 2.29216
161654 2.29085
161685 2.30531
161715 2.35341
161731 2.42103
161746 2.60086
161754 2.82814
161761 3.36427
161765 3.95910
161769 5.17108
161771 6.29708
161773 8.15725
161774 11.4306
161776 17.5172
161778 26.8558
161780 32.7838
161782 26.8592
161784 17.4953
161785 11.8680
161787 8.65713
161789 6.74348
161791 5.54498
161794 4.18667
161797 3.52563
161804 2.90806
161811 2.64721
161825 2.43115
161839 2.34605
161866 2.27832
161893 2.25041
162003 2.20780
162222 2.16170
162661 2.07639
163538 1.89243
164414 1.67894
165291 1.41950
166168 1.08688
166607 0.880313
167045 0.639317
167484 0.365164
167922 0.0991292
168032 0.0522238
168141 0.0260753
168251 0.0336789
168306 0.0561557
168361 0.0955768
168415 0.156424
168470 0.244356
168525 0.366515
168580 0.531902
168689 1.04039
168799 1.89707
168879 2.84801
168959 4.18764
168999 5.06461
169019 5.58320
169039 6.18980
169059 6.95991
169069 7.46574
169079 8.13196
169089 9.10960
169099 10.7799
169104 12.1655
169109 14.2769
169114 17.6780
169119 23.1504
169124 32.5087
169130 38.8051
169136 32.8549
169141 23.8246
169146 19.0463
169150 16.1134
169154 14.2338
169159 13.0612
169167 11.7721
169176 11.2118
169185 10.9844
169193 10.9359
169211 11.1017
169245 11.8289
169280 12.6870
169400 15.1439
169521 15.9477
169761 14.0103
169975 11.5182
170190 9.55276
170404 8.12881
170618 7.09433
171047 5.73043
171475 4.88531
171903 4.31011
172332 3.88937
172760 3.56407
172975 3.42719
173082 3.36429
173135 3.33446
173162 3.32638
173176 3.35934
173182 3.51934
173186 3.99734
173187 5.04368
173188 6.39850
173189 9.91086
173190 17.1734
173191 10.5411
173192 6.66166
173193 5.21961
173195 4.13388
173199 3.61742
173206 3.41347
173221 3.33819
173251 3.30202
173311 3.27270
173371 3.25958
173431 3.26814
173491 3.32712
173521 3.40128
173551 3.54360
173581 3.84014
173596 4.11237
173611 4.55043
173626 5.31784
173641 6.79156
173648 8.06459
173656 10.0050
173663 13.0560
173671 17.8017
173680 27.2146
173690 33.9189
173700 28.3273
173710 19.2500
173718 13.7815
173727 10.4800
173735 8.43297
173744 7.10975
173761 5.57990
173778 4.77988
173795 4.30524
173812 4.00257
173846 3.64616
173880 3.44721
173914 3.32152
173982 3.16995
174050 3.07767
174118 3.01194
174255 2.91610
174527 2.77858
174800 2.66764
175345 2.47709
175617 2.39051
175754 2.34851
175822 2.32748
175856 2.31639
175873 2.30999
175881 2.30640
175886 2.30886
175888 2.33376
175889 2.43783
175890 4.48050
175890 6.93145
175890 4.75882
175891 2.58191
175892 2.41487
175894 2.34565
175898 2.32063
175905 2.30970
175921 2.30181
175951 2.29141
176011 2.27294
176132 2.23743
176374 2.16825
176858 2.03415
177826 1.77451
178794 1.51377
179278 1.37698
179520 1.30989
179580 1.30127
179641 1.31960
179671 1.36891
179701 1.53062
179716 1.75212
179724 1.96073
179731 2.30179
179739 2.92340
179746 4.15715
179750 5.28859
179754 7.10139
179758 10.1411
179761 15.1545
179766 24.2071
179770 30.8043
179774 25.4826
179779 16.7533
179784 10.2690
179789 6.93335
179794 5.12391
179799 4.07502
179804 3.39528
179809 2.93969
179819 2.38967
179829 2.07549
179840 1.88125
179860 1.65704
179880 1.53528
179900 1.45977
179941 1.37105
180022 1.28324
180103 1.23344
180265 1.16592
180428 1.11382
180590 1.07108
180752 1.04438
180833 1.04647
180914 1.07825
180955 1.12094
180995 1.20710
181016 1.28505
181036 1.41786
181056 1.74272
181061 1.94897
181066 2.35264
181072 3.48121
181074 4.94794
181077 8.33866
181078 12.6376
181080 15.5873
181082 13.2522
181083 9.11827
181086 5.70164
181089 4.21603
181094 3.15194
181099 2.88951
181104 2.88511
181114 3.22681
181124 3.94792
181134 5.22325
181145 7.57007
181150 9.49899
181155 12.3044
181160 16.4697
181165 22.6418
181173 35.6673
181180 44.3744
181188 35.6763
181195 22.6092
181200 16.8170
181204 12.8516
181214 8.11199
181223 5.60455
181232 4.18626
181241 3.30040
181251 2.72471
181269 2.03737
181288 1.66119
181306 1.43261
181343 1.17833
181380 1.04453
181417 0.962934
181491 0.866721
181565 0.808163
181639 0.765167
181787 0.698497
182083 0.590425
182379 0.492239
182971 0.308076
183563 0.147963
183859 0.0857018
184154 0.0438115
184302 0.0334647
184450 0.0322663
184598 0.0421656
184746 0.0654759
184894 0.105018
185042 0.164106
185190 0.246693
185338 0.357365
185634 0.686021
185930 1.20478
186219 1.96118
186508 3.03467
186798 4.48203
186942 5.35751
187015 5.86040
187033 6.01622
187051 6.23264
187060 6.41669
187069 6.77989
187073 7.16489
187078 7.97525
187080 8.80463
187082 10.2390
187085 13.2994
187086 15.9302
187087 20.0832
187088 28.2021
187090 33.8683
187092 28.2282
187093 20.0931
187094 15.6530
187096 12.7692
187098 9.88585
187101 8.52504
187103 7.84910
187108 7.21046
187113 6.95411
187124 6.77903
187134 6.75310
187174 6.93656
187255 7.49145
187417 8.67696
187740 10.9922
187905 12.0228
187987 12.4766
188029 12.6858
188049 12.7854
188059 12.8336
188065 12.8592
188067 12.8825
188069 12.9375
188070 14.3821
188070 16.0568
188070 14.5603
188072 12.9877
188073 12.9351
188076 12.9263
188082 12.9450
188093 12.9943
188117 13.0942
188163 13.2836
188255 13.6140
188440 14.0775
188810 14.2990
189550 13.0856
189652 12.8538
189754 12.6337
189805 12.5436
189856 12.5070
189881 12.5525
189907 12.7429
189920 12.9906
189932 13.5202
189939 14.0289
189945 14.8664
189952 16.3830
189958 19.1425
189964 23.4602
189970 26.6747
189976 24.3190
189982 20.3795
189990 17.6567
189998 17.1509
190001 17.6840
190005 19.0124
190009 21.7307
190013 27.0097
190016 35.3280
190020 40.6802
190024 34.8667
190027 26.5440
190030 21.8766
190033 19.0406
190036 17.2228
190039 16.0141
190045 14.5765
190051 13.7894
190062 12.9863
190074 12.5975
190097 12.2130
190121 12.0128
190167 11.7771
190214 11.6151
190307 11.3566
190400 11.1297
190773 10.3289
191518 9.02685
191891 8.49724
192264 8.03648
192450 7.83143
192637 7.65001
192730 7.57832
192823 7.54954
192870 7.58843
192893 7.64655
192916 7.76442
192940 8.01887
192951 8.26105
192963 8.66359
192975 9.40876
192980 10.0277
192986 10.9565
192992 12.4266
192998 14.9069
193004 19.3949
193009 27.8508
193015 40.1944
193020 48.4243
193025 40.2380
193031 27.9074
193036 19.9782
193041 15.5895
193046 12.9929
193052 11.4280
193057 10.3911
193062 9.69753
193073 8.83358
193083 8.34293
193094 8.03714
193115 7.68959
193136 7.50097
193156 7.38437
193198 7.24396
193282 7.09300
193366 6.99421
193534 6.83880
193701 6.70399
194037 6.46213
194372 6.24545
194707 6.04944
195043 5.87628
195210 5.80544
195294 5.77982
195378 5.76932
195462 5.79433
195504 5.83736
195546 5.92557
195588 6.11012
195609 6.27621
195630 6.53527
195651 6.96460
195672 7.71640
195693 9.14930
195713 11.9901
195732 16.1562
195750 19.2065
195768 16.7924
195787 12.7621
195803 10.2950
195820 8.80182
195836 7.88421
195853 7.29663
195885 6.61658
195918 6.25444
195951 6.03596
195984 5.89239
196050 5.71465
196116 5.60636
196182 5.53063
196313 5.42392
196445 5.34471
196577 5.27845
196840 5.16522
197367 4.97482
197893 4.80988
198947 4.52677
199473 4.40273
200000 4.28836
200000 4.28832
200001 4.28815
200002 4.28798
200003 4.28767
200006 4.28703
200012 4.28576
200025 4.28322
200049 4.27817
200098 4.26813
200196 4.24827
200391 4.20966
200782 4.13855
200977 4.10948
201173 4.09590
201270 4.10899
201319 4.13036
201368 4.17507
201417 4.27499
201441 4.37214
201466 4.53967
201490 4.85994
201502 5.13961
201514 5.57843
201527 6.31731
201539 7.68205
201545 8.82321
201551 10.5149
201557 13.0888
201563 17.0102
201572 24.8526
201580 30.0890
201588 24.8944
201597 17.0795
201606 11.9279
201614 9.11891
201623 7.51253
201631 6.53544
201640 5.90521
201649 5.47790
201666 4.95500
201683 4.66034
201700 4.47810
201735 4.27283
201769 4.16429
201803 4.09903
201872 4.02453
202010 3.95298
202148 3.91201
202423 3.85331
202698 3.80428
203249 3.71541
203524 3.67335
203662 3.65273
203731 3.64249
203765 3.63740
203782 3.63511
203791 3.63529
203795 3.64080
203798 3.66310
203800 4.32177
203800 5.03650
203800 4.34711
203802 3.67344
203805 3.64480
203809 3.63520
203817 3.63124
203834 3.62792
203868 3.62271
203935 3.61281
204069 3.59334
204338 3.55502
204875 3.48035
205412 3.40780
205681 3.37233
205815 3.35558
205882 3.35076
205916 3.36227
205932 3.42063
205941 3.63431
205945 4.30477
205947 5.97479
205948 8.67884
205949 11.6630
205949 18.0968
205950 32.8383
205951 18.1345
205952 9.16832
205953 6.15997
205955 4.39255
205959 3.66522
205967 3.42734
205983 3.35726
206015 3.33474
206079 3.32153
206206 3.30354
206462 3.26989
206972 3.20291
207483 3.13308
207738 3.09508
207866 3.08812
207898 3.10430
207930 3.16967
207946 3.26964
207962 3.54048
207970 3.87474
207978 4.62328
207982 5.38044
207986 6.73815
207990 9.40432
207992 11.6879
207994 14.9013
207997 22.6583
208000 28.2795
208003 23.9410
208006 16.4516
208010 11.5007
208013 8.71461
208016 7.07443
208019 6.05307
208026 4.90556
208032 4.33166
208045 3.78635
208058 3.54470
208084 3.33278
208109 3.24219
208161 3.16174
208212 3.12414
208315 3.08430
208418 3.05964
208624 3.02313
208727 3.00690
208778 2.99820
208804 2.99245
208817 2.98778
208823 2.98611
208827 3.00071
208828 3.07773
208829 3.32007
208830 5.98243
208830 9.43787
208830 6.44836
208831 3.48305
208832 3.18793
208834 3.06972
208837 3.02253
208844 3.00418
208858 2.99516
208886 2.98822
208942 2.97913
209053 2.96335
209275 2.93343
209497 2.90419
209608 2.88968
209664 2.88248
209692 2.87906
209706 2.87820
209713 2.88112
209716 2.89467
209718 2.93559
209720 3.82190
209720 4.78151
209720 3.83480
209722 2.92986
209724 2.89265
209728 2.87957
209736 2.87477
209751 2.87167
209782 2.86739
209843 2.85937
209965 2.84356
210209 2.81231
210453 2.78422
210575 2.78442
210636 2.83913
210651 2.89898
210666 3.05947
210674 3.26723
210682 3.77088
210685 4.34759
210689 5.57102
210691 6.75881
210693 8.81768
210695 12.7014
210696 16.1230
210697 20.6978
210698 31.3311
210700 38.6797
210702 31.3814
210703 20.7559
210704 15.0122
210706 11.2265
210708 7.31823
210711 5.54881
210714 4.62533
210719 3.75136
210724 3.37321
210734 3.05279
210744 2.92526
210765 2.82482
210786 2.78557
210868 2.73730
211033 2.70501
211363 2.65704
212022 2.56237
213341 2.35482
214661 2.10462
215320 1.95349
215650 1.86852
215815 1.82286
215897 1.79851
215938 1.78482
215959 1.77618
215969 1.77167
215975 1.78085
215977 1.84600
215978 2.08909
215979 2.62479
215980 6.06130
215980 10.9104
215980 6.62671
215981 2.55078
215982 2.07176
215984 1.88655
215988 1.81598
215996 1.78892
216011 1.77491
216043 1.76171
216105 1.74127
216229 1.70207
216477 1.62044
216974 1.43690
217471 1.21852
217968 0.955139
218465 0.638137
218962 0.281569
219211 0.120732
219335 0.0626341
219459 0.0349972
219583 0.0578672
219646 0.0974194
219708 0.162456
219770 0.259529
219832 0.396644
219894 0.583455
219956 0.831373
220035 1.25776
220115 1.83450
220273 3.55218
220590 8.90032
220749 11.1503
220907 12.1566
221224 11.4019
221530 9.75871
221683 9.01658
221759 8.69824
221778 8.64531
221797 8.65448
221807 8.74057
221816 9.02469
221821 9.39019
221826 10.1982
221828 10.9903
221831 12.3524
221833 14.8577
221836 19.4611
221838 26.8069
221840 32.0601
221842 28.0986
221844 21.0119
221846 17.0312
221848 14.5353
221852 11.8609
221855 10.5916
221859 9.89989
221866 9.20511
221873 8.87033
221888 8.54549
221902 8.37699
221931 8.17546
221960 8.03375
222075 7.60958
222306 6.96144
222767 6.04089
223228 5.41783
223458 5.17706
223574 5.07057
223631 5.02324
223660 5.01200
223675 5.04991
223682 5.21316
223685 5.69263
223687 6.72681
223688 8.23472
223689 12.3081
223690 19.6456
223691 12.3360
223692 8.01366
223693 6.54337
223695 5.56887
223699 5.15292
223708 5.00902
223725 4.95558
223758 4.91762
223825 4.86213
223959 4.76215
224226 4.58416
224761 4.29278
225029 4.17217
225296 4.06842
225430 4.02823
225564 4.01486
225631 4.04236
225664 4.08083
225698 4.15601
225731 4.31100
225748 4.44924
225765 4.66615
225781 5.02532
225798 5.66208
225815 6.88416
225832 9.36088
225846 12.9568
225860 15.6151
225874 13.5955
225889 10.1588
225904 7.67536
225920 6.33611
225936 5.57906
225951 5.11975
225967 4.82217
225983 4.61844
226014 4.36385
226046 4.21424
226077 4.11741
226140 3.99885
226203 3.92708
226266 3.87701
226391 3.80659
226643 3.71137
226894 3.63840
227396 3.51850
227899 3.41720
228904 3.24737
229407 3.17391
229658 3.13945
229784 3.12289
229847 3.11536
229878 3.11374
229894 3.12047
229902 3.15072
229906 3.25208
229908 3.55310
229909 4.23233
229909 7.33556
229910 11.5331
229911 7.30339
229912 3.89870
229913 3.38759
229916 3.18869
229921 3.12688
229931 3.10850
229952 3.10163
229993 3.09541
230075 3.08476
230239 3.06416
230567 3.02430
231224 2.94963
231552 2.91516
231880 2.88457
232044 2.87354
232209 2.87378
232291 2.88878
232373 2.94385
232414 3.02248
232455 3.22816
232475 3.47765
232486 3.69816
232496 4.04335
232506 4.63738
232516 5.74387
232521 6.70706
232527 8.13695
232532 10.3614
232537 13.8395
232543 20.5746
232550 25.0042
232557 20.5156
232563 13.9111
232568 10.7120
232572 8.60515
232577 7.18149
232581 6.19846
232591 4.98227
232600 4.31459
232609 3.90560
232618 3.64356
232636 3.33607
232672 3.06873
232708 2.95815
232780 2.86661
232852 2.82751
232997 2.78936
233141 2.76680
233430 2.73375
233719 2.70647
234007 2.68356
234296 2.67061
234441 2.67648
234585 2.71553
234657 2.77783
234693 2.84023
234729 2.95089
234766 3.17173
234784 3.37441
234802 3.70683
234820 4.31327
234829 4.81555
234838 5.56793
234847 6.77467
234856 8.79691
234865 12.4712
234874 19.4401
234882 29.4852
234890 36.1924
234898 29.5204
234906 19.4383
234913 13.8922
234919 10.4308
234926 8.25316
234933 6.85100
234946 5.21029
234959 4.34727
234972 3.84329
234985 3.52508
235011 3.16215
235037 2.97103
235064 2.85796
235116 2.73550
235168 2.67289
235221 2.63555
235326 2.59265
235535 2.54905
235745 2.52126
236164 2.47679
236583 2.43610
237422 2.35571
238260 2.27209
239098 2.18159
239937 2.07963
240356 2.02228
240775 1.95934
241194 1.89213
241404 1.87131
241456 1.88021
241509 1.92272
241535 1.98768
241561 2.16567
241574 2.39066
241587 2.92869
241594 3.53220
241600 4.74014
241604 5.87468
241607 7.74796
241610 11.0365
241614 16.8714
241617 26.0026
241620 31.9867
241623 26.0599
241626 16.9383
241630 10.8338
241633 7.50897
241637 5.66214
241640 4.56259
241647 3.39701
241654 2.83821
241668 2.32920
241682 2.11632
241710 1.94070
241738 1.86950
241794 1.80710
241849 1.77577
242072 1.70163
242295 1.63600
242518 1.56477
242741 1.48429
242964 1.39144
243187 1.28229
243298 1.21981
243354 1.18591
243382 1.16755
243396 1.15730
243403 1.15234
243406 1.15803
243408 1.19825
243409 1.34980
243410 3.18104
243410 5.49784
243410 3.46931
243412 1.32808
243413 1.21731
243416 1.17408
243421 1.15552
243431 1.14290
243452 1.12666
243494 1.09722
243577 1.03655
243744 0.900595
243911 0.740533
244078 0.552472
244412 0.124628
244496 0.0516807
244579 0.0527207
244621 0.107681
244663 0.223173
244704 0.427900
244746 0.762105
244777 1.11907
244807 1.59917
244868 3.03167
244990 7.72977
245051 9.89308
245112 10.9415
245234 10.2595
245372 8.39342
245510 6.95087
245649 5.96684
245787 5.28497
245925 4.79403
246063 4.42689
246201 4.14305
246271 4.02388
246305 3.96845
246322 3.94114
246331 3.92760
246335 3.92412
246338 3.94032
246340 5.25315
246340 6.78408
246340 5.44882
246342 4.01660
246343 3.95238
246346 3.92374
246352 3.90596
246364 3.88530
246388 3.85052
246436 3.78665
246533 3.67167
246725 3.48029
247109 3.20083
247493 3.00466
247878 2.85764
248646 2.64719
249415 2.49851
250184 2.38342
250952 2.28877
251721 2.20815
252105 2.17262
252298 2.15633
252394 2.14849
252442 2.14426
252466 2.14149
252478 2.13969
252484 2.14152
252487 2.15894
252488 2.22614
252490 3.92311
252490 5.95104
252490 4.17118
252492 2.25459
252494 2.18425
252499 2.15768
252507 2.14769
252523 2.14295
252556 2.13929
252621 2.13467
252752 2.12819
253015 2.13086
253146 2.15451
253211 2.18286
253277 2.23732
253342 2.35347
253375 2.46465
253408 2.65457
253441 3.01837
253457 3.33726
253473 3.83672
253490 4.68975
253506 6.29045
253514 7.65172
253522 9.70362
253531 12.8924
253539 17.7934
253549 27.2687
253560 33.5247
253571 27.2304
253581 17.8379
253591 12.0026
253602 8.63133
253612 6.64056
253622 5.41226
253642 4.04488
253662 3.35622
253682 2.96313
253702 2.72065
253742 2.44792
253783 2.30538
253823 2.22138
253903 2.12947
253984 2.08118
254064 2.05119
254225 2.01416
254547 1.97067
254869 1.93894
255513 1.88460
255835 1.85991
255996 1.85146
256077 1.86222
256117 1.92336
256137 2.14025
256147 2.76944
256152 4.10999
256154 6.05163
256156 8.03276
256157 11.2764
256159 16.9978
256160 20.8014
256162 17.0451
256163 11.3380
256165 7.05009
256167 5.03691
256170 3.33985
256178 2.38106
256192 2.00116
256221 1.87759
256280 1.83797
256396 1.81927
256629 1.79868
257096 1.76232
258028 1.69074
258961 1.61662
259427 1.57521
259660 1.55175
259777 1.55379
259806 1.57336
259835 1.64333
259850 1.74564
259864 2.01309
259871 2.33257
259879 3.02029
259882 3.69894
259886 4.82940
259890 6.88900
259893 10.8812
259897 16.9690
259900 21.7218
259903 18.3176
259907 12.4009
259910 8.43726
259913 6.18282
259917 4.81559
259920 3.99095
259927 3.05886
259933 2.58945
259947 2.13895
259960 1.93915
259987 1.76433
260013 1.68951
260067 1.62337
260120 1.59287
260227 1.56162
260333 1.54317
260546 1.51723
260653 1.50637
260706 1.50126
260733 1.49905
260746 1.49918
260753 1.50398
260756 1.52225
260758 1.57989
260760 2.60059
260760 3.71378
260760 2.60929
260763 1.53450
260766 1.50697
260772 1.49830
260783 1.49494
260805 1.49224
260849 1.48801
260937 1.48001
261113 1.46451
261465 1.43444
262169 1.37735
262521 1.35343
262873 1.34500
263049 1.36260
263137 1.38774
263225 1.43798
263313 1.54384
263357 1.64086
263401 1.79698
263445 2.06476
263489 2.56489
263511 2.98427
263533 3.60527
263555 4.54743
263577 5.98111
263609 9.06041
263640 11.4195
263672 9.72105
263703 6.70260
263723 5.30272
263743 4.31410
263783 3.12901
263823 2.50362
263862 2.14231
263902 1.91501
263942 1.76325
264021 1.57717
264101 1.46944
264180 1.39856
264260 1.34380
264300 1.31202
264319 1.28169
264329 1.24772
264334 1.22854
264337 1.30448
264338 1.59901
264339 4.18386
264340 8.43320
264341 5.48884
264342 2.58664
264343 1.95606
264346 1.61100
264351 1.44976
264362 1.37509
264382 1.33547
264424 1.30660
264507 1.27557
264673 1.23449
265006 1.17792
265338 1.13503
265671 1.10014
266003 1.07599
266169 1.07253
266336 1.08274
266502 1.12611
266585 1.17727
266668 1.27418
266751 1.47572
266793 1.66360
266834 1.97483
266876 2.54160
266897 3.01241
266917 3.71109
266938 4.81289
266959 6.65244
266980 9.93034
267001 15.9417
267020 25.0480
267040 31.1034
267060 25.0890
267080 16.0839
267099 10.4436
267118 7.20608
267137 5.30231
267155 4.12585
267193 2.82208
267231 2.16469
267269 1.78928
267307 1.55471
267383 1.28726
267459 1.14389
267534 1.05655
267610 1.00515
267648 1.02364
267667 1.16592
267677 1.57504
267681 2.33225
267684 3.27494
267686 5.16547
267690 9.91134
267692 8.36048
267694 5.72073
267698 2.95003
267702 1.98075
267710 1.36742
267725 1.08872
267756 0.977352
267819 0.921185
267944 0.872048
268193 0.810695
268443 0.764407
268692 0.726605
268942 0.701124
269067 0.698945
269192 0.713874
269316 0.769273
269379 0.830969
269441 0.940795
269504 1.14666
269566 1.56696
269597 1.94482
269628 2.53746
269660 3.49787
269691 5.06033
269730 8.15016
269770 10.5160
269810 8.90370
269849 6.03107
269887 4.15586
269925 3.03824
269963 2.35705
270001 1.92010
270076 1.41601
270152 1.14539
270228 0.980200
270303 0.869691
270454 0.729415
270606 0.640793
270757 0.576451
271059 0.481243
271664 0.341104
272269 0.225641
272874 0.128185
273177 0.0893330
273479 0.0608540
273782 0.0474721
274084 0.0561939
274236 0.0719113
274387 0.0973135
274538 0.134104
274614 0.156320
274652 0.166213
274671 0.167409
274680 0.164489
274685 0.171069
274687 0.231577
274689 2.57041
274690 5.59800
274691 3.21104
274692 0.714816
274693 0.426895
274696 0.289106
274701 0.235227
274712 0.216908
274734 0.216401
274777 0.231760
274863 0.274510
275035 0.387549
275208 0.542640
275380 0.755337
275591 1.14023
275803 1.80092
275908 2.37478
276014 3.36331
276067 4.18889
276119 5.46049
276172 7.54994
276225 11.1185
276283 17.2640
276340 22.0822
276398 19.0984
276455 13.5917
276502 10.4811
276549 8.57588
276644 6.74778
276738 6.12169
276833 5.99742
277021 6.36714
277210 7.06004
277668 8.83961
278125 9.81454
279040 9.11494
280013 7.32854
280499 6.56840
280742 6.24055
280864 6.10524
280924 6.10234
280940 6.15133
280955 6.30263
280962 6.49560
280970 6.94046
280974 7.40706
280978 8.28572
280981 10.1640
280983 11.9216
280985 14.6144
280988 19.7355
280990 23.3009
280993 19.7597
280995 14.6138
280997 11.6767
280999 9.91952
281003 8.08644
281007 7.24483
281011 6.80026
281019 6.37236
281027 6.17886
281059 5.92808
281123 5.79164
281252 5.63329
281508 5.36642
281765 5.12722
282021 4.91004
282534 4.52990
282791 4.36086
282919 4.27773
282983 4.23480
283015 4.22471
283031 4.28834
283039 4.54281
283043 5.12048
283045 5.93953
283047 7.92732
283050 12.4431
283053 8.72269
283055 6.75930
283056 5.80136
283060 4.99937
283067 4.53326
283082 4.32551
283111 4.23243
283169 4.17041
283286 4.09560
283519 3.97240
283752 3.86790
283869 3.84754
283898 3.86703
283927 3.94077
283941 4.04602
283956 4.31692
283963 4.64364
283971 5.37579
283974 6.14401
283978 7.53045
283981 10.4048
283983 13.0202
283985 17.2680
283988 25.2215
283990 30.8280
283993 25.2760
283995 17.2953
283997 13.5842
283998 11.1500
284001 8.23430
284004 6.69945
284007 5.81760
284013 4.90183
284019 4.47941
284031 4.10531
284043 3.94965
284068 3.82065
284092 3.76574
284188 3.67959
284381 3.58977
284768 3.44255
285154 3.31636
285251 3.29309
285348 3.28701
285396 3.30696
285444 3.38946
285468 3.51034
285493 3.82568
285505 4.20451
285517 5.04160
285523 5.89461
285529 7.40467
285535 10.3885
285538 12.9660
285541 16.7253
285545 24.9232
285550 30.3894
285555 25.0627
285559 16.9889
285562 13.0543
285566 10.4728
285572 7.49617
285578 5.97052
285584 5.13125
285597 4.27793
285609 3.88091
285634 3.53206
285659 3.38457
285709 3.25681
285759 3.19816
285859 3.13498
285959 3.09370
286158 3.02899
286358 2.97279
286757 2.87093
287157 2.77786
287556 2.69171
287955 2.61310
288155 2.57878
288355 2.55489
288455 2.55581
288554 2.59063
288604 2.65063
288654 2.81630
288679 3.02120
288704 3.48628
288717 3.97417
288729 4.89378
288735 5.68649
288742 6.86641
288748 8.70166
288754 11.5706
288762 17.0867
288770 20.7308
288778 17.0563
288786 11.6000
288793 8.64284
288799 6.80044
288805 5.62237
288811 4.84406
288824 3.92665
288837 3.44321
288862 2.97517
288887 2.76591
288938 2.58503
288988 2.50783
289089 2.43672
289190 2.39869
289392 2.34712
289595 2.30440
289999 2.22307
290100 2.20589
290201 2.20479
290251 2.23130
290302 2.33831
290327 2.49418
290352 2.88313
290365 3.31628
290378 4.15254
290384 4.87769
290390 5.98252
290397 7.71444
290403 10.4437
290412 16.1312
290420 20.4839
290429 17.5630
290437 12.2953
290447 8.43344
290456 6.30499
290465 5.09085
290475 4.34961
290494 3.53674
290512 3.12395
290531 2.88400
290550 2.73072
290588 2.55021
290625 2.44972
290663 2.38883
290700 2.36847
290719 2.44924
290729 2.76533
290733 3.58733
290736 5.10941
290737 6.93914
290738 10.4635
290739 15.5350
290740 18.8093
290741 15.6344
290742 10.6449
290743 7.13741
290744 5.28942
290747 3.75910
290751 2.84989
290761 2.47337
290779 2.33524
290817 2.27530
290891 2.23010
291041 2.17891
291339 2.11270
291638 2.06272
291937 2.02211
292235 1.99492
292385 1.99232
292534 2.00696
292683 2.06155
292758 2.12199
292832 2.22858
292907 2.42650
292982 2.82376
293019 3.17652
293056 3.72050
293094 4.58598
293131 5.97061
293181 8.79804
293230 10.9959
293280 9.55478
293329 6.91523
293369 5.39735
293409 4.41250
293449 3.77142
293489 3.34101
293568 2.82108
293648 2.53166
293728 2.35238
293807 2.23189
293967 2.08057
294126 1.98801
294286 1.92359
294604 1.83452
294923 1.77022
295242 1.71746
295561 1.67073
295720 1.64823
295800 1.63599
295840 1.62760
295860 1.61979
295870 1.61226
295875 1.61460
295877 1.66994
295878 1.88182
295880 5.07705
295880 9.30695
295880 5.86003
295881 2.47649
295882 1.97115
295884 1.76092
295888 1.68133
295896 1.65000
295912 1.63557
295944 1.62602
296008 1.61541
296135 1.59833
296390 1.56692
296899 1.50760
297918 1.39592
298937 1.29043
299446 1.24615
299574 1.24203
299701 1.25427
299765 1.28189
299828 1.36602
299860 1.47750
299892 1.75144
299908 2.06319
299924 2.71443
299932 3.33918
299940 4.38319
299948 6.30665
299956 9.90811
299963 15.1659
299970 18.6902
299977 15.2285
299984 9.99089
299990 7.09448
299996 5.28879
300002 4.15329
300008 3.42306
300020 2.56125
300031 2.11156
300055 1.67937
300078 1.48718
300125 1.32366
300172 1.25585
300266 1.19693
300360 1.16863
300548 1.13512
300736 1.11048
301487 1.02713
302238 0.947066
302614 0.906561
302802 0.885871
302896 0.875032
302943 0.868814
302966 0.864403
302978 0.860571
302984 0.858865
302987 0.870107
302988 0.935991
302990 2.89058
302990 5.30173
302990 3.27804
302992 1.04620
302993 0.935487
302996 0.893502
303002 0.876570
303014 0.868649
303037 0.863174
303084 0.856668
303177 0.845619
303363 0.824135
303736 0.779448
304108 0.727709
304294 0.698550
304388 0.720859
304411 0.769974
304434 0.922468
304446 1.12351
304457 1.58758
304463 2.06737
304469 2.94035
304475 4.67997
304478 6.18765
304481 8.45350
304485 13.7334
304490 17.9582
304495 15.2194
304499 10.2269
304503 7.47193
304507 5.63372
304514 3.62584
304521 2.63978
304528 2.09252
304542 1.53854
304556 1.27511
304585 1.03413
304613 0.926871
304670 0.829247
304727 0.783164
304841 0.735358
304954 0.707123
305182 0.667787
305410 0.636210
305865 0.579821
306092 0.552661
306206 0.538744
306263 0.530963
306291 0.525649
306305 0.521050
306313 0.518191
306316 0.526894
306318 0.583509
306320 2.19014
306320 4.23429
306320 2.57165
306323 0.635668
306326 0.569762
306331 0.543678
306341 0.532240
306362 0.525493
306404 0.518655
306488 0.507930
306655 0.487573
306822 0.465909
306906 0.451689
306947 0.439110
306968 0.427138
306979 0.428279
306984 0.498507
306987 0.788074
306988 1.50256
306989 5.57286
306990 11.9011
306991 6.77909
306992 2.96908
306993 1.68837
306995 0.982267
306998 0.663336
307006 0.536782
307021 0.485785
307052 0.462107
307113 0.446302
307236 0.428383
307480 0.398919
307970 0.343362
308949 0.235987
309439 0.184857
309928 0.139580
310173 0.125466
310418 0.137694
310540 0.179339
310601 0.225605
310663 0.308830
310724 0.467781
310754 0.601966
310785 0.801872
310816 1.11091
310846 1.60896
310877 2.44415
310907 3.85853
310944 6.53850
310980 8.64576
311016 7.33259
311053 4.88400
311081 3.52215
311109 2.61987
311137 2.01973
311165 1.60935
311220 1.10727
311276 0.825275
311332 0.650938
311388 0.535044
311499 0.393864
311611 0.313082
311723 0.262025
311946 0.203438
312169 0.174079
312392 0.160492
312616 0.156281
312727 0.153350
312783 0.144686
312811 0.128037
312825 0.107237
312832 0.110666
312835 0.227171
312837 0.571205
312839 2.82562
312840 6.62126
312841 3.93820
312843 1.63218
312844 0.946775
312847 0.537875
312853 0.334898
312865 0.246611
312888 0.209085
312936 0.194722
313030 0.194492
313218 0.212028
313596 0.276702
313784 0.324007
313973 0.384782
314161 0.466940
314256 0.522874
314350 0.599596
314441 0.717582
314486 0.813420
314532 0.963929
314577 1.23614
314600 1.46955
314622 1.83640
314645 2.46413
314668 3.66689
314679 4.72235
314690 6.34321
314702 8.95026
314713 13.1904
314727 20.7716
314740 25.8603
314754 20.8980
314767 13.3832
314779 8.87333
314792 6.20899
314804 4.60775
314816 3.59988
314841 2.47728
314865 1.91405
314890 1.59620
314914 1.40457
314964 1.20186
315013 1.11234
315062 1.07438
315160 1.06869
315258 1.10641
315356 1.16550
315553 1.32047
315946 1.72904
316339 2.25262
317910 5.36958
318800 7.24167
319690 8.33568
320580 8.44336
321025 8.22702
321248 8.07702
321470 7.90971
321622 7.79796
321699 7.78250
321737 7.91615
321746 8.05333
321756 8.38158
321765 9.44387
321770 11.0945
321772 12.7823
321775 15.5032
321777 20.2964
321780 23.3765
321783 20.3362
321785 15.5199
321787 12.9643
321790 11.3011
321794 9.61964
321803 8.43824
321811 8.05093
321820 7.87879
321855 7.65642
321924 7.53823
322063 7.39868
322340 7.14281
322895 6.63950
323450 6.15598
323727 5.92043
323866 5.79799
323935 5.73557
323970 5.74287
323987 5.91249
323996 6.39060
324000 7.14215
324005 9.19804
324010 13.7243
324013 12.5312
324015 10.2351
324019 8.32141
324023 7.37677
324030 6.55681
324044 6.06667
324072 5.82649
324129 5.69363
324243 5.57156
324470 5.39017
324924 5.07009
325832 4.50577
326741 4.01331
327649 3.56753
328558 3.13680
329012 2.91107
329466 2.66152
329920 2.36006
330148 2.17214
330375 1.94008
330602 1.63490
330715 1.43932
330829 1.20256
330942 0.912496
331056 0.566201
331170 0.224269
331226 0.152396
331255 0.191624
331283 0.320804
331304 0.500554
331325 0.778096
331346 1.18039
331367 1.73141
331408 3.36899
331450 5.79424
331473 7.99108
331485 10.1560
331496 14.9011
331510 23.3314
331524 15.6356
331535 11.4184
331547 9.87106
331570 8.86646
331617 8.18629
331705 7.16354
331792 6.30271
331880 5.65366
331967 5.16900
332055 4.79914
332142 4.50990
332317 4.08654
332492 3.78950
332667 3.56711
333017 3.24854
333367 3.02277
333717 2.84770
334068 2.70363
334243 2.64131
334330 2.61981
334374 2.64299
334396 2.77771
334407 3.22315
334412 4.35445
334415 6.29036
334416 8.60955
334418 12.9004
334419 19.2997
334420 23.3790
334421 19.4102
334422 13.0590
334424 8.33052
334426 6.08910
334429 4.18730
334435 3.16755
334447 2.75758
334472 2.61857
334521 2.56368
334619 2.52134
334815 2.45874
335208 2.34840
335993 2.15575
336778 1.98664
337563 1.83298
338348 1.69048
339133 1.55882
339526 1.50119
339722 1.47826
339918 1.46518
340115 1.47677
340213 1.50490
340311 1.56764
340409 1.70828
340458 1.84117
340507 2.05863
340556 2.43975
340605 3.16667
340630 3.79172
340654 4.73147
340679 6.19045
340703 8.47287
340770 17.0797
340803 14.6922
340837 10.0378
340863 7.44067
340889 5.76907
340915 4.71258
340941 4.05762
340967 3.70767
340993 3.71160
341006 3.95807
341019 4.58234
341025 5.17791
341032 6.13116
341038 7.69488
341045 10.2141
341052 14.8252
341060 17.8766
341068 14.6836
341076 9.94873
341081 7.60417
341086 6.06973
341092 5.04093
341097 4.33307
341108 3.46172
341119 2.96830
341141 2.44924
341162 2.18627
341205 1.91377
341249 1.76613
341335 1.59605
341422 1.49307
341595 1.35673
341681 1.28850
341725 1.23079
341746 1.19023
341757 1.25659
341762 1.65527
341765 2.59011
341766 3.91831
341768 6.69022
341770 14.3413
341771 12.6332
341772 8.89151
341775 4.37492
341778 2.94428
341784 2.06278
341795 1.63787
341818 1.44504
341865 1.34927
341957 1.28508
342142 1.22010
342511 1.13360
342880 1.06441
343250 1.00296
343619 0.946923
343988 0.898503
344173 0.881780
344358 0.883844
344450 0.908598
344542 0.993650
344589 1.10829
344635 1.38687
344658 1.69796
344681 2.32981
344693 2.91620
344704 3.86846
344716 5.51854
344727 8.46098
344739 13.0531
344750 16.1461
344762 13.0983
344773 8.47026
344781 6.25173
344789 4.77515
344797 3.77900
344804 3.09246
344820 2.25198
344836 1.78541
344867 1.31868
344898 1.10416
344961 0.915959
345023 0.835219
345148 0.761667
345273 0.723313
345523 0.673057
345773 0.633108
346273 0.561794
346773 0.496732
347272 0.442146
347522 0.424762
347772 0.424344
348022 0.466172
348147 0.524375
348272 0.638057
348397 0.869376
348460 1.07298
348522 1.38575
348585 1.88898
348647 2.74070
348710 4.26370
348772 7.06252
348836 11.8033
348900 15.6316
348964 13.3736
349028 8.94630
349067 6.90300
349106 5.42268
349184 3.58482
349262 2.57658
349339 1.97650
349417 1.59317
349495 1.33468
349651 1.02487
349806 0.876475
349884 0.852189
349962 0.873650
350040 0.978812
350078 1.09385
350117 1.29210
350156 1.65074
350195 2.35880
350215 2.98477
350234 3.95095
350254 5.51286
350273 8.03341
350297 12.6245
350320 15.6986
350344 12.6663
350367 8.10524
350394 4.90076
350420 3.22512
350447 2.29964
350473 1.75234
350499 1.40281
350526 1.16816
350579 0.879945
350632 0.714954
350685 0.609974
350790 0.484869
350896 0.412064
351002 0.363224
351213 0.299153
351425 0.256872
351637 0.226066
352060 0.185075
352483 0.163711
352906 0.159968
353118 0.165899
353329 0.181333
353435 0.198470
353541 0.239806
353594 0.291975
353647 0.425660
353673 0.589282
353700 0.963552
353713 1.35741
353726 2.10170
353733 2.73674
353739 3.69463
353746 5.18170
353752 7.49693
353761 12.1002
353770 15.1480
353779 12.2085
353788 7.84141
353797 4.89522
353806 3.27145
353816 2.34423
353825 1.78455
353843 1.17125
353862 0.865783
353899 0.586000
353936 0.466876
354010 0.372663
354084 0.341332
354232 0.332232
354380 0.348288
354676 0.411666
354972 0.505047
355565 0.794643
355861 1.01247
356157 1.30661
356294 1.47913
356431 1.68295
356568 1.93022
356637 2.09557
356671 2.28028
356688 2.67856
356697 3.57127
356701 4.99846
356703 6.46121
356705 9.01069
356708 13.2441
356710 16.1293
356712 13.4228
356715 9.36197
356718 5.68824
356722 4.19645
356729 3.13648
356744 2.63914
356774 2.51346
356833 2.61145
356952 2.97968
357071 3.46203
357190 4.07608
357260 4.51409
357398 5.56701
357536 6.79609
357674 7.62445
357812 6.71581
357949 4.05325
358018 2.75967
358087 1.75666
358156 1.05388
358225 0.598365
358294 0.322677
358363 0.171691
358448 0.0987355
358533 0.105299
358618 0.160842
358703 0.246953
359042 0.728616
359382 1.28777
359722 1.87638
361080 4.39325
361877 5.77954
362275 6.39093
362374 6.57090
362424 6.68769
362474 6.84786
362524 7.10598
362574 7.61403
362598 8.09242
362623 8.90556
362648 10.3986
362673 13.2631
362697 17.8621
362720 21.6229
362744 19.5206
362767 15.3151
362784 13.0429
362802 11.5171
362819 10.4915
362836 9.78698
362870 8.92753
362905 8.45334
362939 8.16891
362974 7.98902
363042 7.78884
363111 7.69288
363180 7.64557
363318 7.61354
363593 7.61614
363869 7.60842
364970 7.18208
365881 6.46954
366337 6.05729
366565 5.85583
366679 5.79821
366707 5.82063
366736 5.92336
366750 6.07235
366764 6.44285
366772 6.86015
366779 7.71053
366786 9.77984
366789 12.0454
366793 16.0244
366796 22.2647
366800 26.5332
366804 22.3698
366807 16.1257
366811 12.3096
366814 10.0434
366821 7.87100
366828 6.94834
366834 6.48159
366848 6.04559
366861 5.85240
366889 5.67784
366916 5.59375
367024 5.42846
367241 5.20465
367675 4.79151
368542 4.00447
370277 2.60317
372012 1.44784
372880 0.969508
373313 0.759484
373530 0.663818
373639 0.623714
373693 0.626059
373720 0.705056
373733 0.983500
373740 1.68612
373744 2.91398
373747 6.86631
373750 13.2457
373753 6.94162
373756 3.29455
373759 1.98974
373764 1.12795
373776 0.745257
373798 0.605422
373844 0.548184
373934 0.501989
374115 0.432143
374477 0.312530
374838 0.215005
375200 0.141478
375456 0.105331
375712 0.0834432
375968 0.0767983
376224 0.0863401
376480 0.112869
376735 0.156719
376991 0.215881
377119 0.245896
377183 0.256304
377215 0.275164
377231 0.386458
377239 0.788452
377243 1.70654
377245 3.02230
377247 6.03216
377250 13.3563
377251 11.4307
377253 7.67065
377255 4.47223
377257 2.85952
377260 1.57995
377268 0.855004
377283 0.541025
377312 0.427858
377372 0.402529
377491 0.433381
377729 0.541141
378204 0.827705
378442 1.00269
378680 1.20523
378799 1.32635
378918 1.48779
378978 1.61565
379037 1.85448
379067 2.09720
379096 2.58651
379111 3.05635
379126 3.86480
379141 5.41299
379148 6.70097
379156 8.53475
379168 12.7729
379180 15.6395
379192 12.8908
379204 8.71561
379213 6.67765
379221 5.33203
379230 4.43202
379238 3.81681
379255 3.06961
379272 2.66652
379305 2.28085
379339 2.12214
379406 2.02424
379474 2.02518
379609 2.11104
379743 2.23324
380013 2.51180
380282 2.80902
381360 4.03642
383644 6.09618
384787 6.65352
385358 6.82071
385643 6.88063
385786 6.90627
385857 6.92124
385893 6.94135
385911 6.99904
385920 7.18643
385924 7.72644
385926 8.85002
385928 10.4437
385929 14.5448
385930 22.1842
385931 14.5673
385933 9.45876
385935 8.10033
385938 7.35499
385945 7.06193
385959 6.96971
385986 6.94652
386041 6.94694
386150 6.96111
386368 7.00716
386477 7.05992
386532 7.11022
386587 7.19793
386641 7.36851
386668 7.51873
386696 7.75423
386723 8.14629
386750 8.84961
386778 10.2263
386791 11.3966
386805 13.0927
386850 20.8059
386873 18.8396
386895 14.7862
386915 12.2862
386934 10.7326
386954 9.75639
386973 9.11899
387012 8.37539
387051 7.97979
387091 7.74341
387130 7.59098
387208 7.41024
387286 7.30937
387364 7.24575
387520 7.16937
387707 7.11557
387893 7.07745
388267 7.01613
389013 6.89847
390506 6.62098
391999 6.29510
392746 6.11493
393119 6.01882
393306 5.99466
393353 6.01755
393399 6.10447
393423 6.21874
393446 6.46543
393469 7.07547
393481 7.72003
393493 8.82073
393506 10.9396
393520 12.6860
393534 11.7493
393548 9.83491
393560 8.57451
393573 7.80290
393585 7.32071
393598 7.00568
393623 6.63570
393648 6.43397
393699 6.22719
393749 6.12296
393850 6.01415
393951 5.95176
394153 5.86869
394354 5.80438
394757 5.69190
395161 5.58600
396774 5.16302
398387 4.70084
399193 4.44201
400000 4.16046
400000 4.16039
400001 4.16021
400001 4.16003
400002 4.15967
400004 4.15895
400008 4.15755
400016 4.15474
400031 4.14913
400063 4.13790
400125 4.11540
400250 4.07052
400500 3.98275
400750 3.90331
401000 3.84899
401179 3.85359
401268 3.88915
401358 3.97236
401447 4.15504
401492 4.32073
401537 4.58107
401581 5.01088
401626 5.76916
401671 7.21763
401716 10.1386
401753 14.1746
401790 16.8942
401827 14.2652
401865 10.2852
401894 8.11757
401924 6.75831
401954 5.89590
401984 5.33567
402044 4.69654
402103 4.38316
402163 4.22999
402223 4.17171
402342 4.24535
402461 4.54825
402580 5.14931
402700 6.22093
402819 8.05277
403130 15.1362
403286 13.0626
403441 8.94546
403642 5.38633
403843 3.44071
404044 2.27315
404245 1.53042
404391 1.19761
404536 1.04196
404682 1.08573
404828 1.35011
404973 1.83562
405119 2.50525
405410 4.08801
405993 6.32364
406575 6.89859
407277 6.77226
407979 6.46840
408681 6.17048
409383 5.90934
410787 5.48765
412191 5.15943
413594 4.89111
414296 4.77550
414998 4.67608
415700 4.60875
416051 4.60242
416402 4.63760
416753 4.76311
417104 5.11432
417280 5.48742
417455 6.14471
417631 7.35235
417806 9.61240
417993 13.6889
418180 17.1078
418367 15.4368
418554 11.9013
418689 10.0004
418756 9.29485
418823 8.73830
418891 8.33679
418925 8.21314
418958 8.17324
418992 8.28676
419009 8.45229
419025 8.75327
419042 9.29935
419059 10.3116
419076 12.3149
419084 14.0184
419093 16.4621
419106 22.1248
419120 25.9179
419134 22.0798
419147 16.3100
419157 13.5442
419166 11.6857
419184 9.53785
419203 8.43010
419221 7.79476
419240 7.38779
419258 7.10853
419295 6.74292
419332 6.50678
419369 6.33419
419442 6.08390
419516 5.89841
419590 5.74906
419737 5.51425
419885 5.33334
420032 5.18761
420327 4.96460
420622 4.79961
420917 4.67060
421507 4.47659
422097 4.33140
422687 4.21330
423867 4.02012
426228 3.70178
427408 3.54822
427998 3.46488
428293 3.41530
428440 3.38813
428514 3.40632
428551 3.55195
428569 3.93014
428578 4.50149
428588 5.96055
428600 9.50342
428606 8.70577
428612 6.95484
428622 5.31667
428631 4.56952
428650 3.97769
428687 3.64413
428762 3.48800
428911 3.40731
429209 3.34066
429805 3.24394
430401 3.15028
430699 3.10355
430848 3.08475
430922 3.09136
430960 3.14645
430978 3.32924
430987 3.80810
430992 4.75048
430994 5.95511
430997 8.62515
431000 14.1405
431003 8.54533
431007 5.02783
431011 3.97660
431018 3.37465
431032 3.13390
431061 3.05725
431119 3.02966
431235 3.00597
431467 2.96373
431930 2.87483
432393 2.77819
432856 2.67293
433783 2.44758
434015 2.40795
434130 2.40356
434246 2.42449
434362 2.50370
434420 2.59083
434478 2.74355
434536 3.02449
434594 3.58672
434623 4.08655
434651 4.86149
434680 6.11345
434709 8.13657
434745 11.8531
434780 14.3582
434815 11.9202
434851 8.22472
434890 5.65847
434929 4.28422
434967 3.51319
435006 3.04584
435045 2.74127
435084 2.53000
435162 2.25705
435240 2.08493
435318 1.96115
435473 1.77892
435784 1.49744
436095 1.22848
436407 0.941495
436718 0.637082
437029 0.348078
437185 0.237389
437340 0.179180
437460 0.192716
437580 0.281007
437700 0.469281
437820 0.781986
437940 1.23539
438060 1.82768
438300 3.29058
438491 4.45299
438587 4.96790
438635 5.28843
438659 5.73169
438671 6.57521
438677 7.80537
438680 9.01828
438683 10.9993
438686 14.6099
438690 17.0480
438694 14.8303
438697 11.4319
438702 8.89395
438706 7.61366
438715 6.54254
438732 5.96900
438768 5.81258
438838 5.90773
438979 6.13892
439119 6.26447
439260 6.29872
439387 6.27063
439451 6.24284
439483 6.25998
439499 6.40185
439507 6.77027
439511 7.32637
439515 8.68856
439520 12.0468
439523 11.2795
439525 9.60970
439530 8.02111
439534 7.29737
439542 6.74286
439559 6.43854
439592 6.28990
439659 6.19513
439793 6.07957
440061 5.86733
440596 5.47451
441132 5.14891
441668 4.88617
442739 4.49509
443810 4.21684
444881 4.00551
445952 3.84046
446488 3.77682
446755 3.75336
447023 3.74070
447291 3.75039
447559 3.81897
447693 3.91334
447826 4.12086
447893 4.32174
447960 4.66336
448027 5.28854
448094 6.49465
448220 10.1733
448346 8.12618
448432 7.13000
448519 7.32421
448562 7.88128
448605 8.87140
448648 10.5048
448692 13.0911
448751 18.3594
448810 21.9248
448869 18.3199
448929 12.8569
448996 8.99928
449063 6.97781
449130 5.86475
449196 5.20228
449263 4.77751
449330 4.48902
449464 4.13074
449598 3.92053
449732 3.78299
450000 3.61037
450250 3.50601
450500 3.42601
450750 3.36282
450875 3.34665
451000 3.37986
451061 3.46101
451122 3.69330
451152 3.96087
451182 4.48262
451213 5.59792
451228 6.61673
451243 8.15869
451267 11.8713
451290 15.0774
451314 13.6016
451337 10.2893
451352 8.65978
451367 7.48052
451397 6.02868
451427 5.23289
451457 4.75668
451487 4.44912
451517 4.23794
451576 3.97147
451636 3.81239
451696 3.70756
451816 3.57702
451935 3.49721
452055 3.44168
452294 3.36522
452534 3.31088
452773 3.26717
453251 3.19520
454209 3.07471
454687 3.01758
454927 2.98972
455046 2.98151
455106 3.00282
455136 3.10506
455151 3.42474
455158 4.15330
455162 5.24890
455166 8.27994
455170 13.7641
455174 8.43253
455178 5.47950
455181 4.33956
455188 3.53645
455203 3.15640
455231 3.01571
455288 2.96505
455401 2.93718
455629 2.90297
456083 2.83597
456537 2.76180
456651 2.74894
456764 2.76109
456821 2.80190
456878 2.92355
456906 3.06310
456935 3.32997
456963 3.87889
456991 5.06330
457016 6.92140
457040 8.51629
457064 7.80087
457089 6.19547
457117 4.92744
457144 4.21647
457172 3.80375
457200 3.54742
457255 3.25615
457311 3.10148
457422 2.94649
457533 2.88071
457644 2.87958
457700 2.91704
457755 3.00507
457811 3.19527
457866 3.61745
457894 4.01431
457922 4.64941
457950 5.70354
457977 7.45265
458014 11.1654
458050 14.3580
458086 12.9350
458123 9.72873
458156 7.57883
458190 6.23010
458223 5.37687
458257 4.81342
458324 4.14301
458391 3.77195
458458 3.54167
458525 3.38628
458659 3.19044
458793 3.07067
458927 2.98818
459194 2.87695
459462 2.79992
459730 2.73901
459998 2.68723
460132 2.66701
460199 2.67388
460233 2.74006
460249 2.96775
460258 3.54469
460262 4.55070
460266 7.85092
460270 13.2154
460274 7.99244
460278 4.74841
460282 3.68810
460290 3.04916
460306 2.77042
460337 2.67060
460401 2.63078
460528 2.60096
460783 2.55727
461291 2.47642
462309 2.31315
463326 2.14008
463581 2.10192
463835 2.08526
463962 2.10719
464089 2.20882
464153 2.35476
464185 2.49077
464216 2.71405
464248 3.10962
464280 3.89018
464296 4.58526
464312 5.67924
464328 7.47504
464344 10.4398
464362 15.6408
464380 19.1495
464398 15.7664
464417 10.6197
464433 7.51507
464450 5.68265
464466 4.57344
464483 3.86971
464516 3.07344
464549 2.66355
464582 2.42376
464615 2.27116
464681 2.09068
464813 1.91981
464945 1.82946
465210 1.70997
465474 1.61073
466003 1.41173
466531 1.18828
467060 0.929867
467589 0.636810
468117 0.336912
468382 0.210849
468514 0.157969
468580 0.130802
468613 0.127703
468630 0.170769
468646 0.614074
468650 1.11698
468654 2.35345
468660 5.60980
468663 4.93825
468666 3.43430
468671 1.87771
468676 1.20832
468686 0.691540
468706 0.408759
468745 0.284316
468824 0.247482
468982 0.308848
469140 0.468690
469298 0.734848
469456 1.12131
469614 1.63164
469930 2.93692
470572 5.28750
471214 5.89231
471832 5.65584
472449 5.27481
473066 4.92560
473684 4.63559
474919 4.20260
476154 3.89966
477389 3.67471
478623 3.50084
479241 3.43107
479858 3.38143
480167 3.37713
480321 3.38924
480476 3.42328
480630 3.50767
480707 3.59206
480784 3.73722
480862 4.00989
480900 4.24167
480939 4.59424
480977 5.16118
481016 6.13759
481055 7.95476
481093 11.4964
481127 16.5276
481160 19.9418
481194 16.6697
481227 11.6651
481259 8.54184
481291 6.73826
481323 5.67283
481355 5.00921
481418 4.27363
481482 3.90058
481546 3.68596
481610 3.55057
481737 3.39350
481865 3.30632
481992 3.25053
482248 3.18045
482503 3.13436
482758 3.09858
483268 3.04024
484289 2.93915
484799 2.88342
485054 2.84806
485182 2.84685
485245 2.94859
485277 3.25381
485293 3.74260
485301 4.23665
485309 5.04188
485330 8.26874
485341 7.62409
485351 6.11435
485360 5.17438
485368 4.56454
485385 3.89239
485403 3.56224
485420 3.37707
485454 3.18476
485489 3.08980
485558 2.99730
485626 2.95175
485764 2.90398
485902 2.87642
486177 2.84009
486453 2.81312
487004 2.77265
487279 2.76626
487417 2.78952
487486 2.86447
487520 3.05807
487538 3.50671
487546 4.34212
487550 5.44897
487555 8.11990
487560 12.9518
487563 10.8178
487565 7.48034
487570 4.64384
487574 3.61830
487582 2.96921
487599 2.72412
487633 2.67281
487701 2.67525
487836 2.68050
488107 2.67614
488648 2.67343
488919 2.69574
489054 2.72326
489189 2.77432
489324 2.87567
489460 3.10977
489527 3.35818
489595 3.83403
489629 4.24888
489663 4.88517
489697 5.89945
489730 7.54041
489775 11.0185
489820 14.1129
489865 12.9259
489910 9.98205
489966 7.56173
490023 6.42695
490079 5.96612
490135 5.89423
490248 6.59423
490361 8.56479
490466 11.7119
490570 13.8549
490675 11.6443
490779 8.29161
490873 6.27715
490968 5.07142
491062 4.33366
491156 3.86027
491345 3.31307
491534 3.01806
491723 2.83632
491911 2.71234
492289 2.54815
492666 2.43465
493043 2.34037
493421 2.25008
493610 2.22583
493657 2.24912
493704 2.34581
493728 2.48254
493751 2.80676
493763 3.14088
493775 3.73801
493787 4.88224
493798 7.13086
493809 10.5963
493815 12.2436
493820 12.9238
493842 7.94490
493852 6.00766
493863 4.85661
493874 4.15452
493884 3.70307
493905 3.18105
493927 2.90125
493969 2.62073
494011 2.48469
494096 2.35115
494181 2.28232
494350 2.20237
494520 2.14817
495198 1.98033
495875 1.81052
496553 1.60879
497231 1.35205
497909 1.01080
498248 0.800326
498587 0.572353
498756 0.469198
498926 0.417718
499010 0.457114
499095 0.641325
499138 0.877592
499180 1.36187
499201 1.79523
499222 2.46809
499243 3.54201
499265 5.24750
499292 8.60785
499320 10.8663
499326 10.7599
499338 9.87177
499351 8.47740
499376 5.75786
499395 4.22469
499415 3.19189
499454 2.01008
499493 1.42026
499532 1.10346
499610 0.832738
499688 0.790869
499766 0.875421
499844 1.05411
500000 1.64892
500190 2.69381
500595 4.85020
501000 5.55222
501054 5.55845
501196 5.52161
501338 5.43429
501622 5.19616
501906 4.94836
502190 4.72994
502474 4.56123
502616 4.50592
502758 4.48538
502900 4.53457
502971 4.61339
503042 4.76668
503113 5.06835
503184 5.71010
503220 6.30952
503255 7.28918
503291 8.97176
503326 11.9135
503363 16.7047
503400 19.9638
503437 16.8263
503474 12.0193
503512 8.88637
503549 7.13007
503586 6.11412
503624 5.48998
503661 5.08043
503698 4.79813
503773 4.44276
503848 4.23135
503923 4.09188
504072 3.91561
504222 3.80362
504371 3.72149
504670 3.59985
504969 3.50654
505268 3.42850
505866 3.29917
506464 3.19197
507062 3.09845
507660 3.01187
507959 2.96646
508108 2.94410
508183 2.96204
508220 3.08758
508239 3.40683
508248 3.88114
508257 5.07227
508270 8.08086
508276 7.47702
508283 5.98930
508295 4.33379
508307 3.71504
508332 3.29756
508381 3.08687
508479 2.99000
508675 2.93389
509068 2.88011
509461 2.84346
509853 2.82281
510246 2.83685
510442 2.87381
510639 2.95457
510835 3.12523
511031 3.50117
511130 3.85237
511228 4.41408
511326 5.34134
511424 6.88247
511552 10.1496
511680 13.0798
511808 11.9072
511936 8.99755
512075 6.77077
512213 5.49536
512352 4.75482
512491 4.31353
512629 4.06923
512768 4.01473
512837 4.09275
512906 4.29671
512976 4.72524
513045 5.56322
513123 7.21548
513200 8.80400
513238 8.94537
513277 8.83013
513296 8.90876
513315 9.34811
513325 9.84389
513334 10.6713
513344 12.0270
513353 14.1557
513355 14.6377
513361 16.6812
513368 18.9036
513380 21.4791
513393 18.1892
513407 13.3635
513417 10.8271
513427 9.16979
513437 8.06017
513447 7.28920
513467 6.30723
513487 5.71937
513527 5.03519
513567 4.63668
513607 4.36750
513647 4.16996
513727 3.89538
513808 3.71064
513888 3.57684
514048 3.39330
514208 3.27111
514369 3.18323
514529 3.12863
514609 3.17208
514649 3.41154
514669 4.02510
514679 5.02801
514684 6.09014
514689 7.94739
514695 11.0559
514700 13.1780
514705 11.2469
514711 8.29015
514719 5.73130
514727 4.61153
514743 3.75996
514776 3.31437
514841 3.12241
514971 3.02804
515231 2.95118
515752 2.85884
516272 2.79264
516792 2.73952
517833 2.65494
518874 2.58664
520955 2.47414
521996 2.42423
522516 2.39955
522776 2.38636
522906 2.37989
522971 2.38488
523004 2.42968
523020 2.60223
523028 3.06281
523032 3.91093
523036 6.85003
523040 11.6268
523044 7.15770
523048 4.13958
523052 3.25639
523061 2.73289
523077 2.50605
523111 2.42233
523178 2.39089
523313 2.37475
523583 2.35921
524121 2.33510
525199 2.29306
525738 2.27657
526277 2.27092
526546 2.28160
526816 2.32659
526951 2.39077
527018 2.45175
527085 2.55487
527153 2.74875
527186 2.91599
527220 3.17524
527254 3.60924
527287 4.40535
527304 5.07112
527321 6.05125
527338 7.54210
527355 9.81879
527377 14.3089
527400 17.4058
527423 14.4052
527445 9.75219
527463 7.35368
527480 5.81274
527497 4.82052
527514 4.16587
527548 3.39418
527582 2.98419
527616 2.74378
527650 2.59181
527718 2.41858
527855 2.27341
527991 2.21421
528264 2.16278
528537 2.13669
529082 2.10174
529628 2.07241
530174 2.04531
530719 2.02511
530992 2.02594
531265 2.05852
531401 2.11575
531469 2.17349
531538 2.27453
531606 2.46899
531640 2.63873
531674 2.90401
531708 3.34700
531742 4.15334
531759 4.81927
531776 5.78554
531793 7.23623
531810 9.38699
531835 13.9206
531860 17.0292
531885 14.0991
531910 9.56925
531935 6.59852
531960 4.95180
531985 4.00601
532011 3.42874
532036 3.05397
532061 2.80018
532111 2.48779
532162 2.30967
532212 2.19829
532313 2.06947
532515 1.95121
532717 1.89044
532918 1.84795
533120 1.81904
533221 1.81933
533322 1.86298
533372 1.94014
533423 2.14280
533448 2.36796
533473 2.80086
533498 3.72469
533511 4.57680
533524 5.89728
533560 11.6763
533578 10.5457
533597 7.64223
533614 5.65803
533631 4.45648
533648 3.72345
533665 3.25675
533700 2.71915
533734 2.43357
533802 2.14888
533871 2.00987
534008 1.86888
534145 1.78856
534694 1.55843
534969 1.41183
535106 1.31348
535243 1.18621
535380 1.01311
535517 0.764987
535655 0.402737
535723 0.192223
535792 0.0812408
535824 0.171656
535856 0.479712
535888 1.14431
535920 2.21969
535952 3.49153
535984 4.50218
536048 5.07796
536087 4.88459
536125 4.59324
536202 4.04510
536279 3.63646
536356 3.34279
536433 3.12636
536510 2.96235
536664 2.73194
536818 2.57928
536971 2.47259
537279 2.34369
537587 2.30470
537741 2.32971
537895 2.40745
538049 2.58348
538202 2.96652
538356 3.84344
538433 4.67539
538510 5.97895
538625 9.07717
538740 11.9037
538855 10.8415
538970 8.08045
539048 6.61264
539126 5.56479
539283 4.29283
539439 3.60550
539595 3.19484
539751 2.92744
539907 2.74128
540220 2.49910
540532 2.34620
540845 2.23783
541470 2.08459
542095 1.96765
542719 1.85881
543344 1.73497
543657 1.65461
543813 1.60559
543891 1.59095
543930 1.65274
543950 1.87401
543959 2.27514
543969 3.50380
543980 6.36930
543985 5.86515
543991 4.50550
544002 2.93268
544013 2.35845
544035 1.97052
544079 1.79033
544123 1.76950
544167 1.82195
544212 1.97236
544256 2.32211
544300 3.16174
544322 3.98686
544344 5.30078
544377 8.49469
544410 11.3744
544443 10.4001
544476 7.83813
544508 6.00112
544540 4.85274
544572 4.12524
544604 3.64754
544667 3.08308
544731 2.78079
544858 2.51094
544986 2.46941
545113 2.62477
545241 3.11243
545304 3.60345
545368 4.41070
545432 5.76355
545495 8.01893
545636 15.0472
545650 15.2167
545680 14.8587
545710 13.8181
545770 11.7676
545805 11.2094
545904 9.29847
545968 7.70701
546032 6.45962
546096 5.55878
546160 4.90750
546288 4.06067
546416 3.55060
546544 3.21633
546672 2.98250
546928 2.67870
547184 2.48955
547440 2.35930
547952 2.18750
548464 2.07416
548976 1.98934
550000 1.86026
551000 1.75789
551735 1.69576
551918 1.68943
552102 1.70619
552194 1.74551
552286 1.86513
552331 2.01943
552377 2.37990
552400 2.76220
552423 3.48126
552435 4.09616
552446 5.02244
552458 6.45783
552469 8.66457
552485 13.0882
552500 16.0954
552516 13.3071
552531 9.04095
552547 6.12385
552564 4.53127
552580 3.62891
552597 3.08229
552630 2.49045
552663 2.19570
552729 1.92195
552795 1.79987
552927 1.69001
553059 1.63760
553323 1.57916
553587 1.53937
554642 1.40996
555698 1.27760
556226 1.20886
556490 1.17699
556622 1.16990
556688 1.20216
556721 1.34288
556737 1.74288
556745 2.51772
556750 3.50107
556754 5.59520
556760 10.2722
556763 8.52446
556766 5.82955
556773 3.07719
556779 2.13364
556792 1.54776
556818 1.28536
556870 1.18802
556973 1.15006
557181 1.13305
557388 1.14076
557595 1.18092
557802 1.28031
558009 1.49782
558216 1.97125
558320 2.39983
558423 3.07174
558494 3.77205
558564 4.85419
558599 5.67252
558634 6.84029
558670 8.63864
558705 11.5560
558742 16.2136
558780 19.4529
558815 17.1744
558850 13.2276
558855 12.7275
558868 11.6001
558882 10.6636
558908 9.25085
558961 7.54683
559013 6.52824
559066 5.78403
559172 4.63896
559277 3.75740
559401 2.96676
559525 2.37770
559773 1.59018
560021 1.11569
560269 0.869745
560457 0.876119
560645 1.16674
560738 1.48171
560832 1.96080
560926 2.66019
561020 3.66908
561111 5.11221
561202 7.34857
561390 14.0587
561484 13.4112
561578 10.9512
561675 9.05068
561771 7.85875
561887 6.94391
562003 6.31580
562234 5.45994
562466 4.87321
562697 4.43649
563160 3.82726
563623 3.42357
564086 3.13667
564549 2.92318
564780 2.83799
565012 2.77190
565128 2.75555
565243 2.77910
565301 2.83997
565359 3.01878
565388 3.23888
565417 3.71737
565431 4.18810
565446 4.99767
565460 6.52215
565475 9.49228
565487 13.7909
565500 16.7155
565513 13.9914
565525 9.82251
565540 6.86766
565554 5.30453
565568 4.43938
565582 3.92346
565611 3.37188
565639 3.09987
565696 2.84482
565752 2.72802
565866 2.61529
565979 2.55451
566206 2.47647
566433 2.41766
566887 2.31400
567114 2.25108
567228 2.19591
567284 2.14897
567313 2.15939
567327 2.32622
567334 2.67783
567341 3.77896
567350 6.69749
567354 6.28946
567359 5.12089
567367 3.81502
567375 3.23769
567390 2.77938
567421 2.50704
567484 2.36500
567609 2.28433
567858 2.22030
568358 2.14646
568607 2.12330
568857 2.12473
568982 2.15674
569107 2.26950
569169 2.42088
569232 2.77876
569263 3.15754
569294 3.86940
569310 4.47092
569325 5.36823
569341 6.74068
569356 8.84094
569378 13.1683
569400 16.1167
569422 13.4265
569444 9.29525
569466 6.54711
569489 5.00352
569511 4.10876
569533 3.55935
569578 2.95165
569623 2.64298
569667 2.46420
569712 2.35042
569801 2.21662
569980 2.09241
570159 2.03077
570517 1.95994
570874 1.91178
571590 1.83574
572305 1.77007
573736 1.65017
574093 1.61636
574451 1.56506
574630 1.51739
574808 1.42372
574898 1.33476
574987 1.17837
575077 0.864265
575166 0.364648
575188 0.699668
575199 1.26783
575210 2.23252
575232 4.44768
575254 5.02459
575299 4.12209
575344 3.47699
575389 3.12727
575434 2.92485
575524 2.72218
575614 2.64654
575793 2.66561
575973 2.82346
576333 3.55009
576692 5.14956
577056 8.12853
577420 10.8813
577784 10.0057
578148 7.58142
578561 5.60219
578767 4.95747
578973 4.48113
579180 4.14960
579283 4.04416
579386 3.99801
579489 4.05711
579541 4.16157
579592 4.36005
579644 4.72979
579696 5.43914
579747 6.89057
579773 8.15830
579799 10.0045
579839 14.2110
579880 17.0905
579921 14.4152
579961 10.2891
579996 7.91406
580030 6.43747
580065 5.50089
580099 4.88471
580168 4.15111
580237 3.74433
580306 3.48836
580375 3.31186
580512 3.07889
580650 2.92383
580788 2.80464
580926 2.69598
580995 2.63177
581029 2.60647
581046 2.67882
581055 2.92644
581063 4.24631
581070 6.99829
581077 5.40957
581086 3.75056
581095 3.24738
581113 2.92946
581149 2.75934
581222 2.65775
581368 2.56822
581659 2.45577
582240 2.29920
582822 2.18439
583404 2.09352
584568 1.95434
585731 1.84835
586895 1.76118
588058 1.68528
589222 1.61762
589804 1.60020
589949 1.61194
590095 1.66296
590167 1.73901
590240 1.93773
590277 2.17150
590313 2.66637
590331 3.14154
590349 3.94627
590367 5.40224
590386 8.11289
590403 12.2757
590420 15.1152
590437 12.5359
590455 8.56494
590470 6.21778
590485 4.79160
590500 3.90586
590515 3.33234
590545 2.66935
590575 2.32126
590635 1.98416
590695 1.83071
590815 1.69435
590935 1.63375
591175 1.57715
591295 1.56638
591356 1.58568
591386 1.67549
591401 1.94464
591408 2.53224
591412 3.41352
591416 5.66345
591420 9.90177
591424 5.78485
591428 3.56666
591432 2.66487
591439 2.01429
591453 1.70216
591481 1.58716
591538 1.54682
591651 1.52653
591877 1.50561
592330 1.47322
593236 1.41359
594141 1.34730
594594 1.32755
594707 1.34600
594821 1.41650
594877 1.50535
594934 1.68522
594990 2.07681
595047 2.98195
595094 4.40923
595140 5.75138
595187 5.34659
595233 4.15328
595272 3.38418
595311 2.87305
595350 2.53564
595389 2.30681
595467 2.03238
595545 1.89131
595623 1.83494
595701 1.88378
595740 1.99597
595779 2.27242
595799 2.55535
595818 3.05634
595838 4.01287
595857 5.93459
595874 8.63521
595890 10.5007
595907 8.77991
595923 6.10678
595939 4.38035
595956 3.40486
595972 2.83079
595988 2.47704
596021 2.08314
596054 1.88185
596119 1.68739
596184 1.59596
596315 1.50710
596446 1.46083
596707 1.40692
596968 1.37146
597491 1.31561
597752 1.28138
597883 1.24708
597948 1.20759
597981 1.18163
597997 1.23614
598005 1.45854
598014 2.72057
598020 5.45741
598026 3.99178
598034 2.49649
598042 1.98770
598057 1.64134
598088 1.45588
598150 1.36449
598273 1.31582
598520 1.28110
599013 1.24219
600000 1.17964
601000 1.11569
601637 1.06921
602274 1.01050
602593 0.970430
602911 0.913426
603230 0.821054
603389 0.803453
603429 0.857768
603469 1.03523
603488 1.24173
603508 1.62962
603528 2.38965
603548 3.91014
603569 6.81385
603590 9.51525
603611 8.76907
603632 6.53855
603649 5.12605
603666 4.15981
603683 3.49569
603699 3.03307
603733 2.44636
603767 2.10264
603834 1.73001
603902 1.53664
604036 1.34106
604171 1.24188
604441 1.13753
604710 1.07854
605249 1.00336
605788 0.947586
606866 0.848713
607405 0.795799
607675 0.761720
607809 0.733251
607877 0.706338
607911 0.696970
607927 0.762360
607936 0.981016
607944 2.27916
607950 4.88313
607956 3.36930
607964 1.71396
607973 1.26215
607990 0.991329
608024 0.857971
608092 0.793248
608229 0.753821
608501 0.714611
609047 0.652030
609592 0.591107
609865 0.571963
610001 0.613973
610069 0.809349
610086 0.981495
610103 1.36119
610120 2.43526
610129 3.81247
610137 6.83102
610144 10.7146
610150 13.3984
610156 10.9394
610163 7.09089
610168 5.09948
610172 3.79841
610182 2.37804
610201 1.32768
610220 0.964928
610240 0.799127
610278 0.654254
610316 0.592144
610470 0.508081
610777 0.446665
611391 0.355941
612005 0.282976
612312 0.265662
612619 0.279486
612862 0.334340
612984 0.395851
613045 0.470785
613075 0.612934
613090 0.936359
613098 1.56444
613102 2.42994
613105 4.56240
613110 8.50848
613115 4.37286
613118 2.34864
613121 1.47806
613127 0.846932
613140 0.556957
613166 0.481513
613218 0.502334
613321 0.598802
613424 0.723892
613527 0.881727
613734 1.33246
613837 1.66329
613889 1.87940
613940 2.16247
613980 2.47410
614019 2.97401
614039 3.37650
614059 3.98610
614079 4.97792
614099 6.66061
614119 9.37369
614140 11.2677
614161 9.67973
614182 7.16895
614198 5.79607
614215 4.96482
614232 4.46394
614249 4.15969
614283 3.86477
614316 3.77772
614383 3.84944
614451 4.05634
614585 4.70266
614653 5.22195
614720 6.04580
614870 8.90759
615020 7.40950
615081 6.66860
615141 6.14001
615261 5.46503
615436 4.87408
615610 4.45279
615785 4.11491
615872 4.00333
615916 4.09244
615938 4.49423
615949 5.25875
615954 6.16194
615960 7.84918
615965 10.4817
615970 12.2480
615975 10.6404
615980 8.20676
615988 6.14269
615995 5.18718
616010 4.42198
616039 3.97816
616097 3.72881
616213 3.51308
616446 3.22060
616679 2.98768
616912 2.79282
617378 2.48450
617843 2.25250
618775 1.92708
619706 1.70804
620638 1.54761
621569 1.42178
622501 1.31556
622967 1.26224
623200 1.22560
623316 1.19032
623374 1.15742
623403 1.16215
623418 1.28664
623425 1.57992
623432 2.64443
623440 5.26890
623448 3.85271
623454 2.64362
623461 2.11258
623475 1.69647
623502 1.45794
623556 1.34204
623664 1.29583
623771 1.34544
623825 1.57110
623852 2.16634
623866 3.27069
623873 4.61725
623879 7.43020
623885 11.1612
623890 13.7373
623895 11.3333
623901 7.53192
623906 5.03370
623912 3.67319
623922 2.42556
623944 1.66851
623987 1.34696
624074 1.23460
624247 1.18829
624593 1.14892
625286 1.08582
625979 1.01148
626325 0.944236
626499 0.876619
626585 0.855070
626628 1.02038
626650 1.51688
626661 2.23768
626672 3.89404
626690 9.18432
626699 8.49215
626708 6.29805
626717 4.66886
626727 3.64572
626745 2.58486
626763 2.08727
626781 1.81400
626817 1.53034
626854 1.38866
626926 1.24920
626999 1.18028
627144 1.10966
627289 1.07126
627580 1.02512
627870 0.993647
628451 0.942188
628742 0.911355
628887 0.882918
628960 0.854791
628996 0.849865
629014 0.935504
629023 1.18240
629032 2.35560
629040 4.92362
629048 3.49175
629056 2.12941
629063 1.62356
629079 1.26853
629111 1.07861
629174 0.987655
629300 0.941281
629553 0.910759
630059 0.887347
630312 0.891850
630565 0.932157
630691 0.995028
630818 1.15509
630881 1.33564
630944 1.69868
630976 2.02795
631008 2.55530
631039 3.44083
631071 4.95633
631105 7.52487
631140 9.30086
631175 7.67740
631209 5.14431
631243 3.51559
631278 2.58682
631312 2.04327
631346 1.70738
631414 1.33487
631482 1.14587
631618 0.966324
631754 0.883296
632027 0.802228
632299 0.755944
632844 0.686811
632981 0.677198
633117 0.692182
633185 0.731919
633253 0.839890
633321 1.15224
633355 1.51139
633389 2.16667
633470 4.81564
633510 4.47742
633551 3.38402
633597 2.47303
633642 1.94501
633688 1.63055
633734 1.43079
633826 1.19993
633917 1.07418
634100 0.943180
634284 0.875465
634650 0.804031
635016 0.765076
635383 0.740846
635749 0.727812
636116 0.733642
636299 0.774477
636390 0.907470
636436 1.26883
636459 1.96900
636471 2.86305
636482 4.75846
636491 7.30708
636500 9.06535
636509 7.51147
636518 5.07096
636532 2.92222
636546 2.01083
636574 1.33893
636602 1.10898
636629 1.00713
636685 0.928385
636741 0.909109
636852 0.935883
636963 1.02417
637074 1.20621
637130 1.36398
637185 1.60653
637241 2.00264
637297 2.70379
637352 4.07545
637380 5.25768
637408 6.98808
637449 10.6545
637490 13.2313
637531 10.7535
637572 6.82580
637603 4.81050
637634 3.52024
637665 2.69350
637695 2.14973
637757 1.51405
637818 1.18041
637880 0.986141
637942 0.864385
638065 0.726272
638188 0.653684
638311 0.610260
638557 0.561107
639049 0.512963
639542 0.482596
640526 0.426683
641018 0.383677
641265 0.343833
641388 0.333130
641449 0.426507
641480 0.686903
641495 1.04106
641511 1.78888
641540 4.41286
641555 4.08854
641569 3.02872
641590 1.99956
641610 1.46922
641651 1.00154
641691 0.806790
641732 0.704678
641813 0.601753
641894 0.550517
642057 0.498974
642219 0.472211
642544 0.442914
642869 0.425943
643518 0.403164
643843 0.385258
644006 0.380593
644087 0.470658
644127 0.807926
644148 1.44412
644158 2.17147
644168 3.50721
644190 8.52159
644201 7.83776
644212 5.57395
644226 3.60089
644239 2.54417
644266 1.60227
644294 1.21628
644321 1.02072
644375 0.833998
644429 0.750495
644538 0.683756
644647 0.666862
644864 0.691028
645081 0.765378
645299 0.896735
645516 1.11768
645625 1.28313
645733 1.51150
645787 1.66914
645842 1.90048
645869 2.08918
645896 2.41540
645923 3.15064
645937 3.93184
645950 5.33446
645980 10.5934
645995 10.0126
646010 7.90875
646030 5.99284
646049 5.06735
646069 4.63230
646089 4.44133
646128 4.40812
646168 4.61192
646247 5.41104
646326 6.62156
646493 10.3092
646660 12.8906
646827 10.4884
646994 6.74252
647182 4.08405
647370 2.67638
647558 1.89582
647746 1.42889
647933 1.12910
648121 0.925230
648497 0.671732
648873 0.522969
649249 0.425410
650000 0.302128
651000 0.199180
651680 0.144223
652113 0.114192
652545 0.0999230
652761 0.117894
652978 0.204520
653086 0.324956
653194 0.592052
653248 0.846197
653302 1.26120
653356 1.96841
653410 3.19347
653540 8.13776
653573 8.22980
653605 7.45923
653670 5.16459
653746 3.23630
653822 2.17503
653899 1.57302
653975 1.20498
654127 0.796045
654279 0.581586
654432 0.451335
654584 0.364385
654737 0.305102
654813 0.299471
654851 0.368160
654870 0.570533
654879 0.903535
654889 1.86401
654900 4.23447
654906 3.89105
654911 2.72457
654921 1.43767
654931 0.935333
654951 0.590075
654992 0.419734
655072 0.364880
655153 0.389494
655233 0.475502
655313 0.670665
655354 0.846568
655394 1.11877
655434 1.55717
655474 2.29293
655515 3.59104
655555 5.92496
655597 9.86660
655640 12.6447
655725 7.61242
655747 6.70947
655789 6.32466
655830 6.58918
655913 4.21673
655951 3.21012
655989 2.53458
656027 2.07494
656066 1.75212
656142 1.37723
656180 1.42242
656199 1.81536
656209 2.48364
656218 4.31803
656230 8.95171
656236 8.21005
656242 5.81719
656247 4.18525
656252 3.17814
656263 2.17155
656284 1.46635
656326 1.07356
656410 0.832255
656494 0.716094
656578 0.641146
656746 0.555769
656914 0.535227
657082 0.595993
657250 0.816271
657334 1.04956
657418 1.43991
657502 2.09907
657586 3.20557
657708 5.92258
657830 8.55341
657952 8.03699
658074 6.13698
658170 5.03622
658266 4.48894
658315 4.46566
658363 4.68963
658411 5.31212
658459 6.60473
658509 8.87786
658560 10.4335
658611 8.74668
658661 6.18712
658698 4.86563
658736 3.97857
658773 3.37834
658810 2.95957
658884 2.42572
658958 2.10577
659032 1.89318
659106 1.74154
659254 1.53787
659403 1.40638
659551 1.31462
659847 1.19693
660144 1.12871
660440 1.08889
661033 1.05910
662219 1.10518
662812 1.15849
663109 1.18979
663257 1.20803
663331 1.22930
663368 1.29090
663387 1.48294
663396 1.94727
663401 2.69116
663405 4.85931
663410 8.73628
663415 5.10358
663419 3.02586
663423 2.22690
663432 1.66106
663448 1.38994
663481 1.29083
663548 1.26382
663680 1.26808
663946 1.29621
664477 1.35309
664742 1.37171
665008 1.37377
665273 1.36682
665340 1.39343
665406 1.50265
665439 1.64768
665473 1.94869
665506 2.60815
665539 4.09799
665600 9.34642
665630 8.84459
665660 6.93716
665661 6.86560
665666 6.59439
665671 6.33831
665680 5.87726
665699 5.12189
665736 4.12664
665773 3.54244
665811 3.17592
665886 2.76098
665960 2.54463
666035 2.41864
666110 2.34064
666259 2.25881
666409 2.22712
666559 2.22083
666858 2.24698
667157 2.30008
667456 2.36816
667755 2.44858
667904 2.50214
667979 2.56340
668016 2.69532
668035 3.01651
668044 3.63479
668049 4.46616
668054 6.32140
668060 10.1215
668066 6.31923
668072 4.03507
668079 3.26862
668091 2.80512
668115 2.61696
668164 2.57062
668261 2.58427
668455 2.63965
668843 2.75975
669620 3.01662
670008 3.15918
670397 3.33498
670591 3.46317
670688 3.55442
670785 3.68373
670882 3.88911
670979 4.26732
671028 4.59620
671077 5.11056
671125 5.96241
671174 7.40153
671227 9.82431
671280 11.5228
671333 10.0179
671386 7.62741
671435 6.18522
671483 5.33522
671532 4.82805
671580 4.51301
671677 4.17028
671773 4.00730
671870 3.92386
671967 3.88027
672160 3.84942
672547 3.86570
672740 3.90423
672837 4.04355
672861 4.17121
672886 4.45276
672910 5.19113
672922 6.01807
672934 7.50086
672947 10.0824
672954 11.3190
672960 11.8499
672986 8.28096
672999 6.84031
673012 5.98655
673038 5.13424
673064 4.75113
673090 4.54811
673142 4.35032
673194 4.26080
673298 4.18718
673402 4.16289
673610 4.15833
673818 4.17258
674650 4.25159
676313 4.30905
677977 4.19186
678808 4.07557
679640 3.92833
680151 3.83154
680407 3.81214
680470 3.83368
680534 3.91111
680566 4.01532
680598 4.26319
680614 4.53248
680630 5.05510
680646 6.25300
680654 7.45741
680662 9.46086
680671 12.8938
680680 15.3285
680689 13.0820
680698 9.55086
680709 6.83033
680721 5.52810
680744 4.49202
680767 4.11288
680790 3.93618
680836 3.77736
680882 3.70563
681065 3.58570
681249 3.51748
681340 3.55841
681386 3.76150
681409 4.07872
681432 4.83537
681470 7.30324
681489 7.02817
681508 6.01838
681527 5.24689
681546 4.76695
681584 4.26371
681622 4.02219
681659 3.88466
681735 3.73347
681811 3.64907
681962 3.54788
682113 3.47977
682416 3.37503
682718 3.28531
683324 3.12297
683626 3.05319
683777 3.03982
683853 3.10257
683891 3.33347
683910 3.85895
683919 4.64772
683929 6.69306
683934 8.98686
683940 10.6140
683946 9.16559
683951 6.90924
683960 4.90337
683969 4.05959
683987 3.44825
684022 3.14309
684093 3.01994
684235 2.97046
684377 2.96658
684519 2.99999
684661 3.10503
684732 3.21259
684803 3.39290
684874 3.70926
684945 4.30574
684981 4.80617
685016 5.54500
685052 6.65920
685087 8.33729
685139 11.8778
685190 14.3523
685241 12.1192
685293 8.59518
685345 6.25342
685398 4.94380
685450 4.18346
685503 3.71413
685555 3.40431
685608 3.18902
685713 2.91241
685818 2.74207
685923 2.62449
686133 2.46444
686343 2.35010
686554 2.25593
686974 2.09267
687814 1.79093
688235 1.63456
688445 1.54733
688550 1.48985
688602 1.44350
688629 1.41659
688642 1.46183
688648 1.65104
688655 2.70074
688660 5.06052
688665 3.85748
688672 2.49988
688678 2.06246
688691 1.77008
688717 1.61304
688768 1.52781
688871 1.46886
689078 1.44491
689181 1.49984
689284 1.68323
689335 1.88491
689387 2.23924
689438 2.87944
689490 4.05002
689610 8.82762
689670 8.26129
689730 6.16834
689771 5.00167
689812 4.15666
689894 3.11295
689977 2.53648
690059 2.18399
690223 1.78026
690387 1.55838
690551 1.43441
690715 1.42577
690797 1.52162
690879 1.81417
690920 2.14136
690961 2.74942
691002 3.96842
691023 5.01930
691043 6.54321
691077 10.1300
691110 12.6115
691144 10.4346
691177 7.03413
691200 5.36631
691223 4.22242
691269 2.88944
691315 2.19551
691361 1.79092
691407 1.53145
691452 1.35178
691544 1.11681
691636 0.964470
691728 0.852343
691912 0.685369
692279 0.448625
692646 0.304455
692862 0.299346
692970 0.338478
693078 0.419577
693186 0.557097
693294 0.767852
693510 1.46810
693942 3.55147
694158 4.11766
694374 4.17497
694626 3.96597
694878 3.84490
695003 3.93791
695129 4.24589
695255 4.95298
695381 6.40043
695506 8.81368
695630 10.6675
695879 8.42268
695890 8.38188
695928 8.34954
695965 8.47996
696040 9.15794
696190 10.7090
696340 9.68067
696490 7.43018
696600 6.10606
696709 5.13493
696929 3.89804
697148 3.17271
697368 2.69963
697806 2.10929
698245 1.74181
699123 1.27923
700000 0.980503
700190 0.928182
700595 0.827506
701000 0.739342
701664 0.615430
701996 0.558145
702162 0.533175
702245 0.560442
702286 0.732694
702307 1.19080
702317 1.93109
702327 3.95148
702334 6.30850
702340 7.96381
702346 6.61378
702353 4.51687
702364 2.46468
702375 1.64039
702397 1.04854
702441 0.741104
702530 0.603812
702708 0.534412
703062 0.481417
703772 0.427369
704482 0.402826
704837 0.394175
705014 0.380987
705103 0.361681
705148 0.353774
705170 0.411457
705181 0.603878
705192 1.66932
705200 3.98058
705208 2.76092
705220 1.32426
705231 0.907540
705254 0.654997
705300 0.532787
705392 0.480263
705576 0.463614
705943 0.475382
706678 0.539744
707412 0.635568
707780 0.687880
707963 0.702728
708055 0.685451
708101 0.636858
708124 0.567454
708136 0.538144
708141 0.691300
708147 2.85790
708150 7.40062
708153 5.27610
708158 2.44273
708163 1.68731
708173 1.22988
708192 1.00117
708231 0.898340
708310 0.861810
708466 0.869669
708780 0.927736
709407 1.07702
710660 1.43313
712489 2.02105
713404 2.31475
713862 2.46407
714090 2.58419
714147 2.65429
714205 2.80384
714233 2.96295
714262 3.27905
714290 4.02851
714305 4.81223
714319 6.15619
714334 8.45075
714350 10.0581
714366 8.68513
714381 6.50582
714402 4.76514
714422 3.93032
714443 3.50055
714464 3.25735
714505 3.01205
714546 2.90064
714628 2.81150
714711 2.78435
715040 2.79940
715369 2.82848
715534 2.83826
715616 2.95407
715657 3.33147
715678 3.93236
715698 5.43518
715730 10.2007
715746 9.75609
715762 7.87593
715776 6.56635
715790 5.69886
715818 4.74544
715846 4.27635
715874 4.01655
715930 3.75651
715985 3.64297
716097 3.57809
716209 3.61239
716433 3.89694
716656 4.65767
717010 7.09718
717187 6.90002
717364 5.98348
717599 5.11417
717835 4.66423
718070 4.42616
718306 4.29218
718776 4.16399
719247 4.11301
719718 4.08943
720189 4.07591
720659 4.08308
720895 4.14852
721012 4.27158
721071 4.40899
721130 4.67534
721164 4.94978
721198 5.39864
721232 6.16771
721266 7.50326
721303 9.80912
721340 11.4160
721377 10.0446
721415 7.88774
721439 6.87728
721463 6.17594
721511 5.34952
721560 4.93564
721608 4.73743
721657 4.69622
721705 4.84620
721754 5.36396
721802 6.76111
721880 11.4420
721919 10.9810
721958 9.09400
722001 7.50600
722045 6.55800
722088 5.97996
722131 5.60773
722218 5.16983
722304 4.92758
722391 4.77608
722477 4.67301
722650 4.54202
722996 4.40748
723342 4.33661
724034 4.25913
724726 4.22239
725418 4.23170
725764 4.27056
726110 4.35742
726456 4.54163
726802 4.95273
726975 5.34722
727148 6.00506
727321 7.16341
727494 9.26173
727830 14.7871
727998 12.6272
728166 9.16636
728279 7.52635
728392 6.41403
728617 5.13972
728843 4.49143
729068 4.11837
729294 3.87857
729519 3.70959
729970 3.47609
730421 3.30577
730872 3.16074
731324 3.04094
731436 3.03471
731549 3.08905
731605 3.19181
731662 3.46257
731690 3.75969
731718 4.31941
731746 5.46900
731761 6.48214
731775 7.96251
731797 11.4722
731820 13.8934
731866 8.83668
731887 6.85157
731909 5.66388
731931 4.93002
731952 4.45742
731995 3.90507
732039 3.60534
732125 3.29764
732212 3.14065
732385 2.97153
732558 2.86908
732905 2.72207
733251 2.59883
733944 2.36457
734636 2.12339
735329 1.87078
736022 1.63100
736368 1.55440
736714 1.59620
736888 1.73549
737061 2.06544
737234 2.81451
737321 3.49856
737407 4.53943
737551 7.54951
737623 9.87066
737695 12.8139
737730 14.4405
737795 17.4621
737860 18.7345
738025 11.6354
738053 10.4550
738149 7.53196
738245 5.74060
738341 4.57588
738437 3.77204
738628 2.74541
738820 2.12269
738990 1.74682
739160 1.47801
739245 1.38299
739330 1.33757
739415 1.48215
739458 1.93442
739479 2.59101
739500 4.12413
739515 6.06541
739530 7.43196
739545 6.24954
739560 4.36482
739577 3.02673
739593 2.30020
739626 1.63548
739659 1.35247
739693 1.20145
739759 1.04158
739825 0.953393
739958 0.849859
740090 0.789298
740355 0.739429
740620 0.764045
741150 1.01026
741680 1.47143
743110 2.95306
743825 3.41384
744183 3.54284
744540 3.60253
744749 3.59616
744853 3.58456
744906 3.63900
744932 3.82697
744945 4.11302
744958 4.78056
744980 7.07594
744991 6.89034
745002 5.99661
745020 5.00876
745038 4.54189
745074 4.16230
745147 3.94904
745219 3.90290
745291 3.92441
745363 4.02032
745435 4.25602
745507 4.82414
745544 5.37664
745580 6.25403
745690 10.7812
745745 10.3705
745801 8.49289
745864 6.87228
745927 5.92990
745990 5.37010
746053 5.01413
746180 4.59825
746306 4.36397
746559 4.09738
746812 3.93079
747317 3.68124
747823 3.45272
748834 2.98093
749087 2.89693
749340 2.90945
749592 3.23394
749719 3.70168
749845 4.59843
750000 6.57484
750095 8.06797
750190 9.11013
750363 8.61998
750535 6.78192
750768 4.85261
751000 3.63604
751239 2.76652
751478 2.10111
751786 1.47434
752094 1.18814
752248 1.21834
752402 1.37412
752710 1.98698
753326 3.42591
753942 4.26482
754397 4.65750
754851 5.13952
755078 5.53715
755306 6.17024
755533 7.23959
755760 9.07493
756020 12.3470
756280 14.6281
756540 12.6229
756800 9.46280
757092 7.17289
757383 5.90764
757675 5.16398
757966 4.68229
758258 4.33628
758549 4.05604
758841 3.78156
758987 3.64555
759060 3.72362
759096 4.10335
759114 4.64655
759133 5.80344
759170 10.4087
759189 10.0685
759208 8.38319
759230 6.83910
759252 5.93660
759275 5.39297
759297 5.04257
759342 4.62743
759387 4.39200
759476 4.13064
759566 3.98164
759745 3.80044
759925 3.67946
760283 3.50104
760642 3.35734
761359 3.10784
762076 2.87366
762793 2.63578
763510 2.38467
764227 2.13598
764406 2.09459
764585 2.10254
764675 2.16238
764764 2.33716
764809 2.53049
764854 2.89140
764899 3.62532
764921 4.27119
764943 5.22766
764977 7.29058
765010 8.76001
765043 7.42606
765077 5.27934
765116 3.69534
765156 2.89579
765196 2.46597
765235 2.21294
765314 1.94109
765394 1.80199
765552 1.66644
765631 1.65503
765671 1.74936
765691 1.97551
765710 2.84179
765730 5.03241
765740 4.85070
765750 3.95607
765767 2.91485
765784 2.46776
765819 2.14148
765888 2.00864
765957 2.04008
766026 2.14528
766165 2.56349
766303 3.35675
766512 5.53134
766720 7.75236
766929 7.30873
767138 5.52357
767350 4.05683
767561 3.06832
767808 2.30146
768056 1.78894
768551 1.24488
768798 1.16994
769045 1.21699
769540 1.60745
769876 1.97284
770044 2.13302
770128 2.21200
770170 2.32213
770191 2.54017
770212 3.46891
770230 5.64546
770239 5.47504
770248 4.57738
770265 3.49245
770282 3.05722
770316 2.75514
770385 2.62170
770521 2.63142
770589 2.69900
770658 2.87180
770726 3.33724
770794 4.61212
770920 9.77073
770983 9.60277
771046 8.28113
771105 7.25720
771164 6.55692
771223 6.08146
771282 5.75136
771401 5.33901
771519 5.10329
771710 4.89400
771901 4.79155
771997 4.77291
772093 4.79746
772140 4.85256
772188 4.99661
772236 5.46721
772260 6.17389
772272 6.87732
772284 8.05093
772310 11.4739
772323 10.1470
772336 7.99529
772348 6.78327
772359 6.04935
772381 5.31766
772425 4.83134
772513 4.60478
772690 4.50071
773044 4.40921
773752 4.26259
774460 4.12721
775168 4.00321
775875 3.89488
776583 3.81445
776937 3.79802
777291 3.82723
777468 3.88766
777645 4.03883
777733 4.20068
777822 4.51123
777866 4.78533
777910 5.21779
777954 5.94488
777999 7.21927
778080 10.3934
778100 10.0216
778121 8.96523
778161 6.58192
778201 5.15537
778240 4.40612
778279 4.00597
778318 3.78003
778396 3.56083
778474 3.46930
778631 3.40607
778787 3.39368
779100 3.42102
779256 3.46571
779334 3.53435
779374 3.67807
779393 3.92827
779413 4.81926
779430 6.84667
779439 6.64834
779447 5.65202
779459 4.71500
779471 4.27056
779495 3.92862
779543 3.76992
779639 3.78102
779735 3.89211
779831 4.07520
779927 4.35598
780023 4.79020
780119 5.47549
780215 6.55745
780460 10.0494
780582 8.72674
780705 6.57101
780830 5.12402
780956 4.31605
781082 3.84850
781207 3.55832
781458 3.22927
781710 3.05251
781961 2.95300
782212 2.94000
782338 3.01027
782463 3.23455
782526 3.48676
782589 3.95300
782652 4.86935
782683 5.64713
782715 6.78177
782760 9.44225
782783 11.4594
782806 14.2145
782840 19.2682
782850 19.8337
782872 17.5409
782894 13.7688
782912 11.4370
782930 9.79956
782966 7.70213
783000 6.46320
783035 5.63759
783104 4.63291
783174 4.06732
783243 3.71557
783313 3.47954
783382 3.31145
783521 3.08854
783660 2.94657
783799 2.84759
784076 2.72022
784354 2.65565
784631 2.65978
784909 2.80621
785048 3.03667
785117 3.27387
785187 3.73463
785228 4.25141
785270 4.96431
785291 5.00145
785312 4.15819
785333 2.76223
785353 1.88926
785379 1.58953
785404 1.64544
785455 2.08549
785494 2.73794
785533 4.14767
785600 9.05994
785634 8.93375
785667 7.54490
785705 6.34085
785743 5.63452
785781 5.23341
785818 5.00723
785893 4.82356
785969 4.81103
786119 4.95510
786270 5.18021
786318 5.32199
786367 5.60199
786415 6.26713
786439 6.94285
786463 8.05766
786520 11.4241
786548 10.0595
786577 7.85382
786578 7.76801
786581 7.59562
786583 7.43105
786589 7.12487
786600 6.60231
786621 5.82819
786664 4.93048
786707 4.43984
786749 4.13101
786792 3.93968
786835 3.90260
786878 4.27184
786899 4.88549
786921 6.16742
786945 8.73780
786958 9.95059
786970 10.4520
787019 7.73719
787052 6.32957
787085 5.57383
787131 5.04004
787178 4.80419
787270 4.72938
787443 5.15108
787616 5.75010
787962 6.84033
788217 7.87402
788471 9.75695
788721 12.8182
788970 14.9251
789469 9.87185
789748 7.62724
790026 6.35790
790305 5.59796
790584 5.10420
791141 4.50372
791698 4.14536
792255 3.89987
792812 3.71975
793091 3.65323
793370 3.62217
793509 3.64574
793648 3.75692
793718 3.90098
793787 4.19864
793822 4.46600
793857 4.87979
793892 5.53827
793927 6.58622
793973 8.70675
794020 10.1940
794113 7.02816
794152 5.91160
794190 5.19567
794229 4.73172
794267 4.41936
794344 4.03967
794421 3.82343
794575 3.58583
794729 3.44764
795037 3.23782
795191 3.11842
795268 3.10487
795307 3.24787
795326 3.47902
795345 3.98053
795390 6.31385
795435 5.49234
795465 4.75193
795495 4.32401
795556 3.89948
795617 3.69673
795677 3.57767
795798 3.46333
795859 3.56857
795889 3.96645
795904 4.61434
795920 6.31289
795930 8.50550
795940 10.0213
795960 7.05886
795978 5.29589
795995 4.53563
796030 3.95025
796099 3.60946
796238 3.42358
796516 3.29635
796794 3.22576
797072 3.17195
797628 3.08377
797906 3.04158
798045 3.01748
798115 3.01061
798149 3.05420
798167 3.24241
798175 3.68864
798184 5.91032
798190 9.33619
798196 6.41950
798203 4.35616
798210 3.72061
798224 3.32382
798252 3.13769
798309 3.05718
798422 3.01455
798647 2.97644
799098 2.92132
800000 2.82201
800500 2.76289
801000 2.67637
801197 2.60301
801295 2.54217
801345 2.55908
801369 2.71486
801394 3.48484
801420 5.74925
801433 5.64083
801446 4.90368
801468 4.03499
801489 3.60173
801532 3.22336
801618 2.97666
801789 2.83714
801961 2.78518
802132 2.75682
802475 2.73027
802818 2.73538
803161 2.79142
803503 2.96935
803675 3.16663
803846 3.52398
804018 4.20183
804189 5.51162
804360 7.66354
804530 9.16412
804871 6.09255
805072 4.65938
805273 3.87046
805474 3.40328
805674 3.09518
805875 2.86887
806076 2.69531
806177 2.64056
806277 2.65768
806327 2.74011
806377 2.94517
806428 3.42020
806478 4.49318
806529 6.66140
806580 8.92549
806631 8.68574
806682 7.15387
806741 5.76435
806800 4.91637
806859 4.39040
806918 4.04387
807036 3.62417
807154 3.38124
807272 3.22202
807390 3.10834
807626 2.95349
808098 2.77163
808570 2.65784
809514 2.50259
810458 2.38277
811402 2.27122
812345 2.15205
813289 2.01369
813525 1.98446
813761 1.98355
813879 2.01639
813997 2.10821
814115 2.33625
814233 2.88112
814347 3.94564
814460 5.06335
814574 4.94068
814687 4.16809
814784 3.61478
814881 3.22503
814978 2.95226
815075 2.75495
815269 2.48975
815463 2.31698
815657 2.19674
815851 2.13621
815948 2.15989
816045 2.29483
816093 2.46520
816142 2.79444
816190 3.45691
816239 4.81116
816284 6.98608
816330 8.50695
816421 5.64543
816457 4.70810
816492 4.11177
816562 3.58005
816633 3.66751
816703 4.44729
816782 6.46249
816860 8.63379
816939 8.35644
817017 6.82862
817111 5.39259
817206 4.52226
817300 3.98145
817394 3.62360
817583 3.18437
817771 2.92329
817960 2.74410
818148 2.60306
818337 2.46364
818431 2.36777
818478 2.31699
818502 2.37249
818513 2.56239
818525 3.25322
818540 5.42561
818548 5.32192
818555 4.58503
818572 3.49788
818590 3.07644
818624 2.76085
818693 2.55869
818832 2.39880
818970 2.26292
819039 2.20374
819074 2.28192
819091 2.48379
819109 3.04859
819140 5.34538
819156 5.26444
819172 4.59367
819199 3.74463
819227 3.32334
819282 2.95714
819337 2.80360
819392 2.72495
819503 2.66279
819613 2.67612
819723 2.77501
819834 3.05058
819889 3.34250
819944 3.87101
819999 4.91168
820027 5.80461
820054 7.09678
820097 9.99191
820140 12.0795
820183 10.2394
820226 7.23331
820265 5.40204
820304 4.32433
820343 3.67882
820382 3.27317
820461 2.81599
820539 2.57823
820696 2.34288
820852 2.22258
821165 2.06277
821322 1.95757
821400 1.87193
821439 1.86303
821459 1.99425
821479 2.71610
821500 4.96780
821511 4.88579
821521 4.20054
821537 3.43931
821553 3.02491
821584 2.63424
821647 2.35977
821773 2.19140
822025 2.07683
822528 1.96489
823535 1.78188
824038 1.66652
824542 1.49792
824793 1.36971
825045 1.17943
825171 1.04345
825297 0.864090
825548 0.419503
825614 0.584924
825647 0.962339
825680 1.74230
825713 3.01728
825745 4.63372
825812 8.02410
825860 9.73205
825917 9.25652
825975 7.59028
826047 5.96354
826120 4.97531
826192 4.35672
826264 3.94616
826409 3.44754
826554 3.16708
826843 2.89606
827132 2.82858
827422 2.92690
827711 3.27815
827856 3.63242
828001 4.21077
828145 5.17468
828290 6.78415
828460 9.68305
828630 11.7581
828800 9.93345
828970 6.96170
829116 5.22216
829262 4.14904
829408 3.47815
829554 3.03993
829845 2.52336
830137 2.23755
830429 2.05651
830720 1.92901
831304 1.75099
831887 1.61709
832471 1.49428
833054 1.36067
833346 1.31457
833492 1.40552
833565 1.61505
833637 2.19713
833760 4.38678
833821 4.30225
833883 3.59199
833934 3.08797
833986 2.73305
834089 2.31248
834192 2.09186
834295 1.96676
834501 1.85857
834707 1.86953
834913 2.00864
835119 2.38038
835222 2.73896
835325 3.31307
835428 4.25038
835531 5.77463
835666 8.80982
835800 10.9521
835935 9.20800
836069 6.40583
836196 4.60501
836323 3.51250
836451 2.83176
836578 2.38263
836832 1.83628
837087 1.51158
837341 1.28464
837595 1.10456
838104 0.778542
838211 0.742662
838264 0.953987
838291 1.59305
838304 2.52638
838317 4.66802
838329 7.93864
838334 9.51658
838340 10.2079
838351 8.65944
838363 6.19569
838378 4.14293
838392 3.06915
838422 2.09351
838452 1.67699
838481 1.45668
838540 1.23600
838600 1.13116
838718 1.04667
838836 1.04057
839073 1.18591
839310 1.55500
839612 2.36290
839913 3.28372
840215 3.84008
840516 3.92094
841078 3.52207
841639 3.07791
842201 2.74838
842762 2.52511
843324 2.40647
843604 2.40137
843885 2.45837
844166 2.62742
844447 3.02599
844727 3.95362
844868 4.82287
845008 6.14784
845229 9.26105
845450 11.4329
845671 9.76379
845892 7.11061
846149 5.09259
846406 3.96840
846662 3.30595
846919 2.88247
847433 2.37620
847946 2.07583
848460 1.86384
848973 1.69174
849487 1.53003
849743 1.44167
850000 1.33620
850000 2.97731
850250 1.99915
850460 2.57699
851000 1.22490
851220 1.04290
851540 1.45920
851970 3.40570
852190 3.13200
852300 2.34910
852620 1.46020
853920 0.696700
854250 0.697780
854350 0.770710
854680 0.689890
854790 0.518480
855010 0.635030
855220 0.633250
855440 0.822400
855550 0.706140
855770 1.02270
856200 1.49150
857400 3.24670
859150 4.04490
859690 3.02470
862000 2.48600
862270 2.93840
862274 2.94492
862500 3.32378
862550 3.40705
862750 3.14584
863000 2.81938
863320 2.40171
864000 2.56912
864200 2.61821
864640 3.35996
865000 5.92528
865080 6.49556
865410 8.56807
866000 5.49552
866410 3.36085
866740 3.65555
867000 3.89780
867190 4.07488
868000 3.33942
868410 2.96718
869000 3.06907
869300 3.12078
870000 2.67483
870300 2.48374
871000 2.80155
871860 3.19188
872000 3.41155
873000 4.98002
873090 5.12108
873880 3.39141
874000 3.25633
874440 2.76093
874780 3.26811
875000 3.96036
875110 4.30695
876000 2.36491
876010 2.34288
877000 2.05155
877480 1.91019
878000 2.72056
878040 2.78332
878610 1.84323
879000 1.73817
880000 1.46883
880530 1.32602
880650 1.06797
881000 0.966270
881780 0.739605
881900 0.615385
882000 0.755310
882010 0.769041
882130 0.611822
882580 1.31510
883000 2.41237
883380 3.40491
884000 3.18377
885000 2.82709
886000 2.47022
887000 2.11357
887270 2.01721
887730 2.39880
888000 3.43844
888190 4.17043
888760 2.61179
889000 2.53687
889680 2.32449
890000 2.64705
890260 2.90929
890840 3.39951
891000 3.02476
891410 2.06416
892000 1.84320
892570 1.62969
893000 1.57307
894000 1.44138
894890 1.32428
895000 1.29754
895820 1.09732
895940 1.22263
896000 1.18999
896170 1.09722
896290 1.05931
896640 1.67667
896990 2.82004
897000 2.80314
898000 1.10928
898040 1.04134
898510 1.08349
898740 1.17999
898980 1.03985
899000 1.05123
899210 1.17074
900000 3.27068
900030 3.35041
901000 2.66362
901090 2.60027
901790 4.68455
902000 4.14617
902260 3.47948
903000 3.43027
903200 3.41664
903680 2.41501
904000 2.23632
904150 2.15242
904740 2.37427
905000 2.54559
905570 2.92063
906000 2.05071
906040 1.97004
907000 1.86129
907110 1.84904
908000 2.03142
908290 2.09099
908890 3.34048
909000 2.97177
909370 1.73106
909840 1.56154
910000 1.55507
910680 1.52781
911000 1.53241
912000 1.54687
912110 1.54839
912590 1.99482
913000 1.74481
913430 1.48253
914000 1.66446
914270 1.75085
914870 2.89562
915000 2.68638
915230 2.31615
915710 3.27431
916000 3.95050
916310 4.67351
917000 2.51584
917160 2.01528
918000 1.17513
918240 0.934991
918730 0.660769
918850 0.708817
918970 0.537005
919000 0.561615
919210 0.733993
919700 1.92157
920000 2.83794
920060 3.02084
921000 2.32636
921640 1.85374
922000 1.90265
922120 1.91891
922850 1.46688
922970 1.65684
923000 1.64153
923710 1.27651
923830 1.43970
923950 1.17688
924000 1.20090
924190 1.29257
924560 1.45657
925000 1.19557
925050 1.16581
925170 1.44096
925410 1.34074
925540 1.51052
926000 3.24390
926030 3.35687
926640 2.94148
927000 3.48263
927010 3.49783
927740 1.57004
928000 1.39807
928230 1.24613
928600 1.39364
929000 1.30031
929460 1.19303
929590 1.31192
929710 1.06399
930000 1.09367
930940 1.18978
931000 1.17753
931310 1.11426
932000 1.29130
932420 1.39910
933000 1.80339
933170 1.92186
934000 4.03702
934160 4.44485
935000 3.64100
935520 3.14411
935770 2.31255
936000 2.06749
936770 1.24719
937000 1.16436
937390 1.02390
938000 0.821588
938260 0.735414
938390 0.790812
938510 0.619868
938890 1.42669
939000 1.38269
939390 1.22699
939890 0.732626
940000 0.786288
940140 0.854666
940390 0.633543
940510 0.739015
940640 0.648160
940760 0.687872
940890 0.513337
941000 0.568436
941010 0.573677
941140 0.490925
941390 0.496042
941520 0.601381
941640 0.460968
942000 0.619772
942020 0.628679
942520 2.08735
943000 2.03212
943020 2.02998
943400 2.48651
944000 1.66490
944160 1.44580
944660 1.59143
945000 1.19959
945290 0.865179
945920 0.777957
946000 0.790716
946560 0.880224
946810 1.12785
947000 1.52107
947060 1.64531
947570 3.51112
948000 2.18379
948200 1.56650
948580 1.21374
948960 1.40187
949000 1.49273
949220 1.99144
949730 4.51359
950000 4.00662
950360 3.33033
951000 1.72998
951120 1.43004
952000 1.02305
952400 0.838001
952660 0.803240
952780 0.911530
952910 0.717185
953000 0.788695
953040 0.820670
953170 0.710409
953290 0.802283
953420 0.709242
953680 0.776091
953930 0.509624
954000 0.649767
954060 0.770028
954570 0.594129
954700 0.681212
954830 0.577365
954960 0.685858
955000 0.671885
955210 0.598420
955340 0.656268
955470 0.462935
955600 0.572992
955730 0.561020
955860 0.437707
955980 0.577638
956000 0.577000
956370 0.565290
956630 0.441672
956760 0.556523
957000 0.483222
957010 0.480214
957400 0.633503
957910 0.664027
958000 0.691208
958300 0.782038
958940 1.71834
959000 1.85289
959070 2.01011
959460 1.39817
959590 0.954149
959980 0.655343
960000 0.674160
960230 0.890527
961000 1.64749
961010 1.65696
961660 4.19162
962000 5.00491
962700 6.67942
963000 5.81718
963600 4.09287
964000 3.90270
965000 3.42738
966000 2.95206
967000 2.47677
967770 2.11066
968000 2.08409
968300 2.04920
968820 3.72574
969000 4.81484
969210 6.08475
970000 5.25949
970920 4.29824
971000 4.18441
971710 3.17444
972000 3.35515
972760 3.82863
973000 4.31856
973690 5.72700
974000 4.85201
974870 2.39624
975000 2.22222
975400 1.68696
975930 1.37172
976000 1.37798
976200 1.39627
976460 1.26964
976990 1.82852
977000 1.84032
977520 2.45645
978000 2.33766
978050 2.32491
978450 2.79201
978850 1.53521
979000 1.42735
979380 1.15388
979650 1.03675
979780 1.24352
980000 1.04516
980050 1.00032
980320 1.17326
980450 1.03589
980580 1.19809
980850 1.01695
981000 1.04123
981250 1.08268
981380 1.39315
981520 1.21694
981650 1.45431
981790 1.19412
982000 1.36685
983000 2.18966
983390 2.51056
984000 2.56608
984190 2.58357
984730 2.15356
985000 2.25180
985400 2.39742
986000 2.66851
987000 3.12035
987690 3.43218
988000 3.54173
989000 3.89498
989310 4.00455
990000 3.16406
990390 2.68904
990800 2.81239
991000 3.31040
991200 3.80832
992000 2.04782
992020 2.00383
993000 1.66383
993510 1.48712
993920 1.48532
994000 1.38323
994060 1.30689
994470 1.52980
995000 2.33864
995420 2.97987
996000 1.90261
996100 1.71680
996650 1.39499
997000 1.44312
997470 1.50799
997880 1.41368
998000 1.45032
999000 1.75554
999390 1.87463
999999 2.66333
1.00000E+06 2.66592
1.00010E+06 2.79409
1.00090E+06 6.03291
1.00100E+06 5.76208
1.00160E+06 4.13600
1.00200E+06 4.25438
1.00240E+06 4.37300
1.00300E+06 4.17020
1.00320E+06 4.10244
1.00400E+06 4.17271
1.00500E+06 4.26036
1.00530E+06 4.28660
1.00600E+06 3.59975
1.00670E+06 2.91298
1.00700E+06 2.63425
1.00730E+06 2.35547
1.00780E+06 1.51480
1.00800E+06 1.51382
1.00850E+06 1.51138
1.00890E+06 2.32023
1.00900E+06 2.34445
1.00910E+06 2.36875
1.00950E+06 3.39027
1.01000E+06 3.38409
1.01100E+06 3.37166
1.01200E+06 2.87267
1.01300E+06 2.37372
1.01330E+06 2.22399
1.01400E+06 2.14932
1.01500E+06 2.04265
1.01590E+06 1.94673
1.01600E+06 1.93250
1.01690E+06 1.80459
1.01700E+06 1.70981
1.01760E+06 1.14079
1.01800E+06 1.11977
1.01860E+06 1.08809
1.01900E+06 0.977170
1.01920E+06 1.01010
1.01960E+06 1.29717
1.01970E+06 1.57843
1.01990E+06 1.55966
1.02000E+06 1.87653
1.02020E+06 1.75533
1.02030E+06 1.96948
1.02090E+06 0.874155
1.02100E+06 0.848967
1.02130E+06 0.773675
1.02140E+06 0.817118
1.02160E+06 0.659024
1.02190E+06 0.798452
1.02200E+06 0.626005
1.02230E+06 0.758926
1.02240E+06 0.661163
1.02300E+06 0.790744
1.02330E+06 0.697738
1.02370E+06 0.794407
1.02380E+06 0.916872
1.02400E+06 0.840152
1.02460E+06 1.51783
1.02480E+06 2.33588
1.02500E+06 2.65002
1.02510E+06 2.80694
1.02560E+06 1.85911
1.02570E+06 1.32032
1.02580E+06 1.04714
1.02600E+06 0.869239
1.02640E+06 1.07596
1.02650E+06 1.62229
1.02680E+06 2.10224
1.02700E+06 1.92771
1.02710E+06 1.84039
1.02730E+06 1.63286
1.02740E+06 1.18874
1.02770E+06 1.11071
1.02800E+06 0.935366
1.02860E+06 1.08048
1.02870E+06 1.22812
1.02880E+06 1.11165
1.02900E+06 1.24840
1.02910E+06 1.10181
1.03000E+06 1.39876
1.03030E+06 1.49795
1.03100E+06 3.08236
1.03160E+06 2.58795
1.03200E+06 2.88875
1.03210E+06 2.96367
1.03300E+06 2.61387
1.03340E+06 2.45852
1.03400E+06 2.57744
1.03500E+06 2.77562
1.03600E+06 2.97376
1.03700E+06 3.17201
1.03800E+06 3.37019
1.03880E+06 3.52878
1.03900E+06 3.58355
1.04000E+06 3.85778
1.04070E+06 3.02969
1.04100E+06 3.22711
1.04200E+06 3.88486
1.04220E+06 4.01676
1.04290E+06 6.35034
1.04300E+06 6.03663
1.04390E+06 3.21310
1.04400E+06 3.32409
1.04450E+06 3.87908
1.04500E+06 4.25658
1.04550E+06 4.63386
1.04600E+06 6.01414
1.04610E+06 6.29005
1.04680E+06 4.03342
1.04700E+06 3.84074
1.04770E+06 3.16648
1.04800E+06 2.92678
1.04880E+06 2.28793
1.04900E+06 2.05337
1.04920E+06 1.81848
1.04950E+06 2.33784
1.05000E+06 3.25581
1.05010E+06 3.43901
1.05100E+06 3.17010
1.05140E+06 3.05067
1.05200E+06 2.97519
1.05300E+06 2.84913
1.05400E+06 2.72321
1.05500E+06 2.59721
1.05540E+06 2.54672
1.05600E+06 2.98277
1.05650E+06 3.34644
1.05700E+06 3.03011
1.05710E+06 2.96645
1.05750E+06 3.73539
1.05800E+06 2.87518
1.05810E+06 2.70274
1.05900E+06 2.29948
1.06000E+06 2.36385
1.06100E+06 2.42855
1.06200E+06 3.78411
1.06300E+06 3.21291
1.06310E+06 3.15605
1.06400E+06 3.58633
1.06500E+06 4.06421
1.06600E+06 4.54227
1.06620E+06 4.63774
1.06700E+06 4.65822
1.06800E+06 4.68370
1.06840E+06 4.69389
1.06900E+06 4.00468
1.07000E+06 2.85587
1.07080E+06 2.51415
1.07100E+06 2.23987
1.07120E+06 1.96576
1.07200E+06 1.52543
1.07260E+06 1.19514
1.07300E+06 1.37294
1.07310E+06 1.41762
1.07380E+06 3.09857
1.07400E+06 3.02893
1.07500E+06 2.68103
1.07540E+06 2.54205
1.07600E+06 2.86023
1.07700E+06 3.39087
1.07740E+06 3.60288
1.07800E+06 3.96226
1.07870E+06 4.38183
1.07900E+06 4.03669
1.08000E+06 2.88648
1.08030E+06 2.54124
1.08100E+06 2.28509
1.08200E+06 1.91913
1.08230E+06 1.80939
1.08300E+06 2.18384
1.08310E+06 2.23699
1.08340E+06 1.82024
1.08370E+06 1.87659
1.08400E+06 2.71665
1.08430E+06 3.55660
1.08500E+06 2.01362
1.08510E+06 1.79337
1.08590E+06 1.53166
1.08600E+06 1.44320
1.08630E+06 1.17771
1.08680E+06 1.19820
1.08700E+06 1.21748
1.08730E+06 1.24631
1.08790E+06 1.04007
1.08800E+06 1.04422
1.08900E+06 1.08575
1.08910E+06 1.08971
1.08980E+06 1.12767
1.09000E+06 1.25163
1.09040E+06 1.49955
1.09100E+06 2.29109
1.09150E+06 2.95048
1.09200E+06 2.73168
1.09270E+06 2.42557
1.09300E+06 2.41530
1.09340E+06 2.40117
1.09380E+06 1.72423
1.09400E+06 1.65011
1.09500E+06 1.27947
1.09510E+06 1.24226
1.09570E+06 2.09317
1.09590E+06 2.55415
1.09600E+06 3.19999
1.09700E+06 3.03877
1.09710E+06 3.02245
1.09800E+06 2.84337
1.09820E+06 2.80396
1.09900E+06 1.99358
1.09940E+06 2.04853
1.10000E+06 2.52821
1.10060E+06 1.68207
1.10080E+06 1.74103
1.10090E+06 1.25246
1.10100E+06 1.22661
1.10160E+06 1.07154
1.10200E+06 0.984357
1.10240E+06 1.03980
1.10270E+06 1.34906
1.10300E+06 2.11218
1.10350E+06 3.38324
1.10400E+06 2.98760
1.10440E+06 1.98716
1.10500E+06 1.55795
1.10520E+06 1.41486
1.10590E+06 1.48628
1.10600E+06 1.47628
1.10680E+06 1.39585
1.10700E+06 1.60499
1.10730E+06 1.91930
1.10760E+06 1.69702
1.10800E+06 1.34753
1.10830E+06 1.08534
1.10860E+06 0.893311
1.10900E+06 1.01524
1.10910E+06 1.04575
1.10940E+06 0.843410
1.10960E+06 0.883781
1.10970E+06 0.688147
1.11000E+06 0.774305
1.11040E+06 0.889730
1.11050E+06 1.07358
1.11070E+06 1.10350
1.11100E+06 1.89672
1.11120E+06 2.42480
1.11130E+06 2.98543
1.11160E+06 3.16874
1.11200E+06 1.87378
1.11210E+06 1.54972
1.11240E+06 0.881625
1.11280E+06 0.857168
1.11300E+06 0.761610
1.11310E+06 0.713872
1.11360E+06 0.722551
1.11370E+06 0.834433
1.11400E+06 0.902368
1.11410E+06 0.925091
1.11440E+06 1.11285
1.11450E+06 1.41323
1.11470E+06 1.49721
1.11500E+06 2.47649
1.11540E+06 3.78196
1.11580E+06 5.47924
1.11600E+06 5.03978
1.11650E+06 3.94099
1.11700E+06 2.27190
1.11710E+06 1.93792
1.11780E+06 1.08816
1.11800E+06 1.09480
1.11830E+06 1.10469
1.11880E+06 0.853491
1.11890E+06 0.605255
1.11900E+06 0.599250
1.11940E+06 0.575420
1.12000E+06 1.13478
1.12010E+06 1.22852
1.12020E+06 1.77224
1.12060E+06 3.10945
1.12100E+06 4.64607
1.12200E+06 5.03723
1.12280E+06 5.34975
1.12300E+06 5.11380
1.12380E+06 4.17034
1.12400E+06 4.17785
1.12500E+06 4.21524
1.12600E+06 4.25262
1.12610E+06 4.25619
1.12700E+06 3.20041
1.12800E+06 2.02722
1.12840E+06 1.55798
1.12900E+06 2.05957
1.12920E+06 2.22637
1.12960E+06 3.24187
1.12990E+06 4.58126
1.13000E+06 4.35786
1.13020E+06 3.91096
1.13070E+06 2.09802
1.13100E+06 1.96617
1.13140E+06 1.79034
1.13200E+06 1.63570
1.13270E+06 1.45531
1.13300E+06 1.53712
1.13370E+06 1.72761
1.13390E+06 1.49192
1.13400E+06 1.48178
1.13450E+06 1.43083
1.13500E+06 1.39928
1.13570E+06 1.35510
1.13600E+06 1.53073
1.13650E+06 1.82328
1.13700E+06 2.50352
1.13750E+06 4.01750
1.13800E+06 5.60177
1.13900E+06 3.98160
1.13970E+06 2.84737
1.14000E+06 2.65164
1.14070E+06 2.19490
1.14100E+06 2.04815
1.14170E+06 1.70595
1.14200E+06 1.47397
1.14240E+06 1.60054
1.14270E+06 1.43660
1.14300E+06 1.44881
1.14350E+06 1.43154
1.14390E+06 1.50739
1.14400E+06 1.67265
1.14470E+06 2.82895
1.14500E+06 2.77736
1.14560E+06 2.67402
1.14600E+06 3.51463
1.14660E+06 4.77493
1.14700E+06 3.87724
1.14730E+06 3.20481
1.14740E+06 2.53466
1.14780E+06 1.94519
1.14800E+06 1.97690
1.14840E+06 2.04073
1.14890E+06 1.12457
1.14900E+06 1.12799
1.14940E+06 1.14174
1.15000E+06 2.37101
1.15010E+06 2.57546
1.15060E+06 2.30770
1.15100E+06 2.03599
1.15150E+06 2.40852
1.15200E+06 3.64426
1.15250E+06 4.87974
1.15300E+06 4.30643
1.15400E+06 3.15981
1.15490E+06 2.12773
1.15500E+06 2.06680
1.15540E+06 1.82311
1.15600E+06 1.49437
1.15640E+06 1.27513
1.15700E+06 1.57221
1.15730E+06 1.72113
1.15760E+06 1.34085
1.15800E+06 1.20456
1.15850E+06 1.03429
1.15900E+06 1.06586
1.15920E+06 1.07840
1.15970E+06 1.76978
1.16000E+06 2.34850
1.16050E+06 2.07780
1.16100E+06 1.66930
1.16140E+06 1.34250
1.16200E+06 1.30239
1.16280E+06 1.24866
1.16300E+06 1.45312
1.16360E+06 2.06656
1.16400E+06 1.67242
1.16450E+06 1.17995
1.16500E+06 1.08148
1.16540E+06 1.00249
1.16600E+06 1.70872
1.16670E+06 2.44481
1.16700E+06 2.24950
1.16730E+06 2.05438
1.16760E+06 1.25412
1.16780E+06 1.22389
1.16800E+06 1.03473
1.16830E+06 0.751163
1.16850E+06 0.755671
1.16860E+06 0.638021
1.16900E+06 0.839850
1.16920E+06 0.940994
1.16990E+06 2.30243
1.17000E+06 2.55061
1.17020E+06 3.04692
1.17100E+06 2.59079
1.17190E+06 2.07756
1.17200E+06 2.10055
1.17280E+06 2.28417
1.17300E+06 2.45442
1.17370E+06 3.05016
1.17400E+06 2.57640
1.17440E+06 1.94487
1.17500E+06 1.72907
1.17580E+06 1.44136
1.17600E+06 1.44131
1.17700E+06 1.44120
1.17720E+06 1.44124
1.17750E+06 1.34701
1.17770E+06 1.44377
1.17790E+06 1.22403
1.17800E+06 1.30241
1.17900E+06 2.08534
1.17980E+06 4.06136
1.18000E+06 3.96284
1.18040E+06 3.76573
1.18100E+06 4.81447
1.18120E+06 5.16422
1.18200E+06 3.29430
1.18210E+06 3.06066
1.18300E+06 2.29041
1.18350E+06 2.48951
1.18400E+06 3.29231
1.18440E+06 3.93425
1.18500E+06 2.68976
1.18510E+06 2.48254
1.18580E+06 2.38605
1.18600E+06 2.44342
1.18700E+06 2.73026
1.18800E+06 3.01693
1.18870E+06 3.21767
1.18900E+06 3.22947
1.18980E+06 3.26086
1.19000E+06 3.46194
1.19050E+06 3.96475
1.19100E+06 2.79037
1.19140E+06 1.85091
1.19200E+06 1.42722
1.19230E+06 1.21540
1.19300E+06 0.983072
1.19330E+06 0.883184
1.19350E+06 0.954096
1.19400E+06 0.629300
1.19460E+06 0.663069
1.19480E+06 0.629609
1.19490E+06 0.775199
1.19500E+06 0.736619
1.19570E+06 0.466382
1.19600E+06 0.603017
1.19620E+06 0.419843
1.19660E+06 0.503894
1.19700E+06 0.348718
1.19710E+06 0.314552
1.19730E+06 0.410125
1.19750E+06 0.338561
1.19760E+06 0.565697
1.19800E+06 0.833504
1.19820E+06 0.967306
1.19840E+06 1.26293
1.19850E+06 1.70368
1.19900E+06 2.91033
1.19940E+06 3.87497
1.20000E+06 3.75738
1.20030E+06 3.69872
1.20100E+06 2.23277
1.20140E+06 1.39505
1.20200E+06 1.15014
1.20270E+06 2.18670
1.20300E+06 1.80159
1.20320E+06 1.54485
1.20400E+06 1.42079
1.20500E+06 1.64873
1.20510E+06 1.67145
1.20600E+06 3.26728
1.20690E+06 6.64425
1.20700E+06 6.33577
1.20740E+06 5.10208
1.20800E+06 3.69990
1.20810E+06 3.46647
1.20900E+06 2.91291
1.20910E+06 2.85102
1.21000E+06 3.80312
1.21020E+06 4.01502
1.21070E+06 5.26673
1.21100E+06 4.64723
1.21200E+06 2.58281
1.21250E+06 1.55062
1.21300E+06 1.17585
1.21310E+06 1.10059
1.21350E+06 1.39505
1.21400E+06 1.93779
1.21420E+06 2.15498
1.21460E+06 2.03106
1.21490E+06 1.57004
1.21500E+06 1.52434
1.21580E+06 1.15797
1.21600E+06 1.26427
1.21660E+06 1.58292
1.21700E+06 2.16779
1.21710E+06 2.31398
1.21770E+06 1.94832
1.21800E+06 1.55868
1.21840E+06 1.03917
1.21900E+06 0.891550
1.21920E+06 0.992498
1.21950E+06 0.721480
1.22000E+06 0.654439
1.22050E+06 0.586963
1.22060E+06 0.769852
1.22100E+06 0.802247
1.22160E+06 0.850936
1.22190E+06 0.949771
1.22200E+06 1.03069
1.22250E+06 1.43521
1.22300E+06 2.65096
1.22310E+06 2.89400
1.22340E+06 4.21519
1.22400E+06 3.42817
1.22440E+06 2.90375
1.22500E+06 3.53277
1.22600E+06 4.58054
1.22700E+06 5.36707
1.22720E+06 5.52443
1.22800E+06 7.63367
1.22850E+06 8.95260
1.22900E+06 6.83483
1.22960E+06 4.29282
1.23000E+06 3.89194
1.23100E+06 2.89004
1.23180E+06 2.08869
1.23200E+06 2.12610
1.23220E+06 2.16319
1.23260E+06 3.17577
1.23300E+06 4.75515
1.23330E+06 5.93947
1.23400E+06 4.40258
1.23430E+06 3.74397
1.23500E+06 3.74161
1.23600E+06 3.73856
1.23620E+06 3.73793
1.23700E+06 2.67631
1.23710E+06 2.54367
1.23800E+06 2.30510
1.23900E+06 2.04010
1.24000E+06 1.77508
1.24030E+06 1.69550
1.24070E+06 1.82449
1.24100E+06 2.36432
1.24150E+06 3.26412
1.24200E+06 3.09043
1.24220E+06 3.02060
1.24280E+06 2.32119
1.24300E+06 2.41235
1.24400E+06 2.86823
1.24430E+06 3.00481
1.24500E+06 1.88075
1.24530E+06 1.39924
1.24600E+06 1.32286
1.24620E+06 1.30091
1.24700E+06 1.99295
1.24720E+06 2.16589
1.24800E+06 1.25661
1.24850E+06 1.46570
1.24900E+06 1.85064
1.24990E+06 2.54348
1.25000E+06 2.46027
1.25080E+06 1.79461
1.25100E+06 1.78747
1.25200E+06 1.75145
1.25220E+06 1.74417
1.25280E+06 2.04324
1.25300E+06 2.57476
1.25400E+06 5.23368
1.25410E+06 5.49936
1.25500E+06 4.72139
1.25570E+06 4.11635
1.25600E+06 4.08124
1.25700E+06 3.96417
1.25720E+06 3.94064
1.25800E+06 5.16768
1.25840E+06 5.78123
1.25900E+06 4.57006
1.25950E+06 3.56082
1.26000E+06 3.42357
1.26100E+06 3.14922
1.26200E+06 2.87483
1.26230E+06 2.79251
1.26260E+06 2.28109
1.26300E+06 2.03916
1.26400E+06 1.43419
1.26480E+06 1.46921
1.26500E+06 1.79164
1.26560E+06 2.75924
1.26600E+06 3.54238
1.26640E+06 4.32530
1.26700E+06 3.38943
1.26750E+06 2.60947
1.26800E+06 2.67040
1.26900E+06 2.79226
1.26990E+06 2.90198
1.27000E+06 2.89235
1.27100E+06 2.79602
1.27190E+06 2.70934
1.27200E+06 2.72573
1.27300E+06 2.88941
1.27400E+06 3.05303
1.27500E+06 3.21655
1.27600E+06 3.38014
1.27620E+06 3.41285
1.27700E+06 4.02131
1.27740E+06 4.32522
1.27780E+06 5.80112
1.27800E+06 6.58767
1.27840E+06 8.16169
1.27900E+06 6.62111
1.28000E+06 4.05360
1.28100E+06 3.53756
1.28200E+06 3.02150
1.28300E+06 3.64391
1.28320E+06 3.76835
1.28400E+06 3.08873
1.28500E+06 2.23903
1.28540E+06 1.89921
1.28600E+06 2.04295
1.28660E+06 2.64517
1.28700E+06 2.35711
1.28800E+06 1.63716
1.28820E+06 1.49316
1.28900E+06 1.26636
1.29000E+06 1.08325
1.29080E+06 0.936832
1.29100E+06 0.980620
1.29120E+06 1.02411
1.29180E+06 1.80265
1.29200E+06 2.34886
1.29220E+06 2.89520
1.29300E+06 5.49014
1.29400E+06 5.19907
1.29500E+06 4.74792
1.29600E+06 4.29680
1.29640E+06 4.11633
1.29700E+06 3.31602
1.29750E+06 2.64912
1.29800E+06 3.25742
1.29830E+06 3.62247
1.29900E+06 2.73354
1.29950E+06 2.09858
1.30000E+06 2.16672
1.30030E+06 2.20758
1.30150E+06 3.25154
1.30300E+06 2.50555
1.30400E+06 3.07909
1.30410E+06 3.02215
1.30480E+06 2.62472
1.30560E+06 2.91596
1.30640E+06 1.73239
1.30680E+06 1.47640
1.30770E+06 1.36369
1.30840E+06 1.19866
1.30890E+06 1.08104
1.30910E+06 1.21295
1.30950E+06 1.11883
1.31060E+06 1.20049
1.31120E+06 1.24492
1.31140E+06 1.39029
1.31160E+06 1.26146
1.31200E+06 1.30689
1.31220E+06 1.17791
1.31300E+06 1.49553
1.31320E+06 1.24701
1.31410E+06 1.95425
1.31430E+06 2.11136
1.31510E+06 1.50960
1.31590E+06 2.29054
1.31650E+06 2.50108
1.31700E+06 2.43370
1.31780E+06 2.32593
1.31860E+06 2.71986
1.31900E+06 3.56697
1.31960E+06 5.57704
1.31970E+06 5.91186
1.32070E+06 4.25828
1.32130E+06 4.41812
1.32200E+06 3.13777
1.32280E+06 2.80785
1.32300E+06 2.72529
1.32490E+06 3.15085
1.32570E+06 3.52021
1.32640E+06 3.84355
1.32820E+06 3.11642
1.32970E+06 3.32847
1.33010E+06 3.89260
1.33160E+06 6.00866
1.33180E+06 6.29056
1.33310E+06 3.08658
1.33330E+06 2.59347
1.33390E+06 2.04606
1.33460E+06 2.55419
1.33580E+06 3.32255
1.33600E+06 3.37635
1.33730E+06 3.72523
1.33750E+06 3.92663
1.33860E+06 5.03410
1.33900E+06 4.55208
1.34010E+06 3.22628
1.34120E+06 3.05167
1.34140E+06 3.01962
1.34220E+06 3.52313
1.34340E+06 2.60364
1.34350E+06 2.52661
1.34390E+06 2.28280
1.34490E+06 2.69153
1.34500E+06 2.73277
1.34610E+06 2.15540
1.34640E+06 2.19875
1.34720E+06 2.31419
1.34790E+06 2.75970
1.34850E+06 3.14154
1.34930E+06 2.49159
1.34940E+06 2.57059
1.35040E+06 3.36116
1.35090E+06 4.06355
1.35130E+06 4.62532
1.35250E+06 2.89714
1.35330E+06 2.25509
1.35410E+06 1.61322
1.35450E+06 1.43690
1.35540E+06 1.94924
1.35670E+06 3.45077
1.35690E+06 3.43392
1.35820E+06 3.32422
1.35950E+06 4.28211
1.36040E+06 2.50782
1.36050E+06 2.46904
1.36150E+06 2.08053
1.36230E+06 2.38864
1.36320E+06 3.88553
1.36450E+06 1.83989
1.36540E+06 1.55234
1.36760E+06 1.51019
1.36820E+06 2.16371
1.36910E+06 1.80565
1.36930E+06 1.72593
1.36980E+06 1.75884
1.37040E+06 2.68679
1.37070E+06 2.51771
1.37200E+06 1.78556
1.37220E+06 1.37313
1.37240E+06 1.49004
1.37270E+06 1.20639
1.37310E+06 1.24400
1.37320E+06 1.15690
1.37330E+06 1.07002
1.37350E+06 1.22266
1.37380E+06 1.09339
1.37420E+06 1.36423
1.37490E+06 2.27385
1.37530E+06 2.31094
1.37600E+06 1.71371
1.37680E+06 1.72662
1.37690E+06 1.72833
1.37750E+06 2.36152
1.37840E+06 2.01891
1.37910E+06 2.37185
1.38150E+06 1.92845
1.38300E+06 2.44973
1.38330E+06 2.55428
1.38420E+06 4.00633
1.38460E+06 4.64887
1.38510E+06 5.45177
1.38670E+06 3.99956
1.38760E+06 5.17581
1.38820E+06 6.59888
1.38890E+06 5.10741
1.38930E+06 4.53695
1.39000E+06 3.53856
1.39210E+06 2.33838
1.39240E+06 2.40690
1.39320E+06 2.58947
1.39590E+06 1.45354
1.39640E+06 1.42456
1.39800E+06 1.33209
1.39910E+06 1.19100
1.39930E+06 1.35898
1.40020E+06 1.31050
1.40030E+06 1.36020
1.40140E+06 1.90800
1.40190E+06 2.97875
1.40300E+06 5.33427
1.40350E+06 4.62345
1.40510E+06 2.34845
1.40530E+06 2.06403
1.40670E+06 1.21133
1.40710E+06 0.967768
1.40850E+06 1.41289
1.40920E+06 1.39446
1.40980E+06 2.04239
1.40990E+06 1.98289
1.41100E+06 1.32746
1.41150E+06 1.54912
1.41210E+06 1.81517
1.41310E+06 3.18903
1.41380E+06 3.89671
1.41450E+06 3.48898
1.41470E+06 3.79638
1.41540E+06 4.87225
1.41650E+06 2.54203
1.41720E+06 2.48930
1.41820E+06 2.41393
1.41910E+06 2.49744
1.42070E+06 1.67143
1.42260E+06 4.51047
1.42420E+06 2.59406
1.42440E+06 2.54489
1.42630E+06 2.07740
1.42760E+06 1.68835
1.42770E+06 1.65833
1.42870E+06 1.76122
1.42930E+06 2.41219
1.42960E+06 2.73749
1.43050E+06 3.90170
1.43150E+06 2.16174
1.43240E+06 1.79644
1.43260E+06 1.81071
1.43410E+06 1.91788
1.43580E+06 2.92377
1.43620E+06 3.16000
1.43710E+06 4.43861
1.43830E+06 2.43571
1.43880E+06 2.52058
1.43910E+06 2.68838
1.43980E+06 3.07975
1.44070E+06 3.07773
1.44080E+06 3.09104
1.44140E+06 3.17101
1.44240E+06 2.22495
1.44250E+06 2.42130
1.44400E+06 5.36497
1.44580E+06 3.30279
1.44590E+06 3.18820
1.44740E+06 3.96351
1.44860E+06 5.04381
1.44910E+06 4.61291
1.45120E+06 2.80317
1.45240E+06 3.15798
1.45250E+06 3.26776
1.45340E+06 4.25550
1.45480E+06 2.86509
1.45750E+06 2.73091
1.45870E+06 2.67144
1.45920E+06 2.68977
1.45970E+06 2.70796
1.46090E+06 4.14616
1.46180E+06 6.86840
1.46380E+06 5.17866
1.46420E+06 5.30706
1.46500E+06 5.56354
1.46650E+06 3.48049
1.46790E+06 3.58473
1.46930E+06 5.46417
1.46990E+06 6.27001
1.47260E+06 2.71033
1.47430E+06 2.12086
1.47450E+06 2.10124
1.47680E+06 1.87434
1.47750E+06 1.82338
1.47790E+06 1.96432
1.47870E+06 2.24617
1.47970E+06 1.76265
1.48200E+06 1.82983
1.48310E+06 2.26608
1.48370E+06 2.50416
1.48520E+06 2.02405
1.48640E+06 2.03871
1.48650E+06 2.10506
1.48820E+06 3.23263
1.48830E+06 3.19038
1.49000E+06 2.47280
1.49120E+06 1.96619
1.49370E+06 1.82488
1.49470E+06 3.35397
1.49520E+06 3.12474
1.49570E+06 2.89567
1.49670E+06 2.20914
1.49700E+06 2.17031
1.49770E+06 2.07964
1.49900E+06 1.33361
1.50000E+06 1.14493
1.50020E+06 1.10733
1.50050E+06 0.915131
1.50070E+06 1.04661
1.50120E+06 0.830395
1.50150E+06 0.847044
1.50250E+06 1.95286
1.50300E+06 1.94209
1.50350E+06 1.32971
1.50400E+06 1.43337
1.50430E+06 1.49514
1.50500E+06 0.998389
1.50580E+06 1.15337
1.50630E+06 1.25017
1.50680E+06 1.62291
1.50730E+06 1.63373
1.50760E+06 1.85150
1.50810E+06 2.21447
1.50880E+06 2.85912
1.51010E+06 2.17217
1.51110E+06 3.07542
1.51190E+06 4.01040
1.51290E+06 3.59655
1.51370E+06 3.26568
1.51470E+06 2.11795
1.51500E+06 1.77340
1.51570E+06 1.56464
1.51600E+06 1.81493
1.51650E+06 1.83892
1.51780E+06 2.74213
1.51830E+06 2.55323
1.51880E+06 2.36413
1.51990E+06 2.81230
1.52090E+06 1.77231
1.52140E+06 1.64360
1.52180E+06 1.53952
1.52220E+06 1.43547
1.52270E+06 1.82355
1.52360E+06 3.94470
1.52400E+06 4.88707
1.52480E+06 6.10111
1.52720E+06 4.42365
1.52790E+06 3.93445
1.52940E+06 3.35674
1.53050E+06 2.77114
1.53090E+06 2.92203
1.53230E+06 3.45012
1.53390E+06 3.94513
1.53620E+06 3.14804
1.54000E+06 3.06280
1.54200E+06 3.01813
1.54360E+06 4.89794
1.54380E+06 5.13286
1.54510E+06 4.39702
1.54590E+06 4.04109
1.54700E+06 4.83403
1.54730E+06 4.89400
1.54940E+06 5.31456
1.55100E+06 3.27941
1.55310E+06 2.96626
1.55630E+06 4.09037
1.55660E+06 4.18265
1.55840E+06 4.73620
1.56430E+06 3.20105
1.56590E+06 4.14724
1.56620E+06 4.32455
1.56730E+06 4.95645
1.56940E+06 2.17056
1.57060E+06 2.14723
1.57080E+06 2.14343
1.57270E+06 1.51305
1.57400E+06 2.29179
1.57460E+06 2.86020
1.57480E+06 2.71961
1.57620E+06 1.73456
1.57680E+06 2.07910
1.57760E+06 2.74406
1.57840E+06 1.90541
1.57910E+06 1.51861
1.57920E+06 1.46334
1.58000E+06 1.35242
1.58100E+06 1.86377
1.58140E+06 2.06832
1.58280E+06 3.28993
1.58290E+06 3.24015
1.58470E+06 2.34329
1.58480E+06 2.24958
1.58550E+06 1.59262
1.58630E+06 1.58552
1.58740E+06 2.70159
1.58860E+06 2.48757
1.58910E+06 2.39834
1.59060E+06 2.83723
1.59240E+06 3.36373
1.59350E+06 4.38649
1.59440E+06 3.45613
1.59460E+06 3.24917
1.59630E+06 3.30396
1.59710E+06 4.02532
1.59850E+06 2.95450
1.60070E+06 3.53914
1.60180E+06 3.87691
1.60210E+06 3.66352
1.60410E+06 2.24097
1.60460E+06 1.88519
1.60600E+06 1.66773
1.60740E+06 2.56912
1.60910E+06 3.68383
1.61100E+06 2.32322
1.61190E+06 2.85870
1.61220E+06 3.03708
1.61330E+06 4.35319
1.61380E+06 4.43053
1.61470E+06 4.56994
1.61580E+06 4.77649
1.61720E+06 4.14075
1.61840E+06 3.80697
1.61950E+06 2.71952
1.61970E+06 2.77156
1.62170E+06 3.29295
1.62400E+06 3.89231
1.62570E+06 3.07455
1.62690E+06 2.49744
1.62770E+06 3.30968
1.62830E+06 3.91883
1.62970E+06 3.03225
1.63090E+06 2.27237
1.63320E+06 2.69332
1.63360E+06 2.90993
1.63520E+06 3.77641
1.63560E+06 3.74098
1.63610E+06 3.69658
1.63720E+06 3.46733
1.63890E+06 2.01353
1.63970E+06 1.81516
1.64100E+06 1.49334
1.64120E+06 1.61837
1.64170E+06 1.49310
1.64270E+06 1.24255
1.64330E+06 1.26249
1.64380E+06 1.60442
1.64410E+06 1.46808
1.64440E+06 1.61222
1.64530E+06 1.14541
1.64570E+06 1.22672
1.64700E+06 1.49085
1.64770E+06 2.20066
1.64880E+06 3.31653
1.65020E+06 4.20405
1.65180E+06 3.09079
1.65230E+06 2.74272
1.65520E+06 2.05828
1.65590E+06 2.56652
1.65780E+06 3.94607
1.65790E+06 3.96792
1.65900E+06 4.20743
1.66170E+06 2.74310
1.66200E+06 2.39559
1.66250E+06 1.81633
1.66340E+06 1.63944
1.66400E+06 2.25035
1.66430E+06 2.55585
1.66580E+06 1.81562
1.66610E+06 2.05177
1.66670E+06 2.52428
1.66790E+06 5.31299
1.66930E+06 3.62125
1.67140E+06 4.01723
1.67350E+06 4.45770
1.67440E+06 5.16727
1.67500E+06 5.64023
1.67680E+06 3.36071
1.67830E+06 4.25201
1.67850E+06 4.09567
1.68040E+06 2.61020
1.68190E+06 2.43179
1.68340E+06 1.44411
1.68480E+06 1.40180
1.68520E+06 1.38968
1.68610E+06 1.85942
1.68690E+06 1.53955
1.68700E+06 1.49963
1.68910E+06 3.08618
1.69180E+06 2.20474
1.69300E+06 3.33666
1.69320E+06 3.17933
1.69450E+06 2.15701
1.69530E+06 2.05703
1.69630E+06 1.93228
1.69740E+06 3.04040
1.69760E+06 3.24154
1.69880E+06 3.97055
1.69950E+06 3.67307
1.70060E+06 3.20603
1.70160E+06 3.20596
1.70240E+06 3.20593
1.70460E+06 3.12006
1.70580E+06 3.20966
1.70590E+06 3.16444
1.70760E+06 2.39600
1.70950E+06 3.30331
1.71290E+06 2.47313
1.71350E+06 2.16796
1.71590E+06 1.39616
1.71660E+06 1.67352
1.71750E+06 2.39681
1.71880E+06 2.58191
1.71970E+06 2.70973
1.72060E+06 3.03975
1.72210E+06 2.46716
1.72340E+06 2.58930
1.72520E+06 1.47769
1.72620E+06 1.25766
1.72630E+06 1.27751
1.72770E+06 1.55540
1.72870E+06 1.95913
1.72960E+06 2.02452
1.73120E+06 2.92189
1.73180E+06 2.64572
1.73240E+06 2.36955
1.73340E+06 1.77293
1.73400E+06 1.83697
1.73530E+06 1.97599
1.73610E+06 2.73494
1.73680E+06 3.39932
1.73840E+06 3.77639
1.73980E+06 2.76885
1.74060E+06 2.19315
1.74270E+06 1.93423
1.74280E+06 1.92190
1.74440E+06 1.98272
1.74660E+06 1.68653
1.74710E+06 1.83213
1.74850E+06 2.23971
1.74940E+06 3.22413
1.74980E+06 3.66093
1.75070E+06 5.33628
1.75160E+06 5.41692
1.75300E+06 5.54245
1.75380E+06 4.61067
1.75490E+06 3.32949
1.75830E+06 2.70240
1.75910E+06 2.55465
1.76030E+06 1.75847
1.76100E+06 2.05877
1.76190E+06 3.46683
1.76270E+06 3.46658
1.76320E+06 3.46644
1.76390E+06 2.90494
1.76580E+06 3.62560
1.76720E+06 2.55040
1.76770E+06 2.16637
1.76940E+06 2.70070
1.76950E+06 2.65661
1.77070E+06 2.12821
1.77170E+06 2.30356
1.77320E+06 2.56689
1.77400E+06 3.19941
1.77490E+06 3.91098
1.77710E+06 2.30800
1.77850E+06 2.47516
1.78010E+06 2.66643
1.78080E+06 3.58031
1.78140E+06 4.36307
1.78300E+06 3.57705
1.78430E+06 4.31439
1.78530E+06 3.45380
1.78630E+06 2.59340
1.78790E+06 1.79715
1.78890E+06 2.44365
1.78990E+06 3.37415
1.79020E+06 3.65319
1.79160E+06 2.32566
1.79320E+06 3.00179
1.79450E+06 2.29399
1.79550E+06 1.74958
1.79680E+06 1.76962
1.79720E+06 1.77564
1.79910E+06 2.04446
1.80020E+06 2.20002
1.80140E+06 2.21040
1.80250E+06 2.22015
1.80410E+06 4.07190
1.80480E+06 3.74368
1.80610E+06 3.13416
1.80780E+06 3.41691
1.80840E+06 3.00002
1.80920E+06 2.44406
1.81070E+06 2.21309
1.81120E+06 2.13615
1.81220E+06 1.51236
1.81350E+06 1.43478
1.81520E+06 2.08089
1.81540E+06 1.97439
1.81620E+06 1.54848
1.81750E+06 1.40804
1.81960E+06 1.77629
1.82010E+06 1.63052
1.82060E+06 1.48473
1.82130E+06 2.06256
1.82230E+06 3.43807
1.82240E+06 3.38199
1.82400E+06 2.48375
1.82480E+06 2.57524
1.82740E+06 2.87236
1.82800E+06 2.44782
1.82950E+06 2.63035
1.83010E+06 2.70345
1.83140E+06 4.22423
1.83280E+06 2.49408
1.83430E+06 2.57280
1.83660E+06 2.69342
1.83890E+06 2.10955
1.83900E+06 2.14238
1.84000E+06 2.47027
1.84130E+06 2.45247
1.84140E+06 2.45260
1.84310E+06 2.45570
1.84380E+06 2.62900
1.84860E+06 3.81778
1.85100E+06 3.70761
1.85240E+06 2.63421
1.85450E+06 3.09936
1.85550E+06 3.34986
1.85590E+06 3.37326
1.85790E+06 3.49038
1.85830E+06 3.21232
1.86000E+06 2.03028
1.86070E+06 1.99636
1.86180E+06 1.94266
1.86280E+06 2.44301
1.86390E+06 2.17311
1.86560E+06 3.25132
1.86740E+06 2.21036
1.86800E+06 2.37388
1.87020E+06 2.97308
1.87050E+06 3.23028
1.87230E+06 4.77332
1.87410E+06 3.44066
1.87540E+06 4.27308
1.87580E+06 4.52894
1.88010E+06 4.16479
1.88030E+06 4.17308
1.88220E+06 4.25188
1.88470E+06 2.46231
1.88520E+06 2.52018
1.88610E+06 2.62412
1.88750E+06 4.50697
1.89000E+06 2.33099
1.89020E+06 2.21321
1.89110E+06 1.68318
1.89250E+06 1.47791
1.89360E+06 1.99076
1.89520E+06 1.22544
1.89540E+06 1.12991
1.89680E+06 1.19713
1.89720E+06 1.00586
1.89770E+06 1.16533
1.89830E+06 1.35642
1.89860E+06 1.23492
1.90010E+06 1.64581
1.90020E+06 1.59870
1.90040E+06 1.50405
1.90220E+06 2.50990
1.90270E+06 2.66647
1.90440E+06 3.19833
1.90520E+06 3.60075
1.90550E+06 3.75170
1.90730E+06 2.16611
1.90800E+06 1.92036
1.90980E+06 2.04516
1.91030E+06 2.10881
1.91130E+06 2.23580
1.91240E+06 3.29831
1.91310E+06 4.27697
1.91420E+06 5.05668
1.91530E+06 3.62328
1.91600E+06 2.71140
1.91780E+06 2.83580
1.91790E+06 2.89929
1.91970E+06 4.03896
1.92040E+06 3.43591
1.92110E+06 2.83320
1.92300E+06 2.82669
1.92410E+06 2.82269
1.92550E+06 3.74786
1.92630E+06 4.27676
1.92960E+06 4.77646
1.93100E+06 3.97156
1.93250E+06 3.17287
1.93320E+06 3.74497
1.93580E+06 5.86967
1.93810E+06 4.85143
1.93840E+06 4.97807
1.94100E+06 6.07548
1.94220E+06 6.58206
1.94350E+06 4.81402
1.94440E+06 3.59000
1.94850E+06 3.18656
1.94870E+06 3.01403
1.95000E+06 1.89348
1.95070E+06 1.46915
1.95220E+06 2.21905
1.95400E+06 2.93528
1.95450E+06 3.13441
1.95640E+06 2.95964
1.95660E+06 2.91151
1.95820E+06 2.52728
1.95920E+06 2.27826
1.95940E+06 2.22844
1.96200E+06 2.75822
1.96450E+06 2.12536
1.96470E+06 2.07440
1.96580E+06 3.02777
1.96730E+06 2.02432
1.96770E+06 2.01400
1.96810E+06 1.60975
1.96850E+06 1.94376
1.96960E+06 1.98564
1.97150E+06 3.18700
1.97240E+06 2.78556
1.97340E+06 2.33917
1.97420E+06 2.81616
1.97610E+06 4.13261
1.97760E+06 3.43983
1.97870E+06 1.92660
1.97990E+06 1.71613
1.98040E+06 1.99444
1.98100E+06 2.32856
1.98260E+06 4.11757
1.98410E+06 2.91174
1.98530E+06 2.96119
1.98570E+06 3.25625
1.98640E+06 3.77212
1.98840E+06 2.41076
1.98870E+06 2.20639
1.98990E+06 2.94953
1.99100E+06 4.08853
1.99110E+06 3.98187
1.99220E+06 2.81034
1.99340E+06 3.39308
1.99450E+06 3.94024
1.99650E+06 3.56291
1.99800E+06 3.27979
1.99920E+06 2.74642
2.00000E+06 2.39115
2.00200E+06 3.34920
2.00370E+06 3.44315
2.00730E+06 3.23186
2.00910E+06 3.14991
2.01010E+06 2.91536
2.01070E+06 2.73101
2.01090E+06 2.66543
2.01440E+06 3.92721
2.01610E+06 3.66002
2.01790E+06 2.96029
2.01830E+06 2.89253
2.01960E+06 2.71233
2.02100E+06 2.83983
2.02140E+06 2.89272
2.02310E+06 3.83623
2.02380E+06 3.92096
2.02490E+06 3.99915
2.02650E+06 3.79546
2.03020E+06 3.39618
2.03200E+06 3.42991
2.03340E+06 4.06794
2.03480E+06 4.15026
2.03910E+06 4.50000
2.04040E+06 4.47607
2.04260E+06 4.28129
2.04320E+06 4.02297
2.04440E+06 3.45207
2.04600E+06 2.82648
2.04870E+06 1.85390
2.05160E+06 1.74489
2.05720E+06 3.66037
2.05880E+06 4.07102
2.06240E+06 3.50266
2.06780E+06 3.34103
2.06860E+06 3.48000
2.07140E+06 3.97403
2.07150E+06 3.99836
2.07430E+06 3.46438
2.07690E+06 3.02202
2.07720E+06 3.07768
2.08060E+06 3.57629
2.08240E+06 4.04723
2.08290E+06 3.98858
2.08580E+06 3.47205
2.09160E+06 2.89531
2.09380E+06 2.60811
2.09450E+06 2.56389
2.09580E+06 2.52151
2.09720E+06 2.84282
2.09740E+06 2.80140
2.09880E+06 2.54303
2.10070E+06 2.88977
2.10320E+06 3.76938
2.10460E+06 4.10829
2.10650E+06 3.18586
2.10910E+06 3.11009
2.11030E+06 3.23687
2.11210E+06 2.90550
2.11400E+06 3.04388
2.11490E+06 3.42380
2.11590E+06 3.82000
2.11780E+06 3.95888
2.11960E+06 3.12386
2.12200E+06 2.91910
2.12260E+06 2.86756
2.12610E+06 2.56926
2.12800E+06 2.53459
2.12970E+06 2.81488
2.13110E+06 3.07182
2.13480E+06 3.35193
2.13570E+06 3.27997
2.13870E+06 3.13247
2.14050E+06 3.47118
2.14250E+06 2.82916
2.14440E+06 2.80100
2.14630E+06 3.29364
2.14820E+06 3.04748
2.15000E+06 3.30889
2.15010E+06 3.32236
2.15210E+06 3.79220
2.15380E+06 3.96121
2.15520E+06 3.90109
2.15590E+06 3.87093
2.16120E+06 2.02471
2.16250E+06 1.73439
2.16380E+06 2.00302
2.16750E+06 3.45056
2.16950E+06 3.68481
2.17150E+06 3.64105
2.17580E+06 2.73166
2.17750E+06 2.57937
2.17890E+06 2.58845
2.18040E+06 2.86980
2.18530E+06 3.46778
2.19040E+06 2.58820
2.19250E+06 2.60522
2.19330E+06 3.01294
2.19720E+06 3.41144
2.20000E+06 3.20390
2.20110E+06 3.12264
2.20310E+06 3.21239
2.20710E+06 4.65917
2.21110E+06 3.05215
2.21310E+06 2.82649
2.21520E+06 3.01821
2.21920E+06 2.76849
2.22530E+06 3.07198
2.22750E+06 3.62608
2.23140E+06 3.49378
2.23330E+06 2.15615
2.23500E+06 2.06206
2.23540E+06 2.03768
2.23960E+06 2.78815
2.24150E+06 2.61922
2.24330E+06 1.93068
2.24570E+06 1.83772
2.24690E+06 2.08517
2.24780E+06 2.27038
2.24970E+06 2.45635
2.25240E+06 1.93650
2.25500E+06 1.85006
2.25600E+06 2.11331
2.26220E+06 2.99031
2.26430E+06 3.71460
2.26640E+06 3.72508
2.26850E+06 3.42207
2.27060E+06 3.98615
2.27270E+06 4.19234
2.27480E+06 3.10782
2.27900E+06 3.23549
2.28170E+06 2.67622
2.28530E+06 2.67035
2.28950E+06 3.57272
2.29380E+06 3.41835
2.29700E+06 1.98886
2.29830E+06 1.97089
2.30120E+06 3.00563
2.30460E+06 3.30585
2.30720E+06 3.42151
2.31080E+06 3.19635
2.31290E+06 3.35223
2.31500E+06 3.83222
2.31730E+06 3.64672
2.32100E+06 2.25420
2.32160E+06 2.07534
2.32590E+06 4.32107
2.32930E+06 3.73649
2.33680E+06 3.40592
2.33900E+06 3.04857
2.34340E+06 3.46045
2.34760E+06 3.53332
2.35190E+06 2.15045
2.35580E+06 1.97125
2.35870E+06 2.70349
2.36200E+06 2.13325
2.36320E+06 2.27873
2.36570E+06 2.87734
2.36750E+06 2.67935
2.37000E+06 2.50737
2.37040E+06 2.47970
2.37560E+06 2.65347
2.37660E+06 3.06231
2.37720E+06 3.03921
2.37890E+06 2.97039
2.38110E+06 3.03084
2.38680E+06 4.98197
2.38990E+06 4.21933
2.39240E+06 2.85568
2.39500E+06 2.74586
2.39950E+06 4.32289
2.40000E+06 4.24696
2.40140E+06 4.03493
2.40370E+06 2.99092
2.40600E+06 2.76730
2.41060E+06 3.09296
2.41510E+06 4.32999
2.41890E+06 2.34688
2.42200E+06 2.25443
2.42670E+06 3.31443
2.43130E+06 2.67739
2.43590E+06 3.94945
2.43820E+06 4.02984
2.44290E+06 3.18473
2.44760E+06 4.06953
2.45230E+06 3.16583
2.45460E+06 3.22471
2.45700E+06 3.41302
2.45930E+06 4.34840
2.46000E+06 4.44054
2.46170E+06 4.66922
2.47260E+06 2.44430
2.48080E+06 4.31634
2.48550E+06 3.51769
2.48790E+06 3.67698
2.49030E+06 3.50688
2.49270E+06 3.12317
2.49510E+06 3.48307
2.49750E+06 3.57307
2.49830E+06 3.48113
2.50000E+06 3.28431
2.50470E+06 3.92045
2.51200E+06 3.15298
2.51450E+06 3.05892
2.51930E+06 4.23581
2.52180E+06 4.27955
2.52420E+06 3.60324
2.52670E+06 3.23998
2.53160E+06 3.89012
2.53410E+06 3.90046
2.53650E+06 3.41685
2.54400E+06 4.11027
2.54640E+06 5.04887
2.54890E+06 4.56941
2.55140E+06 3.80465
2.55480E+06 3.99530
2.55890E+06 4.48507
2.56640E+06 3.73039
2.56890E+06 3.57613
2.57150E+06 3.87981
2.57400E+06 4.53605
2.57650E+06 3.92549
2.57900E+06 3.94433
2.58160E+06 4.20122
2.58390E+06 4.66577
2.59440E+06 3.26166
2.60000E+06 3.02251
2.60010E+06 3.01905
2.60430E+06 3.07987
2.60740E+06 3.47858
2.61130E+06 3.31976
2.61200E+06 3.29238
2.61500E+06 3.42215
2.61740E+06 3.17064
2.62030E+06 3.47367
2.62270E+06 3.56926
2.62530E+06 3.54775
2.63340E+06 2.39494
2.64080E+06 3.58671
2.64460E+06 3.13175
2.65150E+06 2.74179
2.65420E+06 2.49472
2.65960E+06 3.53029
2.66210E+06 3.34803
2.66440E+06 3.62578
2.66990E+06 3.16668
2.67300E+06 3.16670
2.67580E+06 3.62157
2.67780E+06 3.68659
2.68410E+06 3.51736
2.68850E+06 3.49577
2.69140E+06 3.59969
2.70000E+06 3.18771
2.70140E+06 3.21925
2.70560E+06 3.32036
2.70590E+06 3.34710
2.70593E+06 3.35027
2.70780E+06 3.53038
2.71240E+06 3.26169
2.71610E+06 3.27920
2.71890E+06 3.63890
2.72480E+06 3.47863
2.72960E+06 4.19790
2.73790E+06 3.30961
2.74070E+06 3.39931
2.74350E+06 3.81721
2.75460E+06 2.69453
2.75740E+06 3.37092
2.76020E+06 3.69102
2.76580E+06 3.23902
2.76870E+06 3.90120
2.77430E+06 3.17819
2.77710E+06 3.39219
2.78000E+06 3.09777
2.78270E+06 2.92919
2.78860E+06 3.52262
2.80000E+06 2.83767
2.80290E+06 3.12450
2.80590E+06 3.01981
2.80840E+06 2.83541
2.81410E+06 2.79038
2.82020E+06 3.22619
2.82830E+06 3.04568
2.83480E+06 3.94332
2.84340E+06 3.25463
2.84920E+06 4.27949
2.85220E+06 3.90170
2.85510E+06 3.28223
2.85810E+06 3.36884
2.86130E+06 3.64282
2.86390E+06 3.63900
2.87030E+06 2.82036
2.87310E+06 2.77911
2.87900E+06 3.60535
2.88190E+06 3.28468
2.88450E+06 3.60326
2.89000E+06 3.68626
2.89390E+06 3.64203
2.90000E+06 3.18184
2.90290E+06 3.14077
2.90590E+06 3.28478
2.91200E+06 2.52199
2.91500E+06 2.79911
2.91810E+06 2.41660
2.92470E+06 3.76543
2.92840E+06 3.93073
2.93340E+06 3.71232
2.93950E+06 3.60653
2.94260E+06 3.82563
2.95000E+06 3.35873
2.95810E+06 2.82824
2.96120E+06 3.41377
2.96440E+06 3.44170
2.96550E+06 3.34800
2.96553E+06 3.34536
2.97370E+06 2.64870
2.98000E+06 3.69067
2.98330E+06 2.94549
2.98870E+06 2.74192
2.99150E+06 2.75239
2.99310E+06 2.75935
2.99510E+06 2.92368
3.00000E+06 3.32680
3.00500E+06 3.73102
3.00780E+06 3.80191
3.01000E+06 3.72165
3.01160E+06 3.66465
3.01340E+06 3.51937
3.01490E+06 3.39825
3.01810E+06 3.62001
3.02130E+06 3.61567
3.02460E+06 3.21829
3.03750E+06 3.70359
3.04010E+06 3.40924
3.05040E+06 3.10439
3.05370E+06 3.31831
3.05700E+06 3.16572
3.06020E+06 3.53358
3.06350E+06 3.59090
3.06720E+06 3.53492
3.07000E+06 3.33907
3.07010E+06 3.33304
3.07340E+06 3.26946
3.08000E+06 3.72849
3.08330E+06 4.13130
3.08660E+06 3.59512
3.08990E+06 3.55533
3.09320E+06 3.63294
3.09990E+06 3.32854
3.10330E+06 3.57102
3.10660E+06 3.14064
3.11330E+06 3.32363
3.11670E+06 3.73982
3.12000E+06 3.38333
3.12340E+06 3.23221
3.13360E+06 3.70366
3.13700E+06 3.75304
3.14040E+06 3.92242
3.14720E+06 3.83878
3.15060E+06 4.10467
3.15400E+06 4.15555
3.15740E+06 3.96343
3.16090E+06 3.35108
3.16430E+06 3.22846
3.17120E+06 4.10699
3.17500E+06 3.72234
3.17630E+06 3.67741
3.17800E+06 3.61807
3.17930E+06 3.57336
3.17932E+06 3.57273
3.19200E+06 3.13350
3.19550E+06 2.88227
3.19900E+06 3.37793
3.20000E+06 3.44406
3.20250E+06 3.60756
3.20600E+06 3.39589
3.20950E+06 3.79042
3.21660E+06 2.96351
3.22010E+06 2.99834
3.22370E+06 2.75369
3.23080E+06 3.58628
3.23430E+06 3.77921
3.23790E+06 2.97797
3.24140E+06 3.03200
3.24500E+06 3.59485
3.24860E+06 3.86741
3.25220E+06 3.66436
3.25940E+06 2.92267
3.26300E+06 3.24763
3.26660E+06 3.88178
3.27030E+06 3.47456
3.27360E+06 3.34314
3.27740E+06 3.33265
3.28110E+06 3.45122
3.29200E+06 4.11911
3.29560E+06 3.35737
3.29930E+06 2.83995
3.30000E+06 2.81621
3.30300E+06 2.71319
3.30660E+06 3.17392
3.31770E+06 3.51603
3.32140E+06 3.52437
3.32880E+06 2.84654
3.33250E+06 2.94948
3.33630E+06 3.19903
3.34000E+06 3.26267
3.34370E+06 3.16120
3.34750E+06 3.39065
3.35120E+06 3.47329
3.35870E+06 3.36378
3.36630E+06 3.85557
3.37760E+06 2.96540
3.39290E+06 3.90330
3.39670E+06 3.99965
3.40000E+06 3.73975
3.40440E+06 3.39242
3.40820E+06 3.77209
3.41210E+06 3.82563
3.41590E+06 3.29750
3.42800E+06 3.08328
3.43080E+06 3.16789
3.43930E+06 3.42439
3.44310E+06 3.36662
3.44700E+06 2.91068
3.44850E+06 3.02248
3.44910E+06 3.06612
3.45880E+06 3.78345
3.46670E+06 3.46474
3.47070E+06 3.46306
3.48210E+06 4.05428
3.50000E+06 3.37792
3.50600E+06 3.15228
3.50710E+06 3.11087
3.50713E+06 3.10993
3.51120E+06 2.95809
3.51200E+06 2.92862
3.51460E+06 2.83290
3.52260E+06 3.47003
3.54300E+06 3.16652
3.54700E+06 3.63158
3.55110E+06 3.58309
3.56340E+06 2.74750
3.58140E+06 3.46379
3.60000E+06 3.38893
3.60370E+06 3.37052
3.61750E+06 3.59954
3.62180E+06 3.11380
3.62600E+06 3.12546
3.63020E+06 3.49123
3.63440E+06 3.16929
3.64720E+06 3.63417
3.65150E+06 3.25163
3.65570E+06 3.68939
3.66400E+06 3.89842
3.66430E+06 3.91271
3.66700E+06 3.58646
3.66860E+06 3.39289
3.66900E+06 3.41952
3.67200E+06 3.62328
3.67205E+06 3.62647
3.67290E+06 3.68591
3.67720E+06 3.74105
3.68150E+06 3.42138
3.69450E+06 3.84438
3.69890E+06 3.60270
3.70000E+06 3.43930
3.70320E+06 2.96059
3.71200E+06 3.59848
3.73840E+06 3.56765
3.74280E+06 2.93154
3.74720E+06 2.89084
3.75170E+06 3.50034
3.75610E+06 3.56103
3.76060E+06 3.77464
3.76500E+06 3.50763
3.77000E+06 3.44248
3.77400E+06 3.58364
3.77850E+06 3.34674
3.78300E+06 3.38655
3.79200E+06 4.30266
3.80000E+06 4.03427
3.80100E+06 4.00265
3.81010E+06 3.13726
3.81400E+06 3.26148
3.82370E+06 3.57278
3.82373E+06 3.57384
3.83000E+06 3.77497
3.83760E+06 4.17734
3.84220E+06 3.54086
3.85140E+06 3.43780
3.86530E+06 3.94806
3.87470E+06 3.52329
3.87930E+06 3.51431
3.88600E+06 3.69260
3.89340E+06 3.76797
3.89700E+06 3.65891
3.90000E+06 3.56916
3.90110E+06 3.53509
3.90110E+06 3.53500
3.90280E+06 3.48346
3.91230E+06 3.43743
3.92170E+06 3.82951
3.92500E+06 3.57375
3.92650E+06 3.45224
3.92660E+06 3.45643
3.93130E+06 3.40477
3.93600E+06 3.49420
3.94080E+06 4.02485
3.94560E+06 3.71290
3.96000E+06 3.59416
4.00000E+06 3.26572
4.00870E+06 3.19338
4.01860E+06 4.03439
4.02350E+06 4.04919
4.02840E+06 3.40749
4.03830E+06 3.76460
4.04330E+06 4.29241
4.04830E+06 4.15032
4.05330E+06 3.64263
4.06330E+06 3.54145
4.07330E+06 3.98457
4.07930E+06 3.65750
4.09350E+06 3.54713
4.10000E+06 3.88283
4.10150E+06 3.95839
4.10880E+06 4.13313
4.11800E+06 3.75741
4.12200E+06 3.59385
4.12202E+06 3.59320
4.12410E+06 3.50881
4.14000E+06 3.88184
4.14990E+06 3.79910
4.16540E+06 3.94550
4.17200E+06 3.59632
4.17390E+06 3.49626
4.17394E+06 3.49435
4.17590E+06 3.39057
4.18630E+06 4.00290
4.18950E+06 3.70835
4.19160E+06 3.51450
4.19430E+06 3.49317
4.19680E+06 3.47373
4.20000E+06 3.64526
4.20210E+06 3.75834
4.21800E+06 2.95336
4.23390E+06 3.74268
4.24460E+06 3.55107
4.25000E+06 3.34362
4.26610E+06 4.20816
4.27150E+06 3.71530
4.27690E+06 3.94895
4.28230E+06 4.02980
4.28770E+06 3.91555
4.29320E+06 3.48211
4.29860E+06 3.44626
4.30000E+06 3.49057
4.30960E+06 3.79771
4.31500E+06 3.82277
4.32050E+06 3.47584
4.32600E+06 3.86860
4.34000E+06 3.96881
4.34820E+06 4.02842
4.35370E+06 3.47239
4.35930E+06 3.76004
4.37000E+06 3.77824
4.37550E+06 3.78352
4.37551E+06 3.78383
4.37560E+06 3.78791
4.37770E+06 3.79136
4.37960E+06 3.79463
4.38170E+06 3.79840
4.39290E+06 3.43726
4.40000E+06 3.56808
4.41740E+06 3.43118
4.42690E+06 3.07138
4.43260E+06 3.17168
4.43830E+06 3.45897
4.44410E+06 3.49607
4.44980E+06 3.08557
4.45560E+06 3.56657
4.46130E+06 3.73327
4.46710E+06 3.44217
4.46830E+06 3.50207
4.47430E+06 3.81977
4.47440E+06 3.80790
4.47870E+06 4.02341
4.48040E+06 3.96447
4.49610E+06 3.42239
4.49770E+06 3.71393
4.50000E+06 3.75308
4.51550E+06 4.01593
4.53020E+06 3.63077
4.53340E+06 3.70958
4.53840E+06 3.83109
4.54420E+06 3.97231
4.57250E+06 3.69634
4.57720E+06 3.49528
4.58640E+06 3.76895
4.59120E+06 3.91489
4.59133E+06 3.91789
4.59150E+06 3.92196
4.60000E+06 3.77375
4.60580E+06 3.67218
4.61280E+06 3.74554
4.61540E+06 3.77540
4.62060E+06 3.70332
4.62085E+06 3.69978
4.62500E+06 3.64230
4.63950E+06 3.75924
4.64430E+06 3.69221
4.65000E+06 3.78711
4.65890E+06 3.74706
4.67350E+06 3.35651
4.69320E+06 3.79868
4.70000E+06 3.83064
4.70280E+06 3.84303
4.71290E+06 3.73887
4.72550E+06 3.75198
4.74780E+06 3.37219
4.75000E+06 3.42972
4.76280E+06 3.76365
4.77290E+06 3.84130
4.79320E+06 3.66632
4.80000E+06 3.78563
4.80340E+06 3.92794
4.83000E+06 3.70836
4.83920E+06 3.73389
4.84440E+06 3.91667
4.87030E+06 3.72692
4.88600E+06 3.69816
4.89120E+06 3.54603
4.90000E+06 3.65024
4.90170E+06 3.67029
4.92280E+06 3.81144
4.94400E+06 3.62179
4.95470E+06 3.62738
4.96000E+06 3.56077
4.98690E+06 3.74977
4.99230E+06 3.54987
5.00000E+06 3.53438
5.00850E+06 3.51617
5.01390E+06 3.63614
5.01940E+06 3.50062
5.05220E+06 4.05008
5.05770E+06 3.86966
5.09090E+06 3.42707
5.10770E+06 3.66965
5.11880E+06 3.68452
5.13570E+06 3.48611
5.14700E+06 3.80581
5.15270E+06 3.80731
5.15830E+06 3.71400
5.17540E+06 3.90442
5.19250E+06 3.62753
5.20000E+06 3.68747
5.20400E+06 3.71939
5.21550E+06 3.53005
5.22130E+06 3.66708
5.24450E+06 3.59791
5.25000E+06 3.63373
5.25030E+06 3.63494
5.25620E+06 3.51008
5.28550E+06 3.82628
5.30000E+06 3.73582
5.30320E+06 3.71541
5.30910E+06 3.75036
5.31500E+06 3.94990
5.35680E+06 3.56519
5.38090E+06 3.72404
5.40000E+06 3.55060
5.42350E+06 3.60987
5.44800E+06 3.82800
5.50000E+06 3.70499
5.54800E+06 3.58830
5.58610E+06 3.69256
5.60000E+06 3.80829
5.61830E+06 3.80363
5.63120E+06 3.70056
5.63770E+06 3.86563
5.64410E+06 3.89389
5.65660E+06 3.63772
5.69650E+06 3.57713
5.73530E+06 3.62565
5.74290E+06 3.73990
5.75000E+06 3.69962
5.76290E+06 3.62694
5.78980E+06 3.72224
5.80000E+06 3.83797
5.80340E+06 3.87638
5.81690E+06 3.54334
5.83060E+06 3.65702
5.83740E+06 3.58536
5.85790E+06 3.72218
5.87170E+06 3.52237
5.88550E+06 3.64837
5.90630E+06 3.51693
5.93420E+06 3.75327
5.94130E+06 3.87244
5.95530E+06 3.63938
5.96940E+06 3.75342
6.00000E+06 3.55672
6.03360E+06 3.82367
6.04790E+06 3.63026
6.05700E+06 3.73307
6.08410E+06 3.67159
6.09140E+06 3.57064
6.09870E+06 3.73299
6.11330E+06 3.69519
6.12070E+06 3.53744
6.13540E+06 3.47394
6.15750E+06 3.72089
6.17980E+06 3.62805
6.19470E+06 3.38606
6.20000E+06 3.44244
6.22470E+06 3.70366
6.27780E+06 3.45170
6.30070E+06 3.69847
6.30840E+06 3.58999
6.31610E+06 3.60482
6.32380E+06 3.75184
6.34000E+06 3.65741
6.37810E+06 3.80012
6.39370E+06 3.67698
6.40000E+06 3.73626
6.40160E+06 3.75152
6.42520E+06 3.73613
6.44100E+06 3.54123
6.45690E+06 3.74864
6.48080E+06 3.46376
6.50000E+06 3.70900
6.50490E+06 3.77150
6.52910E+06 3.59510
6.54000E+06 3.61370
6.56150E+06 3.78879
6.58610E+06 3.56319
6.60000E+06 3.63199
6.62720E+06 3.76729
6.66880E+06 3.57993
6.70000E+06 3.56061
6.71070E+06 3.55377
6.74000E+06 3.63156
6.80000E+06 3.60233
6.83030E+06 3.58779
6.88260E+06 3.67541
6.92650E+06 3.59394
6.95310E+06 3.63929
6.97100E+06 3.48735
7.00000E+06 3.55524
7.01580E+06 3.47714
7.04290E+06 3.56023
7.06110E+06 3.49299
7.07930E+06 3.64004
7.13000E+06 3.53308
7.17160E+06 3.60800
7.28000E+06 3.50615
7.37130E+06 3.62943
7.40000E+06 3.55219
7.42010E+06 3.49871
7.50000E+06 3.53360
7.59980E+06 3.57557
7.62020E+06 3.45325
7.74720E+06 3.47357
7.74723E+06 3.47357
7.75700E+06 3.47517
7.87000E+06 3.49347
8.00000E+06 3.43682
8.10200E+06 3.39199
8.10250E+06 3.39018
8.10253E+06 3.39017
8.21440E+06 3.33942
8.32000E+06 3.47214
8.50000E+06 3.35239
8.66660E+06 3.24012
9.00000E+06 3.27359
9.50000E+06 3.20007
9.62500E+06 3.18004
9.75000E+06 3.16002
9.87500E+06 3.14000
1.00000E+07 3.11999
1.01820E+07 3.09597
1.03640E+07 3.07197
1.05000E+07 3.05414
1.07200E+07 3.02162
1.10000E+07 2.98028
1.14020E+07 2.92395
1.15000E+07 2.91022
1.16000E+07 2.89220
1.17000E+07 2.87432
1.18000E+07 2.85622
1.19000E+07 2.83828
1.20000E+07 2.82027
1.21430E+07 2.79742
1.21431E+07 2.79740
1.22000E+07 2.78834
1.24000E+07 2.75685
1.25000E+07 2.74067
1.26000E+07 2.73235
1.28000E+07 2.71608
1.30000E+07 2.70029
1.34000E+07 2.65999
1.35000E+07 2.64995
1.38000E+07 2.61988
1.40000E+07 2.59983
1.41000E+07 2.58780
1.42000E+07 2.57578
1.43500E+07 2.55777
1.45000E+07 2.53977
1.46000E+07 2.53082
1.48000E+07 2.51289
1.50000E+07 2.49497
1.55000E+07 2.45100
1.60000E+07 2.40695
1.65000E+07 2.36597
1.70000E+07 2.32497
1.75000E+07 2.30896
1.80000E+07 2.29292
1.85000E+07 2.27837
1.90000E+07 2.26392
1.95000E+07 2.25089
2.00000E+07 2.23788
2.00000E+07 2.23790
2.00067E+07 2.23792
2.01656E+07 2.23824
2.05431E+07 2.23868
2.08658E+07 2.23875
2.10000E+07 2.23872
2.10612E+07 2.23870
2.12431E+07 2.23861
2.20000E+07 2.23800
2.30000E+07 2.23353
2.40000E+07 2.23000
2.43881E+07 2.23121
2.49524E+07 2.23604
2.50000E+07 2.23659
2.60000E+07 2.25200
2.66598E+07 2.26419
2.68854E+07 2.26842
2.70000E+07 2.27058
2.80000E+07 2.29000
2.89123E+07 2.30824
2.90000E+07 2.30999
2.91087E+07 2.31216
2.94355E+07 2.31869
2.96914E+07 2.32381
3.00000E+07 2.33000
3.01487E+07 2.33301
3.05637E+07 2.34156
3.10000E+07 2.35077
3.11246E+07 2.35343
3.18503E+07 2.36907
3.20000E+07 2.37231
3.30000E+07 2.39382
3.35158E+07 2.40466
3.40000E+07 2.41458
3.44856E+07 2.42421
3.50000E+07 2.43400
3.52914E+07 2.43929
3.59001E+07 2.44960
3.60000E+07 2.45120
3.67643E+07 2.46269
3.70000E+07 2.46598
3.70054E+07 2.46606
3.80000E+07 2.47879
3.81466E+07 2.48052
3.82182E+07 2.48136
3.90000E+07 2.49001
4.00000E+07 2.50000
4.00432E+07 2.50041
4.04527E+07 2.50407
4.10000E+07 2.50838
4.20000E+07 2.51456
4.23249E+07 2.51609
4.26702E+07 2.51747
4.30000E+07 2.51854
4.40000E+07 2.52034
4.42412E+07 2.52046
4.50000E+07 2.52000
4.53617E+07 2.51940
4.59476E+07 2.51805
4.60000E+07 2.51791
4.62942E+07 2.51705
4.66380E+07 2.51593
4.70000E+07 2.51462
4.80000E+07 2.51039
4.81223E+07 2.50982
4.90000E+07 2.50545
4.93563E+07 2.50356
5.00000E+07 2.50000
5.10000E+07 2.49418
5.15724E+07 2.49065
5.15749E+07 2.49064
5.20000E+07 2.48790
5.26639E+07 2.48341
5.30000E+07 2.48103
5.30571E+07 2.48061
5.34428E+07 2.47776
5.40000E+07 2.47343
5.50000E+07 2.46500
5.60000E+07 2.45551
5.70000E+07 2.44477
5.79822E+07 2.43300
5.80000E+07 2.43277
5.81728E+07 2.43057
5.83997E+07 2.42763
5.90000E+07 2.41951
6.00000E+07 2.40500
6.10000E+07 2.38973
6.12762E+07 2.38548
6.14468E+07 2.38285
6.20000E+07 2.37429
6.30000E+07 2.35878
6.40000E+07 2.34332
6.47151E+07 2.33235
6.50000E+07 2.32800
6.60000E+07 2.31309
6.62920E+07 2.30881
6.63399E+07 2.30811
6.64957E+07 2.30584
6.70000E+07 2.29847
6.80000E+07 2.28368
6.90000E+07 2.26831
7.00000E+07 2.25200
7.10000E+07 2.23460
7.20000E+07 2.21645
7.30000E+07 2.19792
7.38030E+07 2.18299
7.40000E+07 2.17934
7.50000E+07 2.16100
7.60000E+07 2.14288
7.70000E+07 2.12493
7.80000E+07 2.10735
7.90000E+07 2.09032
8.00000E+07 2.07400
8.10000E+07 2.05841
8.20000E+07 2.04334
8.30000E+07 2.02866
8.40000E+07 2.01425
8.50000E+07 2.00000
8.60000E+07 1.98588
8.70000E+07 1.97188
8.80000E+07 1.95794
8.90000E+07 1.94400
9.00000E+07 1.93000
9.10000E+07 1.91494
9.20000E+07 1.89851
9.30000E+07 1.88166
9.40000E+07 1.86524
9.50000E+07 1.85000
9.60000E+07 1.83653
9.70000E+07 1.82426
9.80000E+07 1.81229
9.90000E+07 1.79979
1.00000E+08 1.78600
1.02000E+08 1.75660
1.04000E+08 1.72727
1.06000E+08 1.69826
1.08000E+08 1.66978
1.10000E+08 1.64200
1.12000E+08 1.61509
1.14000E+08 1.58905
1.16000E+08 1.56375
1.18000E+08 1.53910
1.20000E+08 1.51500
1.22000E+08 1.49129
1.24000E+08 1.46798
1.26000E+08 1.44525
1.28000E+08 1.42322
1.30000E+08 1.40200
1.32000E+08 1.38174
1.34000E+08 1.36248
1.36000E+08 1.34414
1.38000E+08 1.32666
1.40000E+08 1.31000
1.42000E+08 1.29567
1.44000E+08 1.28459
1.46000E+08 1.27594
1.48000E+08 1.26897
1.50000E+08 1.26300