Fe-54(n,tot) ENDF/B-VII.1
Energy(eV) XS(b)
1.00000E-05 115.420
1.25000E-05 103.465
1.50000E-05 94.6403
2.00000E-05 82.2531
2.75000E-05 70.4668
3.50000E-05 62.7099
4.25000E-05 57.1101
5.00000E-05 52.8232
6.25000E-05 47.4767
7.50000E-05 43.5302
0.000100000 37.9905
0.000125000 34.2100
0.000150000 31.4194
0.000200000 27.5022
0.000275000 23.7751
0.000350000 21.3221
0.000425000 19.5513
0.000500000 18.1957
0.000625000 16.5050
0.000750000 15.2570
0.00100000 13.5052
0.00125000 12.3097
0.00150000 11.4272
0.00200000 10.1885
0.00275000 9.00983
0.00350000 8.23414
0.00425000 7.67416
0.00500000 7.24547
0.00625000 6.71083
0.00750000 6.31617
0.0100000 5.76220
0.0125000 5.38415
0.0150000 5.10509
0.0200000 4.71337
0.0253000 4.43258
0.0314750 4.19969
0.0376500 4.02675
0.0500000 3.78269
0.0625000 3.61361
0.0750000 3.48880
0.100000 3.31360
0.125000 3.19403
0.150000 3.10576
0.200000 2.98185
0.275000 2.86393
0.350000 2.78630
0.414000 2.73750
0.414000 2.73750
0.414001 2.73750
0.414002 2.73750
0.414003 2.73750
0.414005 2.73750
0.414011 2.73749
0.414021 2.73749
0.414042 2.73747
0.414084 2.73745
0.414168 2.73739
0.414336 2.73728
0.414672 2.73705
0.415344 2.73660
0.416688 2.73570
0.419375 2.73392
0.424750 2.73041
0.435500 2.72357
0.457000 2.71064
0.500000 2.68731
0.625000 2.63375
0.750000 2.59418
1.00000 2.53858
1.50000 2.47246
2.00000 2.43287
2.75000 2.39498
3.50000 2.36982
5.00000 2.33731
7.50000 2.30583
10.0000 2.28622
15.0000 2.26125
20.0000 2.24466
27.5000 2.22658
35.0000 2.21252
50.0000 2.19002
75.0000 2.15973
100.000 2.13320
150.000 2.08472
200.000 2.03899
275.000 1.97275
350.000 1.90806
500.000 1.78129
750.000 1.57505
999.999 1.37398
1000.00 1.37398
1000.01 1.37397
1000.01 1.37397
1000.03 1.37396
1000.05 1.37394
1000.10 1.37390
1000.20 1.37382
1000.39 1.37367
1000.78 1.37336
1001.56 1.37274
1003.13 1.37150
1006.25 1.36902
1012.50 1.36406
1025.00 1.35415
1050.00 1.33438
1100.00 1.29501
1200.00 1.21693
1400.00 1.06370
1400.00 1.06369
1400.01 1.06369
1400.01 1.06368
1400.03 1.06368
1400.05 1.06366
1400.10 1.06362
1400.20 1.06355
1400.39 1.06340
1400.78 1.06310
1401.56 1.06251
1403.13 1.06133
1406.25 1.05897
1412.50 1.05426
1425.00 1.04484
1450.00 1.02605
1500.00 0.988682
1625.00 0.896604
1750.00 0.806600
2000.00 0.633852
2000.00 0.633851
2000.01 0.633847
2000.01 0.633843
2000.02 0.633836
2000.05 0.633820
2000.09 0.633789
2000.19 0.633728
2000.37 0.633605
2000.73 0.633360
2001.47 0.632871
2002.93 0.631891
2005.86 0.629933
2011.72 0.626021
2023.44 0.618218
2046.88 0.602691
2093.75 0.571964
2187.50 0.511896
2375.00 0.397953
2750.00 0.201337
3000.00 0.101251
3000.00 0.101251
3000.01 0.101248
3000.02 0.101245
3000.03 0.101240
3000.06 0.101230
3000.12 0.101209
3000.25 0.101168
3000.49 0.101085
3000.98 0.100920
3001.96 0.100590
3003.91 0.0999322
3007.81 0.0986224
3015.63 0.0960279
3031.25 0.0909397
3062.50 0.0811767
3125.00 0.0633739
3250.00 0.0352642
3312.50 0.0253337
3343.75 0.0214896
3375.00 0.0184300
3406.25 0.0161843
3437.50 0.0147829
3468.75 0.0142577
3500.00 0.0146418
3531.25 0.0159696
3562.50 0.0182773
3593.75 0.0216022
3625.00 0.0259835
3687.50 0.0380804
3750.00 0.0549160
3875.00 0.104354
4000.00 0.177765
4125.00 0.279285
4250.00 0.413874
4500.00 0.807393
4500.00 0.807397
4500.01 0.807413
4500.02 0.807429
4500.03 0.807458
4500.06 0.807519
4500.12 0.807639
4500.25 0.807879
4500.49 0.808359
4500.98 0.809320
4501.96 0.811246
4503.91 0.815107
4507.81 0.822869
4515.63 0.838555
4531.25 0.870589
4562.50 0.937367
4625.00 1.08234
4750.00 1.42307
5000.00 2.35791
5000.00 2.35792
5000.01 2.35795
5000.01 2.35798
5000.02 2.35803
5000.05 2.35813
5000.09 2.35834
5000.19 2.35876
5000.37 2.35959
5000.73 2.36126
5001.47 2.36460
5002.93 2.37130
5005.86 2.38473
5011.72 2.41180
5023.44 2.46670
5046.88 2.57968
5093.75 2.81892
5187.50 3.35537
5375.00 4.70689
5562.50 6.54493
5750.00 9.06306
5937.50 12.5502
6125.00 17.4477
6312.50 24.4453
6500.00 34.6445
6500.00 34.6447
6500.01 34.6450
6500.01 34.6454
6500.02 34.6460
6500.04 34.6474
6500.08 34.6501
6500.17 34.6556
6500.33 34.6665
6500.67 34.6883
6501.33 34.7320
6502.66 34.8197
6505.31 34.9956
6510.62 35.3505
6521.25 36.0725
6542.49 37.5666
6584.98 40.7675
6669.95 48.1315
6839.90 67.7975
7009.85 96.7586
7179.80 139.054
7483.90 252.920
7635.95 311.484
7788.00 342.805
8092.10 295.181
8396.20 203.897
8698.10 140.142
9000.00 101.246
9000.00 101.246
9000.01 101.245
9000.02 101.244
9000.03 101.243
9000.06 101.240
9000.12 101.234
9000.24 101.222
9000.47 101.199
9000.94 101.152
9001.87 101.059
9003.75 100.873
9007.49 100.502
9014.98 99.7667
9029.96 98.3219
9059.91 95.5313
9119.82 90.3204
9239.63 81.1997
9359.45 73.5323
9419.36 70.1958
9434.33 69.4443
9441.82 69.1010
9449.31 68.8050
9456.80 68.6201
9460.54 68.6271
9464.29 68.7932
9468.03 69.3432
9469.91 69.9597
9471.78 71.1089
9473.65 73.4910
9474.59 75.7231
9475.52 79.4754
9476.46 86.4483
9476.93 92.3890
9477.39 101.499
9477.86 116.376
9478.33 142.674
9478.80 193.725
9479.03 237.176
9479.27 299.866
9479.63 439.571
9480.00 532.328
9480.37 438.934
9480.74 299.414
9480.99 232.270
9481.24 187.240
9481.50 157.067
9481.75 136.456
9482.26 111.295
9482.76 97.4057
9483.27 89.0316
9483.78 83.6243
9484.79 77.3199
9485.81 73.9252
9486.82 71.8890
9488.85 69.6495
9490.88 68.4843
9492.91 67.7799
9496.96 66.9560
9501.02 66.4585
9505.08 66.0953
9513.19 65.5361
9529.42 64.6429
9545.64 63.8439
9610.55 60.9265
9740.36 55.8025
9999.99 47.5954
10000.0 47.5949
10000.1 47.5927
10000.2 47.5908
10000.3 47.5869
10000.6 47.5790
10001.2 47.5631
10002.3 47.5317
10004.6 47.4691
10009.2 47.3441
10018.4 47.0961
10036.8 46.6071
10073.6 45.6562
10147.3 43.8578
10294.5 40.6291
10589.0 35.3533
10883.4 31.2561
10957.1 30.3839
11030.7 29.5890
11067.5 29.2491
11085.9 29.1151
11104.3 29.0363
11122.7 29.0912
11131.9 29.2395
11141.1 29.5822
11145.7 29.8972
11150.3 30.3931
11154.9 31.2132
11159.5 32.6753
11164.1 35.6048
11166.4 38.2896
11168.7 42.7215
11171.0 50.7594
11172.2 57.4457
11173.3 67.4596
11174.5 83.2857
11175.6 109.971
11176.8 158.265
11177.9 249.352
11179.0 382.400
11180.0 471.058
11181.1 382.475
11182.1 249.655
11182.9 180.565
11183.7 136.102
11184.5 107.367
11185.3 88.2291
11186.9 65.6211
11188.5 53.5622
11190.1 46.3754
11191.7 41.8215
11194.9 36.5552
11198.1 33.7540
11201.3 32.0850
11207.6 30.2660
11214.0 29.3306
11220.4 28.7737
11233.2 28.1379
11245.9 27.7688
11258.7 27.5103
11284.2 27.1310
11309.7 26.8293
11335.3 26.5613
11386.3 26.0733
11488.4 25.1885
11590.5 24.3756
11999.0 21.6066
12815.8 17.6213
13632.6 14.8917
14041.1 13.8258
14245.3 13.3495
14296.3 13.2361
14347.4 13.1264
14372.9 13.0749
14398.4 13.0319
14411.2 13.0220
14424.0 13.0456
14430.3 13.1035
14433.5 13.1683
14436.7 13.2916
14439.9 13.5592
14441.5 13.8244
14443.1 14.2943
14443.9 14.6818
14444.7 15.2574
14445.5 16.1633
14446.3 17.6806
14447.1 20.5925
14447.5 23.1384
14447.9 27.1511
14448.3 33.9646
14448.7 46.7331
14448.9 57.5758
14449.1 73.8931
14449.3 99.1909
14449.5 136.151
14449.7 213.004
14450.0 262.244
14450.3 210.230
14450.5 136.638
14450.7 102.935
14450.9 79.7308
14451.2 52.6463
14451.6 38.7718
14451.9 30.9430
14452.2 26.1528
14452.6 23.0283
14453.2 19.3914
14453.9 17.3857
14454.6 16.1832
14456.0 14.8824
14457.3 14.2210
14458.7 13.8436
14461.4 13.4448
14464.1 13.2484
14466.8 13.1356
14472.2 13.0144
14477.6 12.9504
14483.1 12.9097
14493.9 12.8571
14515.6 12.7898
14537.3 12.7369
14580.6 12.6424
14624.0 12.5532
14797.4 12.2152
15144.2 11.5953
15837.9 10.5284
17225.3 8.88675
20000.0 6.72896
20000.0 6.72894
20000.1 6.72891
20000.1 6.72888
20000.2 6.72883
20000.4 6.72872
20000.8 6.72849
20001.5 6.72805
20002.9 6.72717
20005.9 6.72539
20011.7 6.72184
20023.5 6.71475
20046.9 6.70061
20093.8 6.67248
20187.5 6.61682
20375.0 6.50781
20750.0 6.29858
21500.0 5.91160
23000.0 5.24057
23000.0 5.24056
23000.1 5.24053
23000.2 5.24050
23000.3 5.24045
23000.6 5.24033
23001.2 5.24010
23002.3 5.23964
23004.5 5.23871
23009.1 5.23686
23018.1 5.23316
23036.2 5.22578
23072.5 5.21106
23144.9 5.18180
23289.8 5.12398
23579.7 5.01103
24159.3 4.79523
25318.6 4.39906
27978.0 3.62722
29307.6 3.29426
29972.4 3.13874
30138.7 3.10186
30304.9 3.06837
30388.0 3.05622
30429.5 3.05381
30471.1 3.05759
30512.6 3.07716
30533.4 3.10178
30554.2 3.15094
30564.6 3.19411
30574.9 3.26127
30585.3 3.37243
30595.7 3.57344
30600.9 3.74065
30606.1 3.99085
30611.3 4.39024
30616.5 5.08013
30621.7 6.42910
30624.3 7.64162
30626.9 9.59897
30629.5 13.0739
30632.1 19.9842
30633.4 26.2804
30634.7 36.4296
30636.0 53.6654
30637.3 83.2937
30638.6 131.674
30640.0 163.922
30641.4 131.797
30642.7 83.6174
30643.9 56.3704
30645.1 39.7900
30646.2 29.4734
30647.4 22.7994
30649.7 15.1412
30652.0 11.1498
30654.3 8.82376
30656.6 7.36804
30661.2 5.71323
30665.8 4.84422
30670.4 4.33427
30675.0 4.00831
30679.6 3.78807
30688.8 3.51662
30698.0 3.36162
30707.2 3.26434
30716.4 3.19898
30734.8 3.11825
30753.2 3.07125
30790.1 3.01897
30826.9 2.98961
30863.7 2.96959
30937.4 2.94112
31011.1 2.91902
31084.7 2.89958
31232.1 2.86409
31526.7 2.79815
31821.4 2.73480
33000.0 2.49249
33000.0 2.49248
33000.1 2.49247
33000.1 2.49246
33000.2 2.49245
33000.4 2.49241
33000.8 2.49233
33001.5 2.49218
33003.0 2.49188
33006.0 2.49128
33012.0 2.49008
33024.0 2.48769
33048.0 2.48290
33095.9 2.47333
33191.9 2.45426
33383.7 2.41632
33767.4 2.34126
34534.9 2.19408
36069.7 1.90926
37604.5 1.63342
38372.0 1.49753
38755.7 1.42978
38947.5 1.39601
39043.5 1.38055
39091.4 1.38068
39115.4 1.41567
39121.4 1.45624
39127.4 1.57235
39130.4 1.73059
39133.4 2.15432
39134.9 2.69451
39136.4 4.02105
39137.1 5.54649
39137.9 8.79584
39138.3 12.0152
39138.6 17.4593
39139.0 27.6516
39139.4 47.7759
39139.7 76.2659
39140.0 94.5112
39140.3 75.4992
39140.6 48.0988
39140.9 30.4132
39141.2 20.6436
39141.5 14.8710
39141.8 11.2755
39142.4 7.29716
39143.0 5.29222
39144.3 3.43459
39145.5 2.64528
39147.9 1.99471
39150.3 1.74066
39155.1 1.54278
39159.9 1.46811
39169.5 1.41044
39179.2 1.38791
39217.7 1.35928
39294.7 1.33921
39448.7 1.31005
39756.8 1.25525
40373.1 1.14692
41605.5 0.930285
44070.3 0.495396
46535.2 0.100779
46843.3 0.0643467
47151.4 0.0344850
47305.4 0.0226821
47459.5 0.0134091
47613.5 0.00706693
47767.6 0.00412556
47921.6 0.00513650
48075.7 0.0107482
48229.7 0.0217258
48383.8 0.0389758
48537.8 0.0635770
48691.9 0.0968110
49000.0 0.195650
49000.0 0.195658
49000.1 0.195686
49000.1 0.195710
49000.3 0.195759
49000.5 0.195856
49001.0 0.196054
49002.0 0.196450
49003.9 0.197240
49007.8 0.198831
49015.6 0.202038
49031.3 0.208562
49062.5 0.222073
49125.0 0.251001
49250.0 0.317146
49500.0 0.488821
49750.0 0.727991
50000.0 1.05905
50378.0 1.81613
50755.9 3.06676
51133.9 5.18471
51322.9 6.81415
51370.1 7.34349
51417.3 8.01618
51441.0 8.50274
51464.6 9.33309
51476.4 10.1298
51482.3 10.7685
51488.2 11.7230
51494.1 13.2742
51500.0 16.0540
51503.0 18.3497
51505.9 21.7101
51508.9 26.7785
51511.8 34.4427
51515.9 49.8244
51520.0 60.1699
51524.1 50.0016
51528.2 34.6088
51530.9 27.5344
51533.5 22.7017
51538.9 17.1407
51544.3 14.3583
51549.6 12.8355
51560.3 11.3790
51571.0 10.7897
51592.5 10.4575
51613.9 10.5108
51656.7 10.9560
51699.6 11.5667
51871.0 14.6996
52121.3 20.9674
52371.5 29.3508
52872.0 47.3866
53203.8 50.5861
53369.7 48.4613
53452.7 46.9124
53473.4 46.6097
53494.1 46.5807
53504.5 46.9147
53509.7 47.3246
53514.9 48.0848
53520.1 49.5836
53525.2 52.8861
53527.8 56.1367
53530.4 61.7873
53533.0 72.4104
53535.6 93.4294
53537.8 122.620
53540.0 142.056
53542.2 122.508
53544.4 93.2059
53547.0 72.1704
53549.5 61.4204
53552.1 55.6200
53554.7 52.2294
53559.8 48.6317
53564.9 46.8572
53570.1 45.8225
53575.2 45.1451
53585.5 44.2807
53606.0 43.2648
53626.6 42.5374
53708.7 40.1339
53873.0 35.7059
54240.2 27.2783
54607.4 21.1622
54974.6 16.8765
55066.4 16.0370
55158.2 15.3176
55204.1 15.0520
55227.1 14.9786
55250.0 14.9952
55273.0 15.2200
55284.5 15.5107
55295.9 16.0659
55307.4 17.1962
55313.2 18.2104
55318.9 19.8170
55324.6 22.5429
55330.4 27.5791
55333.2 31.7734
55336.1 37.9546
55339.0 47.2779
55341.8 61.2674
55345.9 90.1789
55350.0 109.339
55354.1 90.2702
55358.2 61.8220
55362.7 42.0310
55367.2 31.5683
55371.8 25.7582
55376.3 22.3012
55380.9 20.0911
55385.4 18.6033
55394.4 16.7789
55403.5 15.7350
55412.6 15.0730
55430.7 14.2841
55448.8 13.8211
55467.0 13.5034
55503.2 13.0607
55575.8 12.4556
55648.3 11.9784
55938.4 10.4704
56518.6 8.32554
57098.9 6.84324
57679.1 5.75966
58839.5 4.27845
60000.0 3.29846
60000.0 3.29844
60000.1 3.29841
60000.1 3.29838
60000.2 3.29832
60000.4 3.29820
60000.7 3.29796
60001.4 3.29749
60002.7 3.29654
60005.4 3.29463
60010.8 3.29083
60021.5 3.28323
60043.1 3.26810
60086.1 3.23809
60172.1 3.17909
60344.3 3.06485
60688.5 2.85006
61377.0 2.46582
62754.0 1.82364
64131.0 1.28195
65508.0 0.793577
66885.0 0.347371
67573.5 0.158389
67917.8 0.0841472
68089.9 0.0553347
68262.0 0.0340230
68434.1 0.0222080
68606.3 0.0224737
68692.3 0.0281495
68778.4 0.0381771
68864.5 0.0531406
68950.5 0.0737098
69122.6 0.134869
69294.8 0.229346
69466.9 0.367477
69639.0 0.563207
69811.1 0.835625
69983.3 1.21096
70155.4 1.72570
70327.5 2.43067
70499.6 3.39712
70671.8 4.72370
70843.9 6.54456
71016.0 9.03226
71238.3 13.5464
71460.5 19.7689
71905.0 33.9949
72127.3 37.3746
72349.5 36.4633
72794.0 28.3657
73142.9 22.2748
73491.9 18.1024
73666.3 16.8405
73840.8 16.4556
73928.0 16.9059
74015.2 18.2900
74102.5 21.6948
74189.7 29.7379
74254.9 40.2947
74320.0 47.2930
74385.2 39.7833
74450.3 28.6103
74534.6 19.8596
74618.9 15.5201
74703.3 13.1509
74787.6 11.6938
74956.2 9.97464
75124.8 8.94245
75462.1 7.64279
75630.7 7.17533
75715.0 6.97061
75757.2 6.88095
75778.3 6.86567
75788.8 6.96498
75794.1 7.38303
75795.4 7.76670
75796.7 8.67245
75797.4 9.68136
75798.0 11.7302
75798.7 16.7321
75799.0 22.1411
75799.3 31.5157
75799.7 46.3521
75800.0 56.4130
75800.3 46.5388
75800.7 31.6982
75801.0 21.8518
75801.3 16.4772
75802.0 11.5718
75802.7 9.56096
75803.4 8.59202
75804.8 7.71073
75806.1 7.34066
75811.6 6.91558
75822.5 6.77164
75844.3 6.69195
75888.0 6.59202
75975.4 6.41626
76150.1 6.09937
76499.5 5.56235
76849.0 5.12027
76936.3 5.02178
77023.7 4.92860
77111.1 4.84905
77132.9 4.83959
77154.7 4.85442
77165.7 4.89447
77176.6 5.02377
77182.0 5.20302
77187.5 5.67350
77190.2 6.25153
77193.0 7.59156
77194.3 9.03538
77195.7 11.8248
77196.4 14.3285
77197.1 18.1985
77197.7 24.5118
77198.4 35.1159
77199.2 53.3655
77200.0 65.8418
77200.8 53.6733
77201.6 35.4603
77202.3 24.3428
77203.0 17.8232
77203.8 13.9372
77204.5 11.5299
77205.9 8.80962
77207.4 7.44122
77210.3 6.16852
77213.2 5.62030
77219.0 5.16518
77224.8 4.98329
77236.5 4.83565
77248.1 4.77332
77271.3 4.71239
77294.6 4.67598
77387.6 4.57482
77480.5 4.48868
77573.5 4.40753
77945.5 4.11367
78689.4 3.63170
80177.2 2.93553
81665.0 2.44602
82409.0 2.24871
82780.9 2.15937
82966.9 2.12016
83059.9 2.11755
83083.1 2.13226
83106.4 2.18391
83118.0 2.25915
83129.6 2.46692
83135.4 2.73721
83138.3 2.99006
83141.2 3.41504
83144.2 4.21464
83145.6 4.90084
83147.1 5.96398
83148.5 7.74096
83150.0 10.9340
83150.7 13.5676
83151.4 17.3396
83152.1 23.0152
83152.9 31.3354
83153.9 49.0155
83155.0 60.9852
83156.1 49.3563
83157.1 31.7255
83158.1 20.9067
83159.1 14.6226
83160.1 10.8865
83161.1 8.55064
83163.1 5.95775
83165.1 4.64753
83167.1 3.90098
83169.1 3.43720
83173.1 2.91600
83181.1 2.48679
83189.1 2.31737
83205.2 2.18397
83221.2 2.13163
83253.2 2.08757
83285.2 2.06676
83413.2 2.02458
83669.3 1.96639
84181.4 1.86267
85205.7 1.67572
87254.3 1.35582
89302.9 1.08087
90327.2 0.952366
90839.4 0.888620
91095.4 0.857145
91223.5 0.848240
91255.5 0.853862
91287.5 0.880185
91303.5 0.922018
91319.5 1.04222
91327.5 1.20082
91335.5 1.59714
91339.5 2.05591
91343.5 3.03219
91345.5 3.97780
91347.5 5.60600
91349.5 8.63516
91351.5 14.5521
91353.3 23.0022
91355.0 28.7140
91356.8 23.2731
91358.5 14.9922
91360.3 9.61965
91362.0 6.60946
91363.8 4.86081
91365.5 3.78421
91369.0 2.60181
91372.5 2.01160
91379.5 1.46658
91386.5 1.23061
91400.6 1.03328
91414.6 0.953073
91442.6 0.886840
91470.7 0.858646
91526.7 0.831873
91582.8 0.816993
91807.1 0.780099
92255.7 0.721531
93152.8 0.607668
94947.1 0.359318
95844.3 0.214591
96292.8 0.136975
96741.4 0.0619484
96965.7 0.0309805
97190.0 0.0121198
97302.1 0.0110460
97414.3 0.0190575
97526.4 0.0404385
97638.6 0.0817316
97750.7 0.153178
97862.8 0.271232
97975.0 0.463288
98087.1 0.776532
98199.3 1.29598
98311.4 2.18117
98423.6 3.74341
98535.7 6.59047
98605.0 9.43224
98674.4 13.4185
98813.0 23.6777
98882.3 26.8929
98951.7 26.6746
99090.3 20.0220
99204.0 14.6067
99317.7 10.8749
99431.4 8.41414
99545.2 6.75531
99772.6 4.75336
100000 3.63535
100260 2.86189
100520 2.36449
101040 1.76752
101559 1.42153
102079 1.19335
103118 0.903448
103638 0.802504
103898 0.758865
104028 0.740580
104093 0.743640
104125 0.795831
104134 0.852234
104142 1.00358
104146 1.19672
104150 1.64307
104152 2.16124
104154 3.15614
104156 5.49266
104157 7.91360
104158 12.3569
104159 19.2690
104160 24.2508
104161 19.4909
104162 12.6466
104163 9.22338
104164 7.05197
104165 4.51190
104167 3.13842
104168 2.42508
104171 1.67801
104174 1.34184
104179 1.04098
104185 0.916338
104196 0.815057
104208 0.774561
104253 0.725873
104345 0.700061
104527 0.671024
104892 0.623405
105622 0.542089
107081 0.412270
110000 0.226949
112920 0.100581
114379 0.0564228
115109 0.0417328
115292 0.0410782
115474 0.0468488
115565 0.0583560
115657 0.0936947
115702 0.142503
115725 0.189788
115748 0.272466
115771 0.435801
115782 0.584198
115793 0.827503
115805 1.26486
115811 1.62550
115816 2.16099
115822 2.99742
115828 4.38473
115833 6.83743
115839 11.3290
115845 18.2151
115850 22.9234
115856 18.4207
115861 11.5385
115865 8.15468
115869 5.90859
115873 4.41739
115877 3.42445
115884 2.18851
115892 1.51894
115900 1.11122
115908 0.852006
115923 0.549659
115938 0.386375
115954 0.289476
115985 0.183871
116016 0.130630
116047 0.0999253
116108 0.0673717
116232 0.0414866
116356 0.0308565
116603 0.0211309
116850 0.0161750
117345 0.0110165
117839 0.00938800
118334 0.0107622
118829 0.0156296
119076 0.0202028
119323 0.0288736
119447 0.0383989
119571 0.0625705
119632 0.0945251
119663 0.125492
119694 0.180288
119725 0.291027
119741 0.394561
119756 0.567565
119772 0.892413
119779 1.16859
119787 1.59295
119795 2.29887
119802 3.53753
119810 5.94660
119814 8.03076
119818 10.9620
119824 17.6528
119830 22.2142
119836 17.8948
119842 11.2732
119849 6.69731
119856 4.28712
119862 2.93903
119869 2.13132
119875 1.60943
119882 1.26440
119895 0.845060
119909 0.609164
119922 0.465619
119948 0.305814
119975 0.223342
120001 0.175509
120054 0.125339
120160 0.0884151
120266 0.0776209
120372 0.0771898
120478 0.0874644
120531 0.101656
120584 0.133395
120610 0.165719
120636 0.226108
120663 0.374882
120676 0.610720
120683 1.05478
120686 1.99880
120688 3.99977
120689 7.00812
120689 10.2994
120689 17.3472
120690 26.6983
120690 31.2148
120691 13.7488
120691 5.41586
120692 2.31831
120693 0.743963
120695 0.249505
120700 0.270904
120708 0.504425
120717 0.793892
120726 1.23323
120735 2.01445
120740 2.67389
120744 3.64393
120749 5.22244
120753 7.83987
120757 12.5654
120762 21.4161
120766 34.9243
120770 43.6154
120774 34.8727
120778 22.2171
120781 16.1410
120784 12.1148
120789 7.37566
120795 4.91789
120800 3.51471
120806 2.63386
120811 2.06586
120822 1.38782
120833 1.01116
120843 0.783751
120865 0.530749
120887 0.399355
120908 0.322414
120952 0.240250
120995 0.199382
121038 0.176426
121125 0.153668
121299 0.141173
121472 0.142917
122165 0.186972
122859 0.260516
123552 0.363754
124246 0.506443
124940 0.705420
125633 0.990102
125980 1.18435
126067 1.24315
126153 1.31125
126240 1.40832
126262 1.45136
126283 1.53103
126294 1.61694
126305 1.81439
126310 2.04235
126316 2.54968
126318 3.07579
126321 4.06475
126324 6.18659
126325 8.27924
126327 11.4551
126328 17.6321
126330 21.6615
126332 17.8541
126333 11.7173
126335 8.33563
126336 6.28834
126338 4.92110
126339 4.09738
126342 3.11403
126345 2.60475
126351 2.12968
126357 1.92896
126368 1.78074
126380 1.74602
126403 1.78898
126426 1.92819
126449 2.21875
126461 2.48243
126473 2.91317
126484 3.68595
126490 4.32351
126496 5.27187
126502 6.75813
126507 9.23644
126513 13.6536
126519 21.8314
126525 34.2236
126530 42.7199
126536 34.6619
126541 22.3109
126545 15.9831
126549 11.9515
126553 9.24480
126557 7.46870
126565 5.31746
126573 4.15442
126582 3.46394
126590 3.02401
126606 2.52297
126622 2.26009
126638 2.10941
126670 1.96003
126703 1.89953
126735 1.87791
126800 1.88531
126929 1.97491
127058 2.10239
127576 2.80823
128093 3.87041
128610 5.49620
129390 9.84827
130170 17.2096
130560 20.2183
130950 20.1628
131730 12.8000
132229 8.40705
132727 5.51277
133226 3.68983
133725 2.52469
134223 1.75817
134722 1.24615
135221 0.951637
135345 0.949632
135470 1.06674
135532 1.25886
135595 1.73541
135626 2.25041
135657 3.22764
135672 4.06624
135688 5.33398
135704 7.30765
135719 10.3679
135740 16.3374
135760 20.3928
135781 16.5276
135801 10.6099
135817 7.35398
135834 5.31332
135850 4.01485
135867 3.15923
135899 2.15595
135932 1.61846
135998 1.08955
136063 0.841045
136195 0.606357
136326 0.488540
136588 0.354736
136851 0.269536
137376 0.156078
137901 0.0847182
138163 0.0602225
138425 0.0420096
138688 0.0295094
138950 0.0223409
139213 0.0202348
139475 0.0230327
139738 0.0306645
140000 0.0431456
140375 0.0697053
140750 0.106968
141500 0.217922
142250 0.389817
143000 0.648441
143750 1.04147
144500 1.66071
145250 2.69468
146000 4.55678
146385 6.09958
146770 8.27387
147540 14.7989
147925 17.7082
148310 17.8735
149080 11.0483
149748 5.91171
150082 4.32363
150249 3.71648
150333 3.47298
150353 3.43470
150374 3.43986
150385 3.49524
150395 3.67499
150400 3.90251
150406 4.41042
150408 4.92126
150411 5.83554
150413 7.63992
150415 9.20194
150416 11.6646
150418 16.6229
150420 20.2212
150422 16.7859
150424 11.7421
150426 8.03588
150428 6.19121
150431 5.18045
150433 4.58298
150437 3.94143
150442 3.63701
150451 3.35192
150459 3.22168
150477 3.08903
150495 3.00992
150566 2.79676
150707 2.46166
150991 1.92345
151557 1.18750
152124 0.738039
152407 0.595247
152478 0.576408
152549 0.584750
152584 0.621451
152619 0.738724
152637 0.891625
152655 1.25442
152664 1.65134
152673 2.42322
152677 3.12930
152681 4.22434
152686 6.03381
152690 9.07601
152695 14.2377
152700 17.7872
152705 14.4348
152710 9.21252
152714 6.49354
152717 4.73460
152721 3.59439
152725 2.85061
152732 1.95093
152739 1.46537
152754 0.989950
152768 0.777009
152798 0.593359
152827 0.517164
152886 0.455488
152944 0.439607
153003 0.461964
153032 0.499527
153061 0.576287
153091 0.743109
153105 0.903350
153120 1.17374
153135 1.68424
153142 2.11871
153149 2.78621
153157 3.87735
153164 5.80615
153171 9.54620
153175 12.7780
153178 17.3140
153184 27.7385
153190 34.9472
153196 28.2013
153202 17.7769
153206 12.8589
153209 9.59053
153217 5.79737
153225 3.84635
153232 2.76628
153240 2.09832
153248 1.66870
153263 1.15858
153278 0.880891
153293 0.712564
153324 0.525992
153355 0.427612
153385 0.367908
153446 0.298686
153569 0.229948
153691 0.190289
153935 0.137718
154180 0.100965
154424 0.0735675
154669 0.0532421
154914 0.0387324
155158 0.0292330
155403 0.0241459
155647 0.0230400
155892 0.0256136
156136 0.0317238
156381 0.0415350
156625 0.0561622
156870 0.0834178
156931 0.0983289
156992 0.128875
157023 0.162969
157053 0.242923
157069 0.337582
157084 0.559699
157092 0.812029
157099 1.34128
157103 1.86060
157107 2.77971
157111 4.58394
157113 6.14543
157114 8.43849
157117 13.2869
157120 16.6538
157123 13.3668
157126 8.24769
157128 5.62818
157130 4.01481
157134 2.22136
157138 1.37968
157142 0.933964
157150 0.511688
157158 0.329478
157175 0.184178
157191 0.131614
157224 0.0965388
157257 0.0876041
157388 0.0915421
157650 0.118072
158173 0.189427
158435 0.247253
158697 0.359215
158828 0.480542
158894 0.585917
158959 0.755306
159025 1.05831
159090 1.68424
159123 2.27921
159156 3.28340
159188 5.11216
159221 8.59651
159251 13.6819
159280 17.1882
159310 13.9364
159339 8.87859
159360 6.39642
159380 4.73644
159422 2.87381
159463 1.95624
159504 1.45258
159587 0.958190
159670 0.737909
159835 0.561606
160000 0.503973
160560 0.504553
161120 0.575702
162241 0.771955
162801 0.888003
163361 1.01912
163641 1.09626
163781 1.14208
163921 1.19903
164061 1.28274
164131 1.34842
164201 1.45156
164271 1.64195
164306 1.81110
164341 2.08837
164376 2.59424
164394 3.02058
164411 3.66926
164429 4.71841
164446 6.54824
164464 10.0287
164472 12.9526
164481 17.0584
164496 26.7399
164510 33.3543
164525 27.1844
164539 17.6539
164553 11.6941
164566 8.23552
164580 6.18752
164594 4.92063
164607 4.08901
164621 3.54369
164635 3.31608
164642 3.77319
164645 5.24835
164647 7.84810
164648 11.0092
164648 16.9305
164649 25.8110
164650 31.5410
164651 26.0314
164652 17.4433
164653 10.2974
164654 7.07265
164656 4.62333
164659 3.74080
164661 3.32922
164666 2.91579
164671 2.71394
164690 2.34908
164709 2.16510
164728 2.04109
164766 1.88266
164804 1.79013
164880 1.70455
164956 1.69511
165032 1.75428
165107 1.95045
165145 2.18930
165183 2.71031
165202 3.22690
165221 4.13967
165240 5.90458
165259 9.51622
165275 14.4525
165290 17.8272
165305 14.7101
165321 9.90371
165331 7.63455
165341 6.09083
165361 4.28598
165382 3.36581
165402 2.85026
165442 2.32851
165483 2.08981
165564 1.89115
165645 1.82085
165807 1.79099
165969 1.80897
166618 1.98748
167915 2.48282
170510 3.94993
172260 5.76523
172678 6.46132
173096 7.39105
173304 8.01510
173513 8.87160
173618 9.49573
173722 10.4517
173827 12.3360
173879 14.2176
173931 17.5515
173981 22.5098
174030 26.0142
174129 19.0166
174172 16.5914
174215 15.2091
174300 14.0601
174428 13.9114
174555 14.3743
174810 15.5369
175065 15.1188
175320 11.0134
175575 5.26315
175703 3.11421
175830 1.66208
175894 1.16206
175958 0.785622
176021 0.510640
176085 0.319095
176149 0.194047
176213 0.122225
176276 0.0921608
176340 0.0948663
176438 0.146499
176536 0.238607
176732 0.492681
177123 1.09584
177515 1.68647
177711 1.95789
177809 2.08444
177857 2.16063
177882 2.29481
177888 2.41230
177894 2.69660
177897 3.01965
177900 3.64372
177903 5.14094
177905 6.59997
177906 8.99525
177908 13.6180
177910 16.5852
177912 13.8207
177914 9.81516
177916 6.73769
177918 5.13402
177922 3.74823
177927 3.18761
177931 2.90943
177940 2.65263
177948 2.54540
177966 2.46322
177983 2.44043
178052 2.47196
178190 2.62215
178466 2.94212
179018 3.54305
180123 4.60502
181227 5.56995
181780 6.09300
181918 6.27701
182056 6.58211
182125 6.88523
182159 7.14075
182194 7.54779
182228 8.27406
182246 8.88092
182263 9.79298
182280 11.2699
182297 13.8228
182315 18.7034
182323 22.7549
182332 28.5037
182346 41.7518
182360 50.5898
182374 41.8197
182388 28.6111
182401 20.9108
182413 16.3137
182425 13.4848
182438 11.6984
182462 9.67577
182487 8.64866
182512 8.06281
182536 7.70516
182586 7.31693
182684 7.04134
182783 6.97932
182980 7.02425
183177 7.13493
183966 7.68691
185544 8.81945
188700 10.8924
190000 11.6287
192230 12.6651
193344 13.0605
193902 13.2412
194041 13.2995
194180 13.3967
194250 13.4976
194320 13.7333
194355 14.0118
194372 14.2557
194389 14.6439
194407 15.3135
194424 16.6016
194433 17.7258
194442 19.4646
194450 22.2593
194459 26.8047
194470 35.0907
194480 40.8805
194491 35.6370
194501 27.3971
194512 21.9484
194523 18.9530
194533 17.2225
194544 16.1799
194566 15.0459
194587 14.4869
194609 14.1740
194630 13.9825
194673 13.7723
194759 13.6091
194845 13.5545
195188 13.5384
195876 13.6109
197251 13.6841
200000 13.4157
200000 13.4157
200001 13.4156
200001 13.4155
200002 13.4153
200004 13.4149
200008 13.4142
200016 13.4127
200031 13.4096
200062 13.4035
200124 13.3912
200248 13.3657
200495 13.3119
200991 13.1927
201981 12.9107
202971 12.5754
203467 12.3910
203714 12.3059
203776 12.2958
203838 12.3147
203869 12.3632
203900 12.5144
203915 12.7153
203931 13.2045
203939 13.7539
203946 14.8482
203950 15.8606
203954 17.4494
203958 20.2152
203962 24.8782
203966 32.6394
203970 38.0379
203974 33.1903
203978 25.4961
203981 21.7697
203984 19.3109
203989 16.4058
203995 14.9327
204000 14.1172
204011 13.2797
204022 12.8865
204044 12.5367
204066 12.3872
204109 12.2549
204153 12.1919
204240 12.1195
204328 12.0685
204677 11.9014
205376 11.5761
206075 11.2187
206424 10.9891
206599 10.7809
206642 10.6773
206686 10.4923
206708 10.3178
206730 9.98430
206741 9.66307
206751 9.05335
206757 8.48270
206762 7.50234
206765 6.66355
206768 5.45544
206771 3.63179
206773 1.27215
206775 0.494279
206777 2.04245
206780 9.48460
206782 11.5508
206783 12.5020
206787 12.9844
206800 12.4011
206813 11.9639
206826 11.7143
206838 11.5552
206864 11.3629
206890 11.2485
206966 11.0687
207042 10.9694
207193 10.8400
207345 10.7539
207421 10.7533
207459 10.8492
207478 11.1342
207487 11.7904
207492 12.9101
207494 14.2782
207496 17.0237
207500 22.9181
207502 20.3719
207504 16.4743
207505 14.2204
207507 12.8800
207510 11.6609
207516 10.9201
207529 10.6521
207554 10.6334
207566 10.6987
207579 10.8815
207585 11.1010
207591 11.5592
207598 12.7506
207601 14.0664
207604 16.5805
207607 20.3967
207610 23.1550
207613 20.7603
207616 17.1302
207619 15.1289
207621 13.8736
207625 12.4831
207630 11.8024
207635 11.4261
207644 11.0473
207653 10.8681
207672 10.7038
207690 10.6289
207727 10.5546
207764 10.5123
207911 10.4063
208207 10.2367
208797 9.91077
209387 9.58389
209682 9.43010
209756 9.40581
209830 9.42014
209867 9.48028
209885 9.55006
209904 9.68007
209922 9.94691
209931 10.1881
209941 10.5761
209950 11.2453
209959 12.5125
209964 13.5917
209968 15.2142
209973 17.7194
209977 21.5925
209984 29.3844
209990 34.5774
209995 31.1848
210000 24.9809
210003 22.1675
210010 16.7768
210017 13.9932
210025 12.4756
210032 11.5880
210040 11.0152
210047 10.6301
210062 10.1619
210076 9.89333
210091 9.72504
210121 9.52744
210180 9.34109
210238 9.24506
210474 9.03901
210946 8.74824
211888 8.20916
212831 7.70861
213303 7.59536
213538 7.91536
213597 8.21265
213656 8.80159
213715 10.1015
213745 11.3393
213774 13.2858
213850 19.6512
213888 17.2465
213926 13.4359
213962 11.0411
213998 9.65145
214071 8.29792
214143 7.70011
214215 7.37820
214504 6.83922
215082 6.36726
216237 5.62621
218548 4.13018
220859 2.33021
222015 1.04273
222592 0.265015
222737 0.120510
222809 0.0787718
222881 0.0710956
222953 0.113402
223026 0.228226
223098 0.446949
223170 0.811960
223226 1.23251
223283 1.80290
223395 3.50438
223620 8.83263
223733 11.1245
223845 12.1934
224070 11.5038
224581 8.40724
224837 8.31895
224964 9.12715
225092 11.1517
225330 16.7822
225568 10.5959
225666 8.59467
225690 8.32884
225715 8.30963
225727 8.53252
225739 9.19231
225745 9.90999
225751 11.2351
225754 12.3544
225757 13.9500
225760 16.4605
225763 20.3179
225770 30.1341
225772 28.4611
225773 24.4474
225777 15.0593
225779 11.1490
225781 8.76243
225783 7.48907
225785 7.03663
225787 7.26904
225789 8.33148
225791 10.5482
225793 14.2835
225797 23.8727
225798 28.1872
225800 29.8246
225807 20.3105
225809 17.4666
225811 15.3711
225816 12.5488
225820 10.8680
225825 9.80727
225834 8.53073
225842 7.80832
225860 7.01388
225878 6.56781
225914 6.03349
225949 5.68531
226092 4.83260
226377 3.90945
226947 2.93545
227518 2.33112
227803 2.08819
227945 1.97360
228017 1.91711
228052 1.90620
228070 1.99717
228079 2.38948
228084 3.48033
228086 5.40733
228087 7.63258
228088 12.2026
228089 18.9451
228090 23.2329
228091 19.2285
228092 12.8736
228093 8.43427
228094 6.02527
228097 3.93453
228102 2.71953
228111 2.18030
228130 1.96955
228167 1.87285
228243 1.79535
228393 1.68610
228695 1.49772
228996 1.32706
229147 1.24432
229222 1.20600
229260 1.22223
229278 1.39647
229288 2.01607
229293 3.48153
229295 5.80839
229296 8.18282
229297 11.7448
229299 18.5211
229300 23.0513
229301 18.8132
229303 12.4493
229305 7.50491
229306 5.08226
229310 3.07279
229314 2.30699
229317 1.93720
229324 1.60033
229332 1.45242
229360 1.26448
229418 1.17570
229533 1.10230
229762 1.00298
230221 0.878340
230451 0.884171
230681 1.04027
230796 1.28570
230910 1.88217
230968 2.51375
231025 3.69257
231054 4.68171
231083 6.14901
231111 8.38151
231140 11.7864
231180 18.7732
231220 23.7250
231260 19.3076
231300 12.2819
231337 7.97661
231374 5.45208
231411 3.94212
231448 2.99418
231522 1.92849
231597 1.37911
231671 1.05743
231745 0.851224
231893 0.605425
232041 0.463933
232190 0.370794
232486 0.252417
232782 0.178708
233079 0.129233
233375 0.0968465
233524 0.102323
233561 0.124962
233598 0.202119
233616 0.313785
233635 0.607172
233644 0.960734
233653 1.72109
233658 2.48571
233663 3.78863
233667 6.22015
233672 10.9641
233676 18.0594
233680 22.6517
233684 18.1464
233688 11.6510
233692 7.67469
233696 5.30201
233700 3.85682
233703 2.95319
233711 1.89089
233719 1.34292
233734 0.812031
233749 0.573251
233779 0.364203
233809 0.275835
233869 0.201589
233929 0.171237
234050 0.148185
234170 0.142753
234394 0.150536
234617 0.171447
235064 0.241936
235511 0.346997
235958 0.486006
236852 0.866787
237299 1.10739
237523 1.23725
237635 1.30210
237690 1.34201
237718 1.41706
237732 1.66155
237739 2.28510
237743 3.33128
237745 4.42014
237746 6.42482
237748 9.70510
237750 12.1290
237752 10.1236
237754 7.08608
237756 4.87727
237758 3.66478
237762 2.57288
237771 1.90710
237787 1.61518
237821 1.51953
237888 1.52026
238021 1.59574
238289 1.78380
238824 2.20657
239893 3.18358
240963 4.29169
241498 4.87451
241766 5.16718
241899 5.31628
241966 5.42330
242000 5.61490
242008 5.76713
242016 6.09459
242025 7.01681
242029 8.17323
242033 10.5738
242037 13.8912
242040 16.3097
242047 11.2058
242051 8.83177
242055 7.63520
242063 6.59284
242072 6.18258
242080 5.98419
242113 5.74292
242178 5.71084
242310 5.81876
242573 6.09809
243099 6.68030
244150 7.92164
244654 8.94422
244905 10.5051
245031 12.7851
245094 15.1426
245157 19.2367
245290 30.7379
245423 20.3299
245491 16.0517
245559 13.6708
245695 11.4977
245967 10.2661
246511 9.98494
247600 10.3149
249777 10.7912
254130 10.1870
254508 10.0530
254697 10.0160
254791 10.1633
254815 10.3349
254839 10.7648
254850 11.2439
254862 12.1948
254868 13.0418
254874 14.3695
254880 16.5290
254886 20.0693
254893 26.5692
254900 30.7991
254914 20.6760
254923 16.0485
254932 13.7275
254941 12.4869
254950 11.7624
254968 10.9994
254985 10.6270
255021 10.2773
255057 10.1166
255199 9.87336
255483 9.65775
256052 9.21232
256620 8.28952
256905 6.91933
257047 5.16969
257118 3.56887
257189 1.34370
257214 0.593647
257239 0.124780
257252 0.0752751
257264 0.189682
257277 0.488630
257290 0.968754
257315 2.39702
257340 4.13201
257390 7.19704
257440 9.01257
257491 9.90108
257591 10.4713
257887 10.3227
258183 10.0106
258775 9.56386
259959 8.95793
261143 8.46760
261735 8.24823
262031 8.17751
262179 8.25970
262216 8.36262
262253 8.60998
262271 8.87353
262290 9.37350
262308 10.4505
262317 11.4598
262327 13.0488
262350 18.2109
262362 16.2961
262373 13.1792
262382 11.6271
262390 10.6066
262406 9.46444
262423 8.90430
262439 8.59618
262472 8.28784
262505 8.14298
262636 7.93740
262768 7.85435
262833 7.82606
262866 7.82027
262882 7.84388
262891 7.96370
262895 8.36807
262897 9.38179
262898 10.9303
262899 15.9433
262900 24.6647
262901 16.4829
262902 12.0759
262903 10.2342
262905 8.94884
262908 8.26723
262915 8.00671
262929 7.93377
262956 8.02339
262970 8.18786
262984 8.60097
262991 9.05862
262998 9.96111
263001 10.7750
263005 12.0087
263008 14.0679
263012 17.3398
263016 23.4684
263020 27.8187
263024 24.1731
263028 18.2902
263032 14.7743
263036 12.6260
263040 11.2963
263043 10.4566
263051 9.45888
263058 8.93976
263073 8.43243
263087 8.20169
263117 7.99541
263146 7.90566
263263 7.80366
263381 7.89142
263410 7.97597
263439 8.12827
263469 8.45556
263483 8.93005
263491 9.86958
263494 11.8266
263496 14.7134
263497 17.6352
263498 22.6345
263499 30.9234
263500 36.5562
263501 31.0514
263502 22.8370
263503 18.3049
263504 15.2419
263505 12.3736
263509 10.4682
263516 9.80316
263530 10.1193
263544 10.9994
263558 12.3926
263579 15.5659
263600 17.7964
263643 13.0068
263661 11.2236
263680 10.1303
263718 8.99383
263756 8.46483
263793 8.17570
263944 7.72282
264095 7.55273
264170 7.51256
264208 7.59434
264217 7.70108
264227 7.98533
264231 8.32192
264236 9.03863
264241 10.8835
264243 13.0266
264245 16.9034
264248 22.9168
264250 27.0031
264255 17.5245
264256 14.5508
264258 12.5417
264262 10.4124
264265 9.35793
264269 8.79831
264276 8.23093
264283 7.96865
264297 7.72970
264311 7.62328
264339 7.52444
264368 7.47498
264481 7.37823
264707 7.26542
265159 7.08638
266062 6.76798
267870 6.17668
269678 5.61623
270582 5.34417
271034 5.20882
271260 5.13999
271373 5.10604
271430 5.10239
271458 5.16526
271472 5.40784
271479 6.00681
271483 6.94288
271486 9.56072
271488 12.4396
271490 14.5203
271492 12.7930
271494 10.0368
271497 7.70707
271500 6.64522
271505 5.81069
271517 5.35865
271539 5.17041
271584 5.09168
271674 5.04188
271854 4.98060
272215 4.87289
272935 4.66537
274377 4.26014
275818 3.86762
276539 3.71296
276719 3.71539
276899 3.81426
276990 3.98150
277080 4.41384
277125 4.89489
277170 5.82915
277215 7.87724
277237 9.81692
277260 12.8615
277290 18.9036
277320 22.8929
277380 13.5045
277408 10.0911
277435 8.04153
277463 6.77702
277490 5.96518
277545 5.02645
277600 4.52734
277710 4.03003
277819 3.78831
278258 3.40840
279136 3.09099
280013 2.88568
280452 2.93996
280672 3.35348
280781 4.18618
280836 5.18885
280891 7.15159
280941 10.0866
280990 12.1792
281040 10.4343
281089 7.61442
281147 5.53122
281204 4.43416
281320 3.45698
281551 2.83655
282012 2.47381
282474 2.29102
282705 2.21451
282820 2.18377
282878 2.20906
282907 2.38776
282914 2.56045
282921 2.97008
282928 4.26135
282932 6.13355
282934 7.93226
282935 10.8512
282938 16.3837
282940 20.4005
282942 17.0554
282945 11.6842
282948 7.27864
282951 5.22589
282957 3.58980
282963 2.98781
282969 2.70289
282982 2.44624
282994 2.33616
283044 2.19540
283144 2.12355
283343 2.05237
283741 1.93884
284537 1.72879
286130 1.32111
287723 0.905313
288519 0.687014
288917 0.589588
289017 0.583584
289116 0.623431
289166 0.700151
289216 0.904139
289241 1.13256
289266 1.57541
289290 2.53385
289303 3.42317
289315 4.79943
289333 7.67835
289350 9.73343
289367 8.07621
289385 5.39064
289404 3.46891
289423 2.42529
289443 1.83038
289462 1.46618
289500 1.06274
289539 0.854410
289616 0.646148
289692 0.540145
290000 0.344197
290434 0.186296
290650 0.124903
290867 0.0801561
291084 0.0671482
291192 0.0821203
291301 0.120680
291409 0.194736
291517 0.322890
291626 0.534797
291734 0.877482
291851 1.47812
291967 2.45384
292084 3.96002
292200 6.00255
292317 8.07913
292433 9.20736
292666 7.87816
292758 6.91980
292781 6.71732
292804 6.59012
292815 6.60790
292827 6.78760
292838 7.47846
292844 8.37051
292849 10.1581
292855 12.9485
292860 14.9336
292871 10.6431
292876 8.87715
292881 7.85056
292892 6.79906
292902 6.28401
292912 5.97745
292933 5.59449
292954 5.33396
292996 4.94158
293038 4.62374
293205 3.67190
293539 2.53260
293874 1.88506
294208 1.47066
294877 0.965147
295546 0.659926
296214 0.450975
296883 0.299181
297552 0.187558
298220 0.108503
298889 0.0590682
299224 0.0453277
299558 0.0390972
299892 0.0406588
300227 0.0504058
300561 0.0688493
300895 0.0965997
301564 0.183201
302233 0.317950
302902 0.511116
303236 0.633432
303403 0.707677
303487 0.784656
303529 0.966500
303539 1.11324
303549 1.42125
303560 2.22073
303565 3.13874
303570 4.88066
303575 7.56451
303580 9.49931
303585 7.94892
303590 5.40745
303593 4.08833
303597 3.21063
303604 2.22827
303619 1.47976
303633 1.21189
303647 1.09027
303676 0.988378
303705 0.952033
303762 0.933797
303791 0.929598
303805 0.921553
303812 0.919474
303816 0.968145
303818 1.17500
303819 3.73415
303820 7.27799
303821 4.46678
303823 1.55026
303825 1.22642
303829 1.07385
303837 1.01298
303853 0.991852
303886 0.993096
303950 1.01779
304080 1.08473
304539 1.38799
304998 1.78499
305227 2.03844
305342 2.19163
305457 2.37936
305571 2.63982
305629 2.82846
305686 3.09816
305743 3.53274
305801 4.34479
305829 5.06091
305858 6.19519
305887 8.08781
305915 11.2954
305948 16.8494
305980 20.5560
306045 12.1980
306082 8.58482
306119 6.70691
306157 5.69227
306194 5.11093
306232 4.76017
306269 4.54429
306344 4.33091
306418 4.27051
306493 4.28853
306642 4.44569
306941 4.98720
307240 5.68708
307690 6.90990
308140 8.11569
308590 8.81115
308815 8.75851
308928 8.61052
309040 8.43068
309066 8.42585
309093 8.51211
309106 8.65469
309119 8.97865
309132 9.79342
309139 10.6586
309145 12.1166
309153 14.7370
309160 16.6222
309168 15.0633
309175 12.5165
309182 11.0005
309188 10.0673
309201 9.07054
309214 8.58852
309227 8.30998
309252 7.98791
309278 7.78456
309330 7.48356
309381 7.22324
309588 6.20470
310000 4.16252
310400 2.52212
310739 1.51727
311079 0.834928
311418 0.410450
311503 0.344274
311588 0.313264
311630 0.334436
311673 0.439832
311694 0.582628
311715 0.897238
311726 1.19884
311736 1.70136
311747 2.58144
311758 4.15630
311769 6.83524
311780 8.74245
311791 7.21389
311803 4.74373
311811 3.45831
311819 2.60313
311835 1.62123
311851 1.12499
311868 0.843378
311900 0.550471
311933 0.405991
311998 0.265899
312063 0.198343
312193 0.134336
312324 0.109663
312454 0.105483
312584 0.115433
312845 0.166429
313366 0.354939
313887 0.619738
314929 1.28252
315971 2.04301
318056 3.66659
319098 4.47013
320140 5.23952
320594 5.56337
321048 5.89241
321275 6.07667
321388 6.18636
321502 6.32472
321615 6.53036
321672 6.68912
321729 6.92614
321786 7.32124
321842 8.07271
321871 8.73619
321899 9.77635
321927 11.4992
321956 14.3895
321988 19.4749
322020 23.1818
322052 20.2137
322084 15.2770
322116 12.0456
322148 10.2084
322180 9.14082
322212 8.48834
322276 7.78247
322340 7.44307
322404 7.26344
322468 7.16376
322596 7.07924
322724 7.06540
322851 7.08288
323107 7.15745
323363 7.25278
323618 7.35920
323746 7.42404
323874 7.52677
323938 7.63119
323970 7.72271
324002 7.87254
324034 8.14864
324050 8.38236
324066 8.73508
324082 9.30461
324098 10.2808
324114 12.0727
324130 15.4527
324145 20.6658
324160 24.1350
324190 16.2301
324205 13.1892
324220 11.4304
324235 10.3773
324250 9.71261
324279 8.96446
324309 8.57990
324339 8.35846
324368 8.22061
324427 8.06822
324487 7.99423
324546 7.95667
324664 7.93138
324901 7.95271
325138 8.00167
325612 8.10997
325848 8.15851
325967 8.18104
326026 8.20548
326056 8.28435
326070 8.53352
326078 9.09125
326082 9.90247
326085 11.9228
326090 16.1391
326092 14.7388
326095 12.4203
326099 10.3501
326102 9.45607
326110 8.78830
326124 8.44564
326154 8.30996
326213 8.26841
326331 8.26833
326567 8.29347
327039 8.32964
327982 8.24756
328454 8.06108
328926 7.66719
329398 6.84134
329870 5.06262
330555 0.430803
330598 0.261958
330641 0.142044
330684 0.0741577
330726 0.0600193
330769 0.0993952
330812 0.190140
330855 0.328407
330898 0.508984
331069 1.52684
331240 2.72143
331630 4.97309
331905 5.99370
332181 6.67276
332318 6.92446
332456 7.13801
332594 7.36203
332628 7.45497
332663 7.62938
332680 7.80421
332697 8.14368
332714 8.94075
332723 9.77444
332731 11.2245
332741 13.6896
332750 15.4871
332759 14.0832
332769 11.7398
332778 10.1283
332788 9.24208
332798 8.73383
332808 8.42469
332827 8.09230
332846 7.93212
332885 7.79765
332924 7.75369
333002 7.74464
333079 7.76695
333390 7.88871
333807 8.00852
334223 8.07664
335056 8.11271
335889 8.06767
336306 8.03151
336410 8.02955
336514 8.05070
336566 8.09258
336618 8.21145
336644 8.35506
336670 8.65782
336683 8.94275
336696 9.41285
336709 10.2294
336722 11.6810
336736 14.1529
336750 15.9362
336764 14.5354
336778 12.2340
336792 10.6950
336805 9.81386
336819 9.29114
336833 8.96298
336861 8.59365
336888 8.40150
336944 8.21387
336999 8.12490
337109 8.03773
337220 7.99096
337441 7.93117
337661 7.88501
338545 7.71885
340312 7.36380
342079 6.97275
342963 6.76768
343405 6.66317
343626 6.60926
343736 6.58041
343791 6.56919
343819 6.59366
343833 6.72374
343840 7.08793
343843 7.75298
343847 9.98185
343850 13.9305
343853 10.5016
343856 8.51333
343859 7.68165
343864 7.08106
343875 6.76811
343896 6.63600
343938 6.57883
344023 6.54235
344193 6.50076
344362 6.46962
344532 6.45079
344702 6.46014
344787 6.48970
344872 6.55718
344956 6.70897
344999 6.85162
345041 7.08419
345084 7.48891
345126 8.25251
345147 8.89924
345169 9.86519
345190 11.3453
345211 13.6196
345241 18.3469
345270 21.8046
345300 19.0319
345329 14.4110
345352 11.9019
345375 10.2822
345398 9.22424
345421 8.51795
345466 7.67114
345512 7.20726
345558 6.92523
345603 6.73942
345695 6.51285
345786 6.37930
345877 6.28936
346060 6.16926
346426 6.01607
346791 5.89916
348253 5.49978
351177 4.73198
354101 3.93957
355563 3.52961
355929 3.43185
356294 3.35490
356477 3.34721
356568 3.36689
356660 3.42298
356751 3.56058
356797 3.69440
356842 3.91533
356888 4.30312
356934 5.03998
356957 5.66619
356979 6.59601
357002 8.01471
357025 10.1818
357058 14.7737
357090 18.1532
357123 15.5124
357155 11.0718
357181 8.56501
357208 6.97756
357234 5.96677
357260 5.31080
357287 4.89077
357313 4.68413
357326 4.69892
357339 4.88513
357353 5.51453
357359 6.23763
357366 7.50448
357373 9.73225
357380 11.3596
357387 10.0266
357394 7.80452
357402 6.31713
357409 5.45131
357423 4.59731
357438 4.20554
357452 3.98473
357481 3.73815
357510 3.59523
357567 3.42087
357625 3.30938
357740 3.16272
357855 3.06301
358085 2.92095
358315 2.81121
358776 2.62459
359236 2.45113
360157 2.09849
360618 1.90505
360848 1.80199
360963 1.78371
360992 1.81861
361021 1.94661
361035 2.12136
361050 2.53286
361057 2.96028
361064 3.73839
361071 5.28397
361075 6.61457
361078 8.48311
361084 13.0485
361090 16.3960
361096 13.8765
361102 9.63983
361107 7.22735
361111 5.70433
361121 4.04516
361130 3.23679
361140 2.79676
361159 2.34882
361177 2.13346
361215 1.92958
361253 1.83045
361329 1.72330
361404 1.65601
361706 1.46370
362008 1.28350
362310 1.08478
362613 0.849994
362915 0.555736
363066 0.378543
363217 0.188308
363293 0.101974
363368 0.0466393
363444 0.0749769
363481 0.155599
363519 0.315239
363567 0.701681
363591 1.00878
363615 1.41599
363662 2.60982
363710 4.28986
363758 6.06424
363806 7.21563
363901 7.00574
364009 5.49386
364118 4.32626
364226 3.55167
364334 3.02312
364551 2.35397
364767 1.94012
365200 1.42299
365633 1.08078
366066 0.821621
366499 0.629994
366716 0.573181
366932 0.575103
367041 0.623088
367149 0.740701
367203 0.851539
367257 1.03866
367284 1.19536
367311 1.46043
367325 1.69261
367338 2.08672
367352 2.89483
367359 3.67403
367365 4.93516
367380 8.68167
367387 7.39417
367395 5.15652
367402 3.82350
367408 3.08474
367422 2.46516
367435 2.29977
367449 2.30988
367476 2.56423
367503 3.01205
367557 4.50210
367611 7.15719
367671 11.7294
367730 14.7864
367790 11.9495
367849 7.71071
367887 5.76842
367926 4.40903
368002 2.78913
368079 1.94718
368155 1.48805
368232 1.26126
368309 1.25610
368347 1.38742
368385 1.70373
368424 2.41568
368443 3.06557
368462 4.03516
368491 6.21494
368520 7.82564
368549 6.52070
368578 4.32209
368612 2.68628
368646 1.83013
368680 1.35867
368714 1.07784
368782 0.775078
368850 0.626503
368930 0.535816
369010 0.491472
369170 0.476334
369489 0.613334
369649 0.750555
369809 0.949866
369889 1.09649
369969 1.33353
370009 1.54197
370048 1.90918
370068 2.21879
370088 2.68748
370108 3.43562
370128 4.63440
370154 7.01939
370180 8.76981
370206 7.60962
370232 5.63771
370263 4.13169
370294 3.36115
370325 2.95871
370357 2.74157
370419 2.56742
370481 2.55084
370606 2.69927
370731 2.95079
371230 4.29375
372420 7.00834
373610 7.12235
374363 6.47636
374740 6.09933
374928 5.90973
375022 5.84746
375069 5.95405
375093 6.34237
375105 7.01393
375111 7.72734
375116 8.93484
375123 11.1646
375130 12.8028
375137 11.6029
375144 9.58450
375151 8.11030
375159 7.29819
375174 6.54554
375189 6.21922
375204 6.04644
375235 5.86523
375265 5.76649
375325 5.64616
375386 5.56117
375507 5.42339
375628 5.30133
376113 4.86418
377083 4.11645
379022 2.97409
380961 2.14428
381445 1.97666
381930 1.84266
382173 1.81328
382294 1.82552
382415 1.87859
382536 2.02157
382597 2.16354
382657 2.39851
382718 2.80528
382778 3.55625
382839 5.05679
382900 8.20682
382950 12.6346
383000 15.5717
383050 12.8743
383101 8.84622
383155 6.05857
383209 4.50537
383263 3.60351
383317 3.04252
383425 2.40970
383532 2.07306
383640 1.86546
383748 1.72331
383964 1.53500
384180 1.40795
384396 1.31090
384612 1.24178
384720 1.27371
384747 1.33609
384774 1.51076
384788 1.72267
384801 2.18363
384808 2.63902
384815 3.41483
384821 4.85427
384828 7.66261
384834 11.8322
384840 14.9483
384846 12.5527
384852 8.46291
384857 6.21106
384861 4.76318
384871 3.19258
384880 2.45186
384890 2.05556
384909 1.66149
384928 1.47820
384965 1.31214
385003 1.23607
385079 1.16027
385154 1.11694
385457 1.01122
385759 0.931491
386062 0.860408
387272 0.618976
387877 0.515777
388482 0.422234
388784 0.380120
389087 0.346629
389238 0.341275
389389 0.367987
389465 0.422551
389541 0.578393
389578 0.769160
389616 1.18987
389635 1.61020
389654 2.35879
389673 3.82806
389682 5.10301
389692 6.95019
389720 14.0114
389734 11.5255
389748 7.22668
389758 5.12742
389768 3.70412
389777 2.74391
389787 2.08692
389806 1.26715
389825 0.792774
389844 0.482783
389863 0.286322
389882 0.411769
389892 1.23396
389897 2.52870
389901 5.42414
389906 10.3416
389908 12.7171
389910 13.7615
389914 11.6994
389919 8.37268
389925 5.17172
389932 3.59854
389938 2.73179
389945 2.20209
389958 1.59960
389971 1.27618
389997 0.935255
390023 0.758209
390075 0.572788
390127 0.475332
390232 0.370945
390336 0.313167
390544 0.248785
390649 0.254607
390701 0.366189
390714 0.477385
390727 0.743752
390740 1.62148
390746 2.98981
390750 4.42528
390753 6.83351
390756 10.8816
390760 13.6528
390764 10.9992
390767 7.02241
390770 4.68156
390774 3.24365
390780 1.82474
390792 0.865551
390805 0.554051
390818 0.415207
390868 0.244141
390969 0.182485
391020 0.189864
391070 0.263203
391095 0.382781
391121 0.692008
391133 1.03977
391146 1.70841
391159 3.14187
391165 4.45838
391171 6.46324
391181 10.9114
391190 13.8259
391200 11.2487
391209 7.46013
391220 4.63521
391231 3.13504
391242 2.28556
391253 1.76664
391275 1.19210
391297 0.898297
391341 0.612505
391385 0.477975
391474 0.351259
391562 0.290162
391738 0.227340
391914 0.192307
392267 0.149573
392620 0.121916
393325 0.0875041
394030 0.0711107
394997 0.0717675
395964 0.0964049
396448 0.116987
396931 0.142488
397415 0.173075
397657 0.198951
397778 0.258828
397808 0.314586
397838 0.457021
397853 0.627346
397868 1.00515
397876 1.39085
397883 2.07840
397891 3.47249
397895 4.69723
397899 6.50945
397904 10.5186
397910 13.5213
397916 11.2217
397921 7.24274
397928 4.25640
397935 2.74431
397942 1.91659
397948 1.44010
397962 0.936971
397975 0.695003
398002 0.478430
398029 0.387060
398083 0.313042
398137 0.285074
398353 0.262445
398569 0.276619
398623 0.296715
398677 0.359798
398704 0.448053
398731 0.673965
398744 0.933974
398758 1.46927
398765 1.96761
398771 2.76325
398778 4.10881
398785 6.42684
398792 10.5794
398800 13.6800
398808 11.4284
398815 7.57241
398823 4.94773
398831 3.47094
398838 2.60601
398846 2.07297
398862 1.50140
398877 1.26456
398893 1.23426
398908 1.47211
398916 1.79948
398923 2.45228
398931 3.84814
398935 5.13814
398939 7.04364
398944 11.1857
398950 13.9064
398956 11.3705
398961 7.46228
398965 5.53127
398969 4.20590
398978 2.72119
398986 1.97333
398994 1.55091
399010 1.11384
399026 0.903351
399059 0.706250
399091 0.616537
399156 0.535544
399221 0.500780
399351 0.475136
399481 0.471046
399740 0.484797
400000 0.510422
400000 0.510444
400001 0.510534
400002 0.510612
400003 0.510769
400006 0.511082
400011 0.511711
400023 0.512977
400045 0.515550
400090 0.520805
400180 0.531723
400360 0.554942
400720 0.605898
401439 0.724123
401799 0.796212
401979 0.840542
402159 0.898219
402339 0.988567
402429 1.06271
402519 1.18049
402609 1.39322
402654 1.57262
402699 1.84560
402744 2.28879
402789 3.06023
402834 4.51089
402879 7.35502
402919 11.5861
402960 14.4050
403001 11.8669
403041 8.06145
403067 6.35111
403092 5.13686
403143 3.66397
403194 2.87228
403244 2.41132
403295 2.12214
403346 1.93130
403447 1.70587
403549 1.58720
403650 1.52122
403853 1.46511
404056 1.45674
404259 1.47079
404665 1.53088
405071 1.61195
405477 1.70391
405883 1.80533
406086 1.87901
406137 1.91824
406187 2.00307
406213 2.09836
406238 2.30252
406264 2.86447
406276 3.55776
406289 4.96630
406299 6.98443
406310 8.49514
406321 7.38718
406331 5.46861
406344 4.03074
406356 3.28159
406368 2.86922
406381 2.62462
406405 2.36513
406430 2.24081
406479 2.13275
406528 2.09264
406627 2.07331
406725 2.08088
406923 2.11923
407120 2.16808
407514 2.27627
407908 2.39066
408696 2.62806
409091 2.74934
409288 2.82823
409337 2.86970
409386 2.96541
409411 3.08250
409435 3.35949
409448 3.66252
409460 4.25896
409472 5.61053
409479 6.95403
409485 9.10185
409492 13.1780
409500 15.9126
409515 9.68848
409523 7.39057
409530 6.01259
409537 5.16999
409544 4.62997
409558 4.01279
409572 3.69028
409601 3.38268
409629 3.24746
409686 3.13827
409742 3.10257
409856 3.09599
409969 3.13197
409995 3.16197
410007 3.20637
410020 3.55449
410023 4.64259
410024 1.55865
410025 2.16605
410026 2.63444
410033 2.95855
410045 3.05372
410071 3.09638
410213 3.15952
410356 3.20591
410640 3.29952
411210 3.49580
411493 3.60035
411776 3.72239
411917 3.80771
412059 3.95880
412129 4.11409
412165 4.24466
412200 4.44673
412235 4.78815
412271 5.42360
412288 5.96311
412306 6.77283
412324 8.02360
412341 9.95219
412366 13.9506
412390 16.9563
412414 14.7645
412439 10.9585
412458 8.84296
412477 7.48327
412496 6.60248
412515 6.01473
412553 5.31771
412592 4.94562
412630 4.72677
412668 4.59023
412745 4.44081
412821 4.37169
412897 4.34074
413050 4.33208
413203 4.35690
413356 4.39998
413509 4.47153
413586 4.58339
413624 4.86131
413633 5.07798
413643 5.52473
413652 6.70412
413657 8.10335
413662 10.8563
413666 14.6693
413670 17.2321
413674 14.7310
413678 10.8685
413683 7.95532
413688 6.54677
413698 5.42492
413708 5.01664
413719 4.82938
413759 4.61343
413840 4.57231
414001 4.61434
414325 4.73882
414648 4.87785
414971 5.03353
415294 5.22095
415618 5.48548
415779 5.68800
415941 6.00329
416022 6.24744
416102 6.61698
416143 6.89857
416183 7.33050
416203 7.66468
416224 8.16429
416244 8.99270
416264 10.4911
416282 12.6425
416300 14.3209
416318 13.4499
416336 11.8035
416355 10.7692
416374 10.3454
416393 10.2686
416412 10.3955
416450 11.0239
416488 12.0088
416594 16.0501
416700 18.7992
416912 12.7916
416990 10.9400
417068 9.70440
417146 8.88006
417224 8.31815
417380 7.64385
417536 7.28590
417848 6.96837
418160 6.86206
418618 6.81657
419075 6.75763
419990 6.10504
420448 5.20074
420905 3.76772
421363 2.05823
421591 1.29517
421820 0.702227
421934 0.483863
422049 0.319849
422163 0.208606
422278 0.146609
422392 0.128829
422506 0.149649
422621 0.203115
422735 0.283330
422964 0.503283
423193 0.773140
423650 1.36662
424565 2.47016
425480 3.34052
426022 3.76476
426565 4.14122
427107 4.48881
427378 4.67469
427446 4.73848
427514 4.84061
427548 4.93597
427582 5.12598
427599 5.31338
427615 5.65725
427632 6.41360
427641 7.19330
427649 8.57935
427660 11.0357
427665 9.34928
427671 6.00665
427674 5.10456
427677 4.96891
427683 6.10599
427692 9.23933
427700 11.1102
427717 8.79268
427725 7.75925
427733 7.05673
427748 6.25190
427764 5.84700
427779 5.62453
427811 5.42429
427842 5.38474
427873 5.46769
427904 5.76402
427920 6.10019
427935 6.74074
427951 8.08107
427959 9.28682
427966 11.0663
427978 15.0583
427990 17.6948
428014 11.8109
428023 9.88677
428032 8.63260
428042 7.81008
428051 7.25893
428069 6.58894
428088 6.22060
428125 5.85661
428162 5.69613
428236 5.57851
428310 5.55908
428390 5.58026
428505 5.64730
428620 5.73994
428850 5.98054
429080 6.26713
429195 6.36917
429310 6.27537
429425 5.48169
429483 4.49662
429540 3.02652
429598 1.42367
429626 0.783649
429655 0.343529
429684 0.113556
429713 0.0688549
429741 0.162481
429770 0.345743
429885 1.34711
430000 2.20194
430115 2.81210
430230 3.24820
430453 3.80462
430676 4.15679
430899 4.40549
431122 4.60005
431345 4.77690
431457 4.87544
431568 5.00163
431680 5.19863
431735 5.35629
431791 5.59366
431847 5.98162
431903 6.67149
431958 8.01987
432014 10.8112
432062 14.8798
432086 16.7846
432110 17.5822
432150 15.8824
432206 11.8343
432243 9.97731
432280 8.75657
432318 7.94717
432355 7.39515
432429 6.72378
432503 6.35416
432577 6.13220
432652 5.99112
432800 5.83365
432955 5.75626
433111 5.72075
433421 5.70556
433732 5.72166
434042 5.74946
435285 5.87914
437769 6.06432
439011 6.11084
440254 6.12877
441496 6.12779
441806 6.13541
442117 6.17313
442272 6.23316
442350 6.29292
442428 6.39652
442505 6.59345
442544 6.76209
442583 7.01982
442622 7.43528
442660 8.14941
442699 9.46548
442738 11.9867
442774 15.7780
442810 18.3301
442882 12.4828
442917 10.2156
442953 8.90898
442988 8.13880
443024 7.66268
443094 7.15435
443165 6.94176
443236 6.90445
443307 7.05583
443342 7.24769
443377 7.58056
443413 8.15660
443448 9.14361
443489 10.9516
443530 12.3274
443571 11.2834
443612 9.45963
443647 8.36604
443683 7.69024
443718 7.26784
443754 6.99281
443825 6.66991
443896 6.49432
444037 6.31443
444179 6.22364
444463 6.13068
444747 6.08741
445030 6.08794
445172 6.11938
445314 6.19675
445456 6.37275
445597 6.79246
445668 7.21318
445739 7.93408
445810 9.22776
445881 11.5812
445956 15.4861
446030 18.0796
446179 12.2508
446239 10.2647
446298 9.00207
446328 8.60644
446358 8.41228
446388 8.58642
446403 8.94492
446418 9.61848
446460 12.3648
446503 9.31034
446522 8.71785
446531 9.22931
446541 10.7980
446555 15.8683
446563 18.2439
446570 19.0238
446585 17.0946
446599 14.5755
446610 13.2238
446621 12.2150
446642 10.8650
446663 10.0254
446684 9.46287
446726 8.76523
446769 8.38098
446811 8.20912
446853 8.30286
446875 8.54421
446896 9.07239
446917 10.2406
446927 11.3033
446938 12.8850
446954 16.4911
446970 19.2128
446986 17.1612
447002 13.5932
447018 11.1601
447035 9.77030
447051 8.94176
447067 8.42195
447100 7.82283
447132 7.49710
447197 7.14894
447262 6.95804
447392 6.73657
447521 6.59976
447651 6.50088
447781 6.42343
448041 6.30534
448560 6.14099
449079 6.01746
450118 5.80687
451156 5.59375
452195 5.33891
453233 4.97463
453752 4.69101
454272 4.22883
454531 3.84726
454791 3.24307
454921 2.79210
455050 2.18405
455180 1.38174
455310 0.492324
455353 0.270148
455395 0.150327
455438 0.187165
455480 0.426541
455523 0.882966
455565 1.52259
455650 3.02876
455735 4.32409
455820 5.17494
455990 5.90405
456180 6.05326
456370 5.99942
456751 5.78443
457131 5.57824
457511 5.39942
457892 5.24057
458272 5.09329
458653 4.94520
458843 4.85566
458938 4.79470
458985 4.79155
459009 4.98655
459021 5.62160
459027 6.71467
459030 7.89905
459033 9.88719
459036 13.6544
459040 16.1983
459047 11.0298
459052 8.43108
459057 7.15511
459067 6.06279
459086 5.39797
459126 5.07134
459204 4.90979
459361 4.80050
459675 4.67482
460303 4.46739
460931 4.27276
461244 4.19709
461323 4.19724
461401 4.23804
461441 4.30488
461480 4.46705
461499 4.63543
461519 4.93930
461539 5.53538
461558 6.78068
461574 8.52648
461590 9.86837
461606 8.89765
461622 7.16490
461637 6.03869
461652 5.38016
461683 4.74092
461713 4.46073
461744 4.31288
461805 4.16349
461866 4.08643
461988 3.99803
462110 3.93835
462598 3.75582
463574 3.42089
464551 3.07334
465039 2.88224
465283 2.76894
465405 2.71317
465466 2.78330
465481 2.89354
465496 3.17809
465512 4.08113
465519 5.27252
465527 7.83515
465534 11.6050
465537 13.3808
465540 14.0928
465553 8.88639
465559 6.93088
465565 5.73812
465577 4.48559
465589 3.89801
465601 3.57766
465626 3.24634
465650 3.08285
465698 2.92020
465746 2.83590
465843 2.73924
465939 2.67571
466132 2.57862
466326 2.49540
467098 2.19373
467871 1.90822
468257 1.78473
468353 1.76731
468450 1.77715
468498 1.81358
468546 1.91920
468571 2.04150
468595 2.28535
468619 2.84673
468631 3.41501
468643 4.36137
468670 7.32212
468684 6.33714
468697 4.57761
468709 3.49218
468722 2.85433
468746 2.22849
468770 1.95611
468795 1.81483
468844 1.67612
468893 1.60781
468990 1.53317
469088 1.48519
469283 1.41301
469478 1.35808
469674 1.32804
469771 1.33300
469869 1.36757
469967 1.46680
470016 1.56705
470064 1.73471
470113 2.02976
470162 2.58633
470186 3.05435
470211 3.74701
470235 4.79565
470260 6.38640
470295 9.81281
470330 12.4587
470365 10.5497
470400 7.12378
470427 5.29258
470453 4.08604
470480 3.29152
470506 2.75329
470559 2.10186
470612 1.73925
470664 1.51504
470717 1.36450
470823 1.17501
470928 1.05791
471034 0.975130
471245 0.858024
471668 0.703020
472090 0.599756
472491 0.550898
472893 0.598481
473093 0.706862
473294 0.949052
473494 1.49387
473595 1.99638
473695 2.75976
473848 4.50200
474000 5.83132
474153 4.89707
474305 3.24223
474412 2.39482
474519 1.81185
474733 1.13083
474947 0.777829
475160 0.574985
475374 0.448302
475588 0.363463
475802 0.300685
475909 0.275399
475962 0.284766
475989 0.383940
476002 0.723340
476009 1.49398
476012 2.60498
476016 5.48142
476020 11.0768
476024 5.84117
476028 2.70757
476032 1.58165
476040 0.817322
476056 0.456720
476087 0.312744
476150 0.256415
476213 0.332287
476229 0.447222
476245 0.739303
476260 1.63937
476268 2.81660
476276 5.26013
476283 8.97645
476287 10.7097
476290 11.4336
476297 9.41641
476304 6.37204
476313 3.92052
476322 2.66702
476332 1.98246
476341 1.57637
476359 1.13035
476377 0.902211
476414 0.680439
476451 0.576622
476524 0.480955
476597 0.438502
476744 0.404635
476890 0.396904
477184 0.412564
477477 0.450874
477770 0.506258
478063 0.583544
478210 0.641087
478356 0.742941
478429 0.846942
478503 1.07311
478539 1.31330
478576 1.78427
478594 2.20665
478613 2.87916
478631 4.00350
478649 5.92757
478670 9.31560
478690 11.9459
478710 10.0996
478731 6.76434
478744 5.19808
478757 4.10227
478783 2.81010
478809 2.13983
478835 1.75932
478888 1.37470
478940 1.20057
479044 1.06340
479149 1.02503
479358 1.03566
479567 1.08566
479984 1.22406
480402 1.38477
481238 1.73741
481656 1.91734
481865 1.99837
481969 2.03020
482021 2.06813
482047 2.23260
482061 2.74422
482067 3.70682
482070 4.85944
482074 7.05904
482077 10.5855
482080 12.9396
482086 7.93834
482091 5.40993
482095 4.19264
482104 3.19671
482122 2.61874
482158 2.36839
482229 2.29083
482372 2.31168
482658 2.42654
483230 2.68871
484111 3.10330
484552 3.31863
484772 3.44108
484882 3.51726
484992 3.62793
485049 3.72724
485106 3.93731
485135 4.19909
485149 4.47079
485163 5.01178
485170 5.44246
485177 5.00743
485184 0.562299
485188 0.187604
485192 0.650082
485199 1.56023
485206 2.08412
485220 2.60889
485249 3.01434
485277 3.18506
485334 3.34679
485448 3.49443
485522 3.56719
485595 3.67736
485632 3.79440
485669 4.06177
485687 4.34777
485706 4.89386
485724 6.05855
485733 7.12671
485742 8.73078
485756 12.3343
485763 14.0409
485770 14.7468
485798 9.68698
485814 7.43790
485830 6.22700
485846 5.54235
485863 5.12604
485895 4.67222
485927 4.44627
485992 4.24198
486057 4.16204
486186 4.11908
486316 4.12922
486574 4.19523
486833 4.28007
487351 4.46256
487868 4.65007
488386 4.85116
488645 4.96823
488904 5.11393
489163 5.32566
489292 5.48395
489421 5.71153
489551 6.06665
489680 6.67588
489810 7.83616
489874 8.81521
489939 10.2267
490045 13.5903
490150 16.2080
490256 14.4370
490361 11.2082
490420 9.86638
490478 8.87993
490536 8.17583
490566 7.95853
490580 8.02891
490587 8.37064
490591 8.88706
490595 10.0892
490600 12.8735
490605 10.3835
490610 8.81820
490614 8.19909
490623 7.72884
490642 7.41909
490678 7.14011
490750 6.79291
490823 6.55101
490896 6.37196
491041 6.13058
491186 5.98190
491476 5.82120
491767 5.74610
492057 5.71050
492347 5.70438
492492 5.72269
492637 5.78886
492710 5.87430
492783 6.06213
492819 6.24411
492855 6.55216
492892 7.10522
492928 8.12708
492964 9.80408
493000 11.0976
493036 10.2170
493072 8.62770
493113 7.45580
493154 6.82029
493194 6.46160
493235 6.24414
493316 6.00488
493397 5.88138
493559 5.75711
493721 5.69125
494046 5.60758
494370 5.53771
495269 5.30820
496169 4.96787
496618 4.74569
497068 4.49530
497293 4.37555
497405 4.32907
497518 4.30765
497630 4.34618
497742 4.54830
497799 4.80543
497855 5.31207
497911 6.36880
497967 8.67052
498014 12.0418
498060 14.6273
498107 12.9020
498153 9.81584
498186 8.20281
498219 7.09670
498286 5.81679
498352 5.17663
498418 4.85287
498485 4.73461
498551 4.81715
498618 5.18721
498684 6.04998
498752 7.62676
498820 8.82154
498956 6.24381
499029 5.04752
499102 4.32977
499174 3.87121
499247 3.55195
499393 3.11580
499538 2.80503
499829 2.32575
500120 1.92327
500740 1.18223
501360 0.594222
501670 0.376834
501980 0.223967
502135 0.174990
502290 0.146071
502445 0.138558
502600 0.153854
502813 0.214671
503025 0.325623
503238 0.492102
503450 0.721020
503875 1.40544
504300 2.48514
504725 4.03074
505150 5.38126
505363 5.22618
505575 4.23986
506000 1.63517
506183 0.903312
506366 0.445217
506457 0.296947
506549 0.190728
506640 0.118906
506731 0.0749940
506914 0.0504839
507097 0.0859229
507280 0.167722
507371 0.253230
507417 0.412923
507440 0.804836
507451 1.59556
507457 2.69278
507463 5.38510
507466 8.45630
507470 10.6142
507474 8.56619
507477 5.48463
507483 2.78440
507489 1.67066
507500 0.864288
507523 0.484348
507568 0.369441
507658 0.382059
507838 0.487560
508200 0.732507
508922 1.24864
509283 1.53408
509463 1.70317
509644 1.91506
509825 2.22073
510005 2.75478
510095 3.21576
510186 3.94513
510276 5.17547
510366 7.29667
510550 12.7736
510642 10.5718
510688 8.25149
510711 6.73601
510723 5.77442
510734 4.57236
510744 3.31953
510754 2.54550
510761 3.92030
510767 8.08384
510774 11.9207
510780 13.0047
510793 11.9436
510806 10.6482
510820 9.62133
510835 8.89388
510863 7.93557
510892 7.37254
510920 7.08839
510955 7.12240
510990 7.72537
511060 10.0683
511095 9.06190
511130 7.40253
511157 6.51206
511184 5.96749
511238 5.60869
511264 5.75390
511291 6.18526
511318 7.06099
511345 8.65907
511378 11.8094
511410 14.2456
511443 12.5053
511475 9.41793
511500 7.69318
511525 6.54457
511550 5.77675
511575 5.24882
511625 4.58866
511676 4.20955
511726 3.97814
511776 3.86574
511801 3.88002
511826 4.00732
511851 4.43036
511864 4.90277
511876 5.71544
511893 7.50218
511902 8.39747
511910 8.83611
511944 6.70304
511958 5.88549
511972 5.33618
511999 4.69666
512027 4.35758
512054 4.15387
512110 3.92453
512165 3.79968
512275 3.66894
512386 3.60479
512607 3.55371
512827 3.54793
513269 3.58941
513711 3.65789
514594 3.80406
515036 3.85661
515257 3.87137
515367 3.94091
515395 4.02791
515423 4.25754
515436 4.51659
515450 5.01960
515464 6.09163
515471 7.06374
515478 8.52439
515489 11.9889
515495 13.6332
515500 14.3076
515522 9.63655
515535 7.51866
515549 6.37515
515562 5.72361
515575 5.32307
515601 4.87780
515628 4.64823
515680 4.42598
515733 4.32479
515839 4.23914
515944 4.20842
516155 4.19700
516366 4.20810
517209 4.29342
517631 4.33525
518053 4.36962
518475 4.40093
518580 4.42289
518686 4.49310
518739 4.59343
518791 4.84510
518818 5.12111
518844 5.64275
518870 6.72977
518884 7.69569
518897 9.11201
518918 12.5332
518929 14.1507
518940 14.8234
518983 10.1208
518997 8.80273
519011 7.86845
519039 6.71475
519067 6.08234
519095 5.70486
519151 5.29368
519206 5.08595
519318 4.88558
519374 4.82440
519402 4.78536
519416 4.74202
519423 4.68406
519426 4.62776
519429 7.13187
519430 11.2511
519431 8.69405
519433 5.48288
519435 5.13070
519439 4.96026
519448 4.87531
519465 4.82911
519500 4.79672
519570 4.76637
519709 4.73608
519987 4.71410
520544 4.71117
521100 4.70552
521378 4.69831
521448 4.71403
521518 4.78790
521552 4.90130
521587 5.18548
521605 5.48834
521622 6.04085
521639 7.11654
521657 9.25773
521673 12.7138
521682 14.3465
521690 15.0185
521720 10.9207
521723 10.4251
521734 9.20449
521744 8.31794
521764 7.18202
521784 6.53460
521804 6.13751
521844 5.69176
521884 5.46008
521964 5.23295
522045 5.12675
522205 5.03130
522366 4.99119
522687 4.96200
523008 4.95616
523650 4.96555
523971 4.98327
524131 5.03076
524212 5.16456
524252 5.46674
524272 5.95609
524282 6.48809
524292 7.46734
524310 10.0708
524319 9.20553
524328 7.56257
524338 6.40203
524348 5.80567
524368 5.29954
524408 5.02697
524447 5.03076
524467 5.28400
524477 5.74393
524487 7.05498
524500 10.0531
524513 7.96437
524525 6.48340
524538 5.88874
524562 5.44608
524612 5.20191
524711 5.08832
524908 5.04168
525303 5.03086
525501 5.03710
525698 5.06155
525797 5.09769
525896 5.19213
525945 5.30068
525994 5.51906
526019 5.71368
526044 6.01643
526068 6.50135
526093 7.27745
526127 8.91527
526160 10.1852
526227 7.99721
526260 7.02758
526294 6.45346
526327 6.10703
526361 5.88749
526427 5.64139
526494 5.52022
526628 5.43668
526695 5.41968
526728 5.32038
526745 5.10230
526761 4.36811
526773 2.81165
526786 0.549646
526792 0.347857
526798 0.925603
526810 2.44571
526822 3.39745
526834 3.92568
526859 4.43539
526888 4.69294
526917 4.82043
526974 4.94124
527089 5.02625
527320 5.07095
527781 5.09022
528703 5.10291
529164 5.11287
529625 5.14431
529855 5.19172
529971 5.23912
530086 5.32195
530201 5.48045
530259 5.61652
530316 5.82417
530374 6.15701
530431 6.72263
530489 7.74553
530547 9.66298
530603 12.7912
530660 15.2485
530717 13.6630
530773 10.7246
530825 8.86907
530877 7.73914
530928 7.04110
530980 6.59035
531083 6.07024
531186 5.79440
531289 5.63029
531392 5.52412
531598 5.39803
531804 5.32717
532010 5.28207
532422 5.22700
532834 5.19284
533246 5.17107
533452 5.17043
533658 5.20067
533761 5.25799
533864 5.42077
533915 5.61626
533967 6.02623
533992 6.40780
534018 7.02360
534044 8.06692
534070 9.83814
534100 13.0637
534130 15.2294
534191 10.5278
534225 8.47743
534259 7.36087
534293 6.72444
534327 6.33550
534361 6.08039
534396 5.90492
534464 5.68366
534532 5.55335
534601 5.46925
534737 5.36839
534874 5.31032
535010 5.27231
535284 5.22401
535830 5.16832
536377 5.12869
537470 5.05782
537743 5.04884
538016 5.07432
538153 5.13680
538221 5.20390
538290 5.32252
538358 5.54428
538426 5.99449
538461 6.39571
538495 7.01378
538529 7.99419
538563 9.53433
538612 12.8256
538636 14.3755
538660 15.0261
538757 10.4727
538791 9.10110
538825 8.15672
538893 7.04418
538961 6.46942
539029 6.15738
539097 6.00817
539165 6.02105
539199 6.12377
539233 6.34891
539267 6.80348
539301 7.69481
539336 9.21930
539370 10.4082
539404 9.61308
539439 8.16821
539468 7.28605
539498 6.72453
539527 6.36154
539556 6.11692
539615 5.81777
539674 5.64552
539792 5.45529
539909 5.34940
540145 5.22395
540380 5.13757
540615 5.05485
540851 4.94035
540968 4.84140
541086 4.65314
541145 4.47092
541203 4.13137
541233 3.83436
541262 3.36625
541292 2.59618
541321 1.38998
541341 0.514003
541361 0.230948
541380 1.00409
541400 2.26528
541420 3.31869
541440 4.00600
541459 4.43033
541479 4.68956
541508 4.90880
541538 5.02404
541596 5.12209
541713 5.15700
541948 5.12616
542416 5.05411
543353 4.94198
545227 4.72224
546164 4.58903
547101 4.42869
547570 4.33590
548038 4.23600
548273 4.18761
548507 4.15364
548624 4.15757
548741 4.21240
548800 4.29364
548858 4.47404
548888 4.64552
548917 4.92670
548946 5.40801
548975 6.24412
549008 7.73017
549040 8.90570
549072 8.13355
549105 6.68813
549142 5.60867
549179 5.03481
549215 4.71989
549252 4.53732
549326 4.36703
549400 4.34162
549474 4.44678
549547 4.77912
549584 5.12024
549621 5.69468
549658 6.69044
549695 8.41631
549738 11.5321
549780 13.6249
549865 9.01589
549901 7.41695
549936 6.39222
549972 5.72637
550007 5.27726
550078 4.72582
550149 4.40929
550220 4.20435
550291 4.05971
550433 3.86395
550575 3.73747
550716 3.67572
550787 3.69531
550858 3.80803
550894 3.94364
550929 4.18966
550965 4.64575
551000 5.48464
551040 7.05519
551080 8.26660
551160 6.18145
551206 5.13801
551251 4.54462
551297 4.18888
551342 3.95774
551434 3.67536
551525 3.50421
551707 3.28983
551890 3.15207
552072 3.07406
552164 3.07069
552255 3.11387
552346 3.24855
552437 3.58737
552483 3.91899
552529 4.46007
552574 5.36803
552620 6.89993
552675 9.82888
552730 12.1430
552785 10.5830
552840 7.68639
552874 6.35737
552907 5.39401
552975 4.19280
553042 3.51929
553109 3.10092
553243 2.60578
553378 2.30524
553646 1.90291
553915 1.59452
554453 1.07257
554990 0.654349
555268 0.517773
555407 0.493477
555547 0.524794
555686 0.660837
555755 0.800523
555825 1.02256
555894 1.37764
555964 1.95259
556034 2.90173
556103 4.45190
556197 7.63876
556243 9.14722
556290 9.78322
556384 8.02379
556477 5.37714
556549 3.95660
556620 3.01409
556692 2.38786
556764 1.96313
556907 1.45890
557050 1.20355
557337 1.02887
557624 1.06288
558197 1.39649
558770 1.89812
559040 2.17610
559254 2.42625
559467 2.73717
559574 2.95025
559681 3.27521
559735 3.54679
559788 4.01348
559815 4.40752
559841 5.02391
559868 6.06032
559895 7.88511
559922 10.9243
559950 13.3732
559978 12.0137
560005 9.34948
560029 7.78900
560052 6.86728
560076 6.34661
560100 6.06439
560194 5.60258
560241 4.41768
560288 2.01687
560312 1.08551
560336 0.603336
560359 0.464056
560383 0.514320
560477 1.13277
560571 1.62330
560666 1.95151
560760 2.18439
560880 2.40243
561000 2.56698
561120 2.69788
561181 2.77384
561211 2.90210
561226 3.18880
561233 3.63284
561241 4.84720
561250 7.51964
561255 6.82487
561259 5.51006
561265 4.44661
561271 3.90301
561283 3.42729
561306 3.14773
561353 3.04531
561446 3.05837
561632 3.16243
562005 3.36508
562750 3.67904
563090 3.79200
563591 3.93425
564091 4.06204
564341 4.13566
564591 4.25600
564716 4.37778
564779 4.47999
564842 4.63773
564904 4.90094
564967 5.37949
565029 6.34667
565061 7.19752
565092 8.45579
565141 11.4198
565190 13.7694
565239 12.3285
565288 9.59973
565342 7.60445
565396 6.50008
565450 5.86946
565504 5.48530
565557 5.23677
565611 5.06779
565719 4.86078
565826 4.74497
565934 4.67486
566149 4.60059
566364 4.56707
566580 4.55150
567010 4.54213
567871 4.54178
568086 4.54398
568301 4.56163
568409 4.59675
568516 4.70615
568570 4.84746
568624 5.16309
568651 5.47168
568678 5.99464
568705 6.92684
568731 8.61744
568761 11.6624
568790 14.0611
568849 10.0927
568867 8.88795
568885 8.01323
568920 6.91556
568956 6.31126
568992 5.95629
569064 5.60521
569136 5.49795
569208 5.56354
569279 5.87295
569315 6.20262
569351 6.76267
569387 7.74267
569423 9.46624
569461 12.3687
569500 14.3511
569539 12.5473
569577 9.76250
569610 8.14549
569643 7.14086
569676 6.50876
569709 6.09563
569775 5.61051
569841 5.34903
569907 5.19150
569973 5.08847
570105 4.96442
570236 4.89371
570368 4.84858
570632 4.79618
570895 4.77541
571159 4.80499
571291 4.87725
571357 4.95247
571423 5.08206
571488 5.31713
571554 5.77600
571620 6.75762
571653 7.65211
571686 8.99519
571738 12.1158
571764 13.5853
571790 14.2051
571894 9.92869
571927 8.72406
571961 7.86189
572028 6.79855
572094 6.21313
572161 5.86130
572228 5.63271
572295 5.47557
572428 5.27687
572562 5.15868
572695 5.08110
572962 4.98567
573229 4.92844
573496 4.88911
574030 4.83484
574564 4.79491
575098 4.76646
575365 4.76713
575632 4.81513
575766 4.90068
575832 4.98524
575899 5.12679
575966 5.37777
576033 5.85558
576099 6.85514
576133 7.74950
576166 9.07700
576218 12.0860
576270 14.1121
576374 9.70370
576406 8.47861
576439 7.59542
576504 6.49325
576569 5.86812
576634 5.46646
576764 4.91664
576829 4.75227
576861 5.04047
576878 5.78748
576886 6.61486
576894 8.01488
576907 11.6824
576914 13.3711
576920 14.0385
576946 10.4428
576963 8.67788
576979 7.67579
576996 7.06906
577013 6.67244
577046 6.19333
577079 5.91654
577145 5.60820
577212 5.43757
577344 5.24756
577477 5.13970
577742 5.01416
578008 4.93658
578539 4.81867
578804 4.74231
578937 4.70092
579003 4.80339
579020 4.93802
579036 5.25660
579053 6.10680
579061 7.03771
579069 8.63727
579080 11.8122
579085 13.3189
579090 13.9353
579111 9.92015
579124 7.91121
579138 6.88454
579152 6.31043
579166 5.96388
579193 5.57680
579221 5.37403
579275 5.16944
579330 5.06798
579440 4.96612
579550 4.91285
579770 4.85250
579989 4.81471
580209 4.78784
580429 4.77876
580538 4.79762
580648 4.88063
580703 4.99787
580758 5.27236
580786 5.55159
580813 6.04078
580840 6.96256
580868 8.75517
580894 11.6542
580920 13.9631
580946 12.5906
580972 9.97319
580989 8.71706
581006 7.82217
581039 6.72582
581072 6.13053
581105 5.77719
581172 5.39596
581238 5.20333
581371 5.01612
581504 4.92581
581770 4.83478
582035 4.78466
582567 4.72045
583098 4.67150
584161 4.58197
584693 4.54283
584958 4.56002
585025 4.59650
585091 4.69992
585124 4.82704
585158 5.10936
585174 5.39307
585191 5.90000
585207 6.89440
585216 7.74707
585224 8.98430
585237 11.7540
585250 13.6626
585263 11.9084
585276 9.16966
585288 7.45071
585301 6.45289
585326 5.49300
585350 5.07911
585375 4.86818
585425 4.66654
585474 4.57254
585573 4.48125
585623 4.49761
585647 4.70454
585660 5.27643
585666 6.18362
585672 8.55967
585676 11.4902
585680 13.4613
585688 9.34099
585693 7.40059
585698 6.39935
585708 5.49718
585728 4.93682
585767 4.66531
585846 4.53919
586004 4.46776
586321 4.40645
586637 4.36573
586953 4.33914
587269 4.34427
587427 4.37568
587586 4.45032
587744 4.61440
587902 4.98259
587981 5.32809
588060 5.87913
588139 6.78009
588218 8.24157
588324 11.2148
588430 13.2026
588642 8.95584
588726 7.52197
588810 6.56511
588894 5.91792
588978 5.46322
589062 5.13084
589146 4.88343
589230 4.73521
589272 4.82044
589293 5.13090
589304 5.56923
589314 6.53954
589330 8.97613
589338 8.27766
589346 6.91800
589361 5.51204
589376 4.98058
589407 4.59475
589467 4.34316
589588 4.11274
589831 3.78860
590073 3.49082
590315 3.17661
590800 2.41030
591284 1.39028
591691 0.494211
591792 0.323491
591894 0.197139
591995 0.125825
592097 0.117431
592199 0.175352
592300 0.297329
592504 0.699960
592910 1.78544
593317 2.73732
593723 3.38748
594130 3.80434
594536 4.08450
594745 4.20704
594954 4.34831
595058 4.45317
595163 4.63950
595215 4.81867
595267 5.16258
595293 5.47958
595319 6.01643
595346 7.02365
595359 7.87159
595372 9.08143
595410 13.3873
595420 12.8855
595429 11.5484
595448 8.60345
595461 7.26692
595474 6.38068
595499 5.41090
595524 4.95485
595549 4.72119
595599 4.51617
595650 4.44447
595750 4.41915
595851 4.44334
596052 4.54277
596253 4.70316
596454 4.97129
596656 5.46574
596857 6.47785
596957 7.37178
597058 8.68966
597214 11.6125
597370 13.5726
597682 9.17441
597840 7.30847
597999 6.18986
598157 5.48871
598316 5.01677
598474 4.69323
598632 4.54453
598712 4.60731
598791 4.88478
598870 5.61652
598949 7.26429
599050 11.1188
599100 12.8837
599150 13.5491
599251 12.1872
599351 10.2494
599427 9.16050
599503 8.37105
599656 7.35634
599808 6.75504
599960 6.36428
600265 5.88983
600569 5.61255
601178 5.29941
601787 5.12594
602397 5.01950
603006 4.96218
603310 4.95767
603615 4.99019
603767 5.04364
603919 5.17789
603995 5.33030
604072 5.64775
604110 5.95189
604148 6.47226
604186 7.45127
604205 8.26404
604224 9.42630
604280 13.9404
604294 13.6615
604308 12.3936
604336 9.14048
604369 6.65361
604402 5.45478
604419 5.17894
604435 5.17852
604452 5.73043
604468 7.56372
604484 11.2890
604492 13.1257
604500 13.9973
604532 11.0414
604547 9.68773
604561 8.75288
604591 7.63745
604620 7.02773
604649 6.65757
604708 6.24971
604767 6.04875
604825 5.94496
604884 5.89627
605001 5.89509
605236 6.12297
605470 6.59869
606230 8.87242
606990 6.62799
607307 5.62360
607624 4.72640
607940 3.67134
608257 2.14290
608423 1.27117
608506 0.976396
608589 0.879543
608671 1.02159
608754 1.37539
608920 2.37304
609252 3.88632
609584 4.50029
609807 4.67551
610031 4.76429
610477 4.82476
610924 4.82250
611370 4.79877
613156 4.66664
614942 4.53608
615835 4.46851
616281 4.43274
616505 4.41989
616616 4.44724
616672 4.58854
616700 4.99320
616714 5.75733
616721 6.68332
616728 8.53255
616734 11.1701
616740 13.0260
616746 11.3920
616752 8.89659
616759 7.01376
616767 6.05758
616781 5.22746
616810 4.73800
616868 4.52238
616983 4.43651
617213 4.39553
617444 4.38210
617675 4.38894
617905 4.43885
618021 4.50011
618136 4.61237
618251 4.82347
618366 5.24125
618482 6.12553
618597 8.06662
618699 11.0548
618749 12.4622
618800 13.0522
619003 9.25013
619073 8.11312
619142 7.30737
619281 6.32112
619420 5.77730
619560 5.44668
619699 5.22884
619838 5.07592
620116 4.87639
620394 4.75232
620672 4.67376
620812 4.65648
620951 4.68361
621020 4.74954
621090 4.93175
621125 5.13727
621159 5.53414
621194 6.38095
621212 7.15812
621229 8.34168
621254 11.0104
621280 13.1791
621306 11.9153
621331 9.43006
621353 7.94216
621374 6.99316
621395 6.38213
621417 5.97464
621459 5.48725
621502 5.21986
621587 4.94700
621672 4.81332
621843 4.68306
622014 4.61799
622355 4.55121
622696 4.52267
623037 4.52885
623208 4.55466
623378 4.61216
623549 4.73807
623634 4.85497
623719 5.04470
623805 5.37432
623890 6.00386
623933 6.54613
623975 7.36843
624018 8.65778
624060 10.6920
624115 14.5846
624170 17.2914
624225 14.8134
624280 10.9289
624327 8.67961
624374 7.30933
624421 6.46204
624468 5.91594
624562 5.28981
624657 4.96162
624751 4.76839
624845 4.64461
625033 4.49829
625222 4.41544
625410 4.36156
625787 4.29251
626164 4.24608
626541 4.20933
627295 4.14775
628802 4.03589
629556 3.98406
629745 3.98047
629933 4.00318
630027 4.04713
630122 4.16086
630169 4.28152
630216 4.49875
630263 4.91438
630310 5.73823
630355 7.09572
630400 8.18900
630445 7.58435
630490 6.40046
630522 5.77784
630553 5.34455
630617 4.82924
630680 4.55671
630743 4.39643
630870 4.22276
630996 4.13247
631250 4.03924
631503 3.98963
632009 3.93671
632515 3.92091
633021 3.95919
633528 4.13497
633781 4.35319
634034 4.77612
634287 5.63180
634540 7.38931
634785 10.2758
634908 11.6354
635030 12.2043
635520 8.43172
635692 7.27447
635864 6.46079
635950 6.15671
636036 5.92706
636079 5.86025
636122 5.87226
636165 6.11477
636187 6.48033
636208 7.24086
636229 8.54357
636250 9.58433
636271 8.95222
636292 7.74964
636311 6.96811
636329 6.46691
636367 5.90777
636404 5.61365
636442 5.42902
636517 5.19412
636592 5.03645
636741 4.81230
636891 4.64534
637191 4.39303
637490 4.19763
638090 3.86095
638240 3.76565
638389 3.64455
638539 3.44895
638614 3.30787
638652 3.40666
638670 3.92333
638680 4.69080
638689 6.29765
638700 9.54601
638705 11.0600
638710 11.6554
638731 8.43012
638741 7.18611
638751 6.38031
638770 5.46105
638790 4.97586
638809 4.68619
638848 4.35772
638887 4.17604
638965 3.97435
639042 3.85678
639198 3.70616
639353 3.59587
639976 3.21211
640287 2.99137
640598 2.73003
640754 2.59023
640909 2.47673
640987 2.46244
641065 2.53072
641143 2.79946
641220 3.55077
641285 4.78396
641350 5.74048
641415 5.01423
641480 3.72229
641539 2.82451
641599 2.19875
641718 1.38986
641801 1.01343
641884 0.745144
641966 0.588854
642049 0.563893
642132 0.686375
642215 0.953882
642380 1.79036
642711 3.36972
642877 3.79101
643042 4.04963
643086 4.14349
643129 4.34109
643151 4.55359
643173 4.96570
643195 5.85458
643206 6.67048
643216 7.89247
643233 10.6933
643250 12.5656
643284 8.74118
643298 7.31520
643312 6.37169
643341 5.22927
643370 4.47090
643384 4.31108
643391 4.69067
643398 6.53082
643404 10.1701
643410 12.5309
643422 9.70782
643429 8.33307
643436 7.50233
643450 6.58905
643478 5.82190
643506 5.48054
643534 5.28452
643591 5.06220
643647 4.93715
643760 4.79533
643872 4.71162
644098 4.60405
644323 4.52720
644774 4.40946
645224 4.32166
645675 4.26843
645900 4.26487
646126 4.29264
646351 4.38474
646576 4.63085
646689 4.88538
646802 5.32564
646914 6.12344
647027 7.59989
647144 10.1433
647260 12.2292
647377 11.0163
647493 8.60089
647616 6.86121
647739 5.86749
647862 5.28625
647985 4.93361
648108 4.73431
648230 4.70738
648292 4.81920
648353 5.12959
648415 5.91430
648446 6.68271
648476 7.88915
648523 10.6733
648547 11.9914
648570 12.5435
648664 8.84118
648697 7.71368
648729 6.92055
648794 5.95160
648860 5.41566
648925 5.08644
648990 4.86616
649055 4.70864
649186 4.49685
649316 4.35832
649446 4.25805
649707 4.11670
650229 3.93559
650750 3.80701
651272 3.70326
651533 3.66218
651794 3.63705
652055 3.65150
652185 3.69304
652315 3.78333
652446 3.96857
652576 4.35264
652707 5.18389
652837 7.01747
652954 9.87721
653012 11.2196
653070 11.7826
653303 8.15760
653437 6.47819
653572 5.50303
653706 4.89509
653841 4.47076
654109 3.80395
654244 3.45738
654277 3.40787
654311 3.47460
654345 3.95467
654361 4.62360
654378 5.89027
654404 9.36418
654417 10.9873
654430 11.6131
654456 10.3999
654482 8.68072
654501 7.73731
654521 7.05325
654560 6.17464
654598 5.65316
654637 5.31292
654715 4.89638
654792 4.64820
654870 4.47972
654948 4.35554
655103 4.17945
655258 4.05528
655413 3.95932
655723 3.81271
656033 3.69771
656344 3.59746
656654 3.50037
656809 3.45120
656887 3.45377
656926 3.56578
656945 3.84769
656955 4.23814
656964 5.10750
656980 7.44601
656988 6.88275
656996 5.76595
657011 4.52276
657027 4.05137
657058 3.71896
657121 3.53600
657245 3.43011
657495 3.33322
657994 3.18156
658493 3.02070
658992 2.82685
659492 2.56870
659991 2.18163
660240 1.89710
660490 1.50829
660740 0.971360
660989 0.331041
661099 0.138719
661154 0.118193
661210 0.177774
661265 0.338305
661320 0.609555
661430 1.43479
661651 3.17903
661871 3.96831
662033 4.12542
662195 4.13928
662519 4.07283
662680 4.08948
662842 4.24839
662923 4.46027
663004 4.87737
663085 5.73511
663166 7.55010
663233 10.0875
663300 11.8200
663367 10.2796
663434 7.84693
663515 5.96685
663597 4.97582
663678 4.41705
663759 4.07221
663922 3.67822
664084 3.47523
664247 3.40360
664409 3.52717
664572 4.12069
664653 4.81522
664734 5.99123
664872 9.24014
664941 10.7425
665010 11.3264
665148 10.0357
665286 8.17364
665409 6.98907
665531 6.19784
665592 5.92087
665653 5.74060
665715 5.78502
665745 6.07268
665776 6.91165
665798 8.12391
665820 9.10542
665842 8.49195
665864 7.31649
665896 6.23797
665927 5.68495
665958 5.36819
665989 5.16221
666052 4.89738
666114 4.72153
666240 4.47701
666365 4.29912
666615 4.03540
666865 3.83678
667365 3.53299
667865 3.28683
668865 2.83098
669365 2.58093
669616 2.44543
669741 2.40194
669803 2.49613
669834 2.84955
669850 3.51565
669858 4.29766
669866 5.81218
669880 10.2022
669887 9.04111
669895 6.71790
669902 5.08592
669909 4.16091
669924 3.27055
669953 2.68712
670012 2.38735
670130 2.20667
670364 1.99942
670599 1.80122
670834 1.58714
671304 1.09568
671774 0.575498
672031 0.385355
672159 0.362302
672287 0.414648
672415 0.561860
672544 0.814656
672800 1.59998
673313 3.31400
673826 4.05697
674074 4.12769
674321 4.08937
674569 4.01464
674630 4.04430
674692 4.19540
674723 4.39092
674754 4.77020
674785 5.51953
674816 6.98083
674853 9.95702
674872 11.3558
674890 11.9282
674964 8.73967
674993 7.67091
675022 6.92914
675051 6.40845
675080 6.03199
675137 5.53472
675195 5.22621
675311 4.86373
675426 4.65357
675542 4.51082
675657 4.40364
675888 4.24452
676120 4.12513
676351 4.03257
676582 3.99592
676640 4.02515
676697 4.12662
676726 4.25402
676755 4.52731
676784 5.22515
676798 6.00457
676813 7.46038
676840 11.7200
676847 11.5166
676854 10.5329
676867 8.10949
676880 6.56938
676892 5.66143
676917 4.76794
676942 4.38012
676967 4.18024
677017 3.98562
677066 3.89225
677166 3.79658
677265 3.74031
677663 3.59598
678060 3.48152
678458 3.37700
678856 3.27940
679253 3.19057
679651 3.12942
679850 3.16950
679899 3.22500
679949 3.36006
679974 3.50817
679999 3.80284
680024 4.52112
680036 5.31060
680048 6.79434
680070 10.8093
680075 10.6071
680081 9.57403
680092 6.97934
680100 5.63275
680107 4.78108
680123 3.88494
680154 3.27120
680186 3.08152
680217 3.00256
680342 2.91546
680467 2.91415
680529 2.99010
680561 3.21640
680576 3.70376
680584 4.43917
680592 6.51562
680600 10.5516
680604 9.37696
680608 6.88438
680617 4.27121
680625 3.48458
680642 3.04122
680676 2.87187
680743 2.81787
680878 2.79390
681148 2.79202
681282 2.83101
681417 2.95567
681485 3.10393
681552 3.40701
681586 3.68531
681620 4.13865
681653 4.92502
681687 6.35265
681750 10.4190
681766 10.2155
681782 9.17727
681813 6.57833
681839 5.09937
681865 4.19708
681890 3.64741
681916 3.30108
681967 2.91393
682018 2.71828
682121 2.53652
682224 2.45627
682429 2.39026
682634 2.38550
682840 2.45370
683045 2.68179
683148 2.92994
683250 3.36433
683353 4.14752
683455 5.56851
683670 9.93568
683775 8.71995
683801 7.95297
683827 6.97580
683853 5.48080
683867 4.15540
683880 2.24728
683885 2.55993
683889 4.52951
683892 7.29308
683896 9.16312
683900 9.82881
683910 9.40995
683920 8.63767
683939 7.64703
683957 6.98974
683994 6.10845
684031 5.49863
684068 5.03531
684142 4.36594
684216 3.91035
684364 3.35650
684512 3.07397
684807 2.99699
685103 3.61008
685540 5.49966
685656 5.30081
685714 4.95207
685743 4.61951
685758 4.29864
685772 3.52123
685786 1.58730
685793 4.42595
685800 5.31022
685828 4.99794
685865 4.62767
685903 4.35300
685977 3.89814
686154 3.07737
686330 2.50534
686684 1.78260
687037 1.32811
687213 1.14897
687390 0.997820
687511 0.982803
687541 1.05101
687571 1.24601
687601 1.84764
687616 2.59789
687631 4.07705
687646 6.54686
687660 8.58384
687675 7.53113
687689 5.37060
687703 3.93281
687716 3.04380
687743 2.10834
687770 1.66392
687797 1.41497
687850 1.14862
687904 1.00542
688012 0.842209
688119 0.740603
688334 0.603070
688549 0.508648
688765 0.446947
688980 0.434679
689087 0.475862
689195 0.620024
689249 0.794475
689302 1.13962
689329 1.43705
689356 1.88066
689383 2.55165
689410 3.55640
689455 6.15905
689500 8.27943
689545 7.28627
689590 5.25197
689634 3.84400
689678 2.97910
689722 2.44004
689765 2.09209
689853 1.69533
689940 1.49795
690028 1.39717
690115 1.35006
690290 1.34436
690640 1.50287
690990 1.76516
691890 2.57221
692790 3.27408
694590 3.99803
695393 4.09793
696196 4.11246
696597 4.09305
696998 4.05462
697400 3.99528
697600 3.99901
697651 4.04567
697701 4.18807
697726 4.35716
697751 4.69289
697776 5.42172
697789 6.08986
697801 7.11076
697821 9.56449
697840 11.5953
697860 10.5772
697879 8.47031
697903 6.73366
697927 5.80986
697951 5.29062
697975 4.97400
698023 4.62263
698071 4.43914
698167 4.25858
698263 4.18297
698359 4.17936
698455 4.30326
698503 4.48013
698551 4.83999
698599 5.59654
698647 7.20523
698694 9.90838
698717 11.1876
698740 11.7293
698833 8.47054
698869 7.36899
698906 6.62014
698942 6.10622
698979 5.74352
699052 5.27665
699125 4.99753
699198 4.81414
699271 4.68534
699416 4.51562
699562 4.40733
699708 4.33045
700000 4.22392
700000 3.52516
704430 3.76830
704910 4.66081
705320 3.31816
707770 3.41639
708500 3.57490
708910 4.69969
709410 3.41364
710880 3.04063
714850 2.48384
715430 2.54915
715930 2.13921
716680 2.36650
716850 2.46400
717180 4.68572
717430 5.64026
717770 2.70280
718100 1.82738
718850 1.24096
718940 1.25006
719020 1.00990
719520 0.603817
719690 0.833233
720280 3.53930
720610 3.55768
721450 2.47528
722210 2.22200
722630 3.06027
723060 1.96489
723730 1.81406
724070 2.58730
724490 4.38279
725260 2.43989
725850 1.96775
726270 2.61063
726530 4.22050
726780 6.61016
727380 2.12941
727720 1.58669
727810 1.87038
727980 1.60299
728230 1.72541
728660 1.26031
728750 1.34708
728920 1.13971
729600 1.40532
730110 1.72433
730460 2.36467
730890 4.14503
731310 6.65992
731660 5.12264
732000 2.70121
732170 1.84901
732430 1.29693
732860 0.840542
733040 0.763824
733120 0.644622
733210 0.843914
733290 0.702911
733380 0.801013
733470 0.648387
733550 0.728219
733810 0.611999
733900 0.717502
734240 0.535239
734420 0.651503
734590 0.539022
734680 0.673143
735020 0.615252
735110 0.702032
735190 0.629430
735370 0.696711
735630 0.663483
735710 0.815352
736060 0.778392
736840 0.989735
736930 1.12806
737020 0.984762
737190 1.22392
737540 1.16655
737620 1.30154
737710 1.16925
737970 1.40404
738060 1.28518
738580 1.66297
739110 3.07178
739800 2.58826
740240 3.41647
740770 8.01583
741030 5.95538
741290 3.56425
741820 4.62946
742170 3.37165
743660 3.59388
744370 4.39052
744810 6.65269
745340 4.17292
747910 3.32123
748440 2.35462
748800 2.87383
749420 6.29760
750040 4.69598
751560 5.34160
753000 7.61380
754250 11.0442
755340 7.74923
755880 6.81530
756600 5.04885
760230 3.54130
760680 5.08107
761050 7.53009
761870 2.46996
762230 1.67043
762690 2.56318
763510 4.06690
764340 5.80717
764890 4.46671
766820 4.37720
767380 4.61164
768210 3.97168
769130 4.68798
769600 7.79981
769870 9.73501
770430 5.44443
771270 3.92896
773230 3.77898
773690 3.96624
774530 3.30753
775280 3.79177
775560 5.82791
775940 8.69710
776500 4.52068
778390 3.37953
780560 3.11858
781790 3.59468
782270 5.53375
782650 8.64641
783220 4.11685
783790 3.15307
784270 3.34813
784740 2.62358
787420 2.09489
787710 2.84088
788000 4.34865
788580 2.11797
789440 1.49179
789830 1.53883
790310 1.21174
790500 1.21224
790890 2.10643
791370 4.45640
792050 2.05398
792530 1.19072
793310 0.996217
793890 1.41599
794090 1.57070
794380 2.32264
794470 2.18739
795160 3.96471
795550 5.31129
796230 4.37517
800000 3.36908
801720 2.91007
802310 3.05172
802710 2.68952
804290 2.45004
805280 2.83161
805780 2.24629
806070 2.19242
806770 2.27538
807070 3.37669
807370 4.45818
807870 2.36281
808670 2.00120
809860 1.74641
810770 1.44146
811670 1.34284
812170 1.82525
812670 1.58482
812980 1.99125
813680 1.23473
814080 1.08665
814190 1.19572
814390 1.02555
814990 0.752164
815300 0.797922
815500 1.35715
815900 2.52276
816610 1.39577
817420 1.00106
817930 1.11986
818240 2.02731
818540 2.78933
819150 1.38321
819460 1.46633
819970 3.35188
820370 1.65139
820580 1.34534
820990 2.21022
821190 1.93363
821400 1.09143
821500 0.841161
821910 0.602427
822110 0.577080
822730 1.16575
823140 0.558417
823440 0.302525
823650 0.447603
824060 0.385088
824160 0.322290
824270 0.387512
824470 0.266931
824570 0.269504
824680 0.481221
824880 0.675376
825090 1.31283
825190 1.84163
825500 2.01607
825810 1.45334
826330 1.45205
827460 3.13428
828500 3.53960
829010 5.22516
829640 2.28783
830160 1.50595
830570 1.72463
830990 1.71846
831200 1.12574
831510 0.811584
831820 0.759053
832340 0.764009
832450 0.668463
832650 0.759629
832860 0.660013
833380 0.735433
833590 0.691985
834120 0.992418
834220 0.866431
835270 1.80996
835580 2.87661
836110 5.64194
836740 2.65933
837470 2.42936
839480 3.71027
840320 3.02697
840850 2.43649
841280 3.23937
841810 1.04784
842120 0.469357
842440 0.403947
842870 0.413607
842970 0.534959
843190 1.15094
843400 2.29530
843720 4.29963
843930 4.10303
844360 2.30307
845320 1.63123
846070 1.96629
846490 2.69177
847030 2.79649
847460 4.23153
847880 5.17997
848310 2.87265
849280 2.72487
851000 4.19229
851760 6.25853
852620 9.38251
853920 5.50385
854680 5.57583
855980 4.24384
856850 4.47000
858600 3.86634
859370 5.83729
859910 3.34534
860790 2.15463
861120 1.70953
861560 3.62300
862220 7.75500
862770 9.18583
863210 9.93431
863760 5.11519
864420 3.25975
866410 1.75631
867410 1.26532
867960 1.09684
868180 0.789882
868300 0.986226
868520 0.719052
868740 0.852659
868850 0.634047
868960 0.765322
869070 0.609379
869300 0.669434
869520 0.597718
869970 0.586135
870080 0.499020
870190 0.571986
870630 1.50609
871530 1.12030
871970 1.42910
872530 2.43735
872980 2.01777
873650 2.74634
874550 4.11325
875340 2.59119
875790 1.17600
876010 1.02066
876350 2.06792
876690 3.31877
877140 2.41414
878500 3.16732
879060 4.05183
880650 4.26318
881220 5.59212
881790 8.83647
882470 4.61989
883950 3.50386
885090 4.35397
885550 4.54024
886010 3.34695
886810 3.24904
887730 3.17465
888190 4.50203
888530 5.25187
889110 3.26061
890150 2.02065
892110 1.08854
892800 0.823978
892920 0.597780
893150 0.750582
893380 0.642521
893620 0.791392
893730 0.738097
893850 0.904187
893960 0.798647
894310 0.964018
894430 1.18971
894660 1.32131
895470 2.90455
896170 6.35099
896990 3.54687
897690 4.47988
898160 6.59676
898860 2.85339
899800 1.97887
900000 2.08379
900500 2.34611
900850 3.63375
901560 8.27140
902030 7.11768
902620 3.37940
903090 2.03021
903560 1.75331
904030 2.24300
904620 1.21693
905210 0.834661
905450 1.02135
906040 0.927854
906630 0.868757
906750 0.770950
906870 0.913914
907460 0.953008
907940 1.11115
908300 1.12003
908770 1.21771
909600 2.13600
910080 3.63334
910680 1.91967
911870 2.07509
912710 2.71342
913550 2.45295
914270 2.84236
914870 3.78387
915710 3.37952
916190 5.43633
916550 6.38698
917040 4.10594
918360 3.49270
918850 4.07747
919330 4.96859
920300 1.87521
920790 1.17423
921270 1.13836
921880 2.08266
922490 4.45976
923100 6.98173
923950 7.10388
924560 4.43835
925780 3.83937
926150 4.65440
926640 6.47049
927250 3.60494
927740 3.39635
929340 3.90551
932670 3.83521
933410 5.11679
933910 3.60653
936020 3.59465
937020 5.85400
937390 3.98034
938010 4.22217
939140 5.68468
939890 9.54072
940760 4.54595
941390 4.10686
942400 3.27886
944280 2.97221
945040 4.60517
945800 2.99203
947190 2.34844
948080 2.74889
948460 2.05823
950230 1.53550
950870 1.81883
951130 1.91805
951640 1.15678
952020 0.903430
952660 1.06453
953420 0.726650
953810 0.672346
954190 0.722008
954570 0.722881
955090 1.07824
955470 1.95503
955990 3.01225
956370 2.48652
958300 3.97886
958820 4.34967
959330 3.02485
960240 1.40369
960360 1.30107
960620 1.62218
961400 3.65116
962960 4.00085
963470 4.50263
964120 6.54593
965170 2.77806
966340 1.60640
967510 1.28261
967640 1.43063
968170 1.00395
968820 0.815464
968950 0.741017
969350 0.817612
969480 0.700089
969870 0.780211
970000 0.629184
970530 0.642379
970790 0.802758
971050 1.31637
971450 1.35455
971840 0.770394
971970 0.658431
972100 0.697883
972240 0.547165
972630 0.674741
972760 0.608393
973160 0.582382
973290 0.698709
973420 0.523049
973690 0.715015
974210 0.669535
974350 0.844458
974480 0.773606
974870 0.962128
975140 1.41767
975400 2.23739
975670 2.36063
976070 1.63105
976460 1.94971
977390 5.20073
978190 2.77807
979250 2.92598
979920 2.86225
980450 3.65951
980980 2.13628
981920 2.29288
982450 4.08312
983790 7.53655
984460 3.97668
985670 3.76964
987150 3.22328
989040 3.55444
989720 3.82588
990800 3.66540
991480 3.91326
993110 3.44180
994880 2.72248
996650 1.88967
997330 0.980715
997880 0.635699
998700 0.727317
999390 1.11373
999800 2.18882
999999 3.13018
1.00000E+06 3.13964
1.00020E+06 4.08099
1.00120E+06 2.30004
1.00310E+06 2.54945
1.00550E+06 2.98421
1.00600E+06 4.46372
1.00640E+06 5.56035
1.00710E+06 3.50888
1.00810E+06 4.39661
1.00850E+06 3.21234
1.01170E+06 3.25408
1.01260E+06 3.81535
1.01310E+06 5.18522
1.01400E+06 3.23011
1.01480E+06 2.66286
1.01510E+06 2.27349
1.01580E+06 3.30856
1.01650E+06 4.32722
1.01710E+06 3.42654
1.01760E+06 4.97140
1.01820E+06 6.47239
1.01940E+06 4.02485
1.02160E+06 3.30005
1.02230E+06 3.51222
1.02300E+06 1.86211
1.02360E+06 1.48160
1.02380E+06 1.70220
1.02500E+06 4.98806
1.02610E+06 3.53942
1.02930E+06 3.25272
1.03000E+06 4.26151
1.03040E+06 5.12424
1.03100E+06 3.77824
1.03160E+06 5.05777
1.03200E+06 5.30832
1.03260E+06 3.17757
1.03420E+06 2.52814
1.03490E+06 3.29280
1.03580E+06 2.55916
1.03690E+06 2.34390
1.03750E+06 3.49631
1.03790E+06 4.82042
1.03880E+06 2.23578
1.04030E+06 1.87523
1.04060E+06 1.65845
1.04130E+06 1.63192
1.04160E+06 1.91547
1.04230E+06 4.48708
1.04350E+06 2.05746
1.04360E+06 1.75007
1.04380E+06 1.81333
1.04390E+06 1.51122
1.04520E+06 0.967044
1.04550E+06 1.00486
1.04580E+06 1.58372
1.04630E+06 3.71459
1.04670E+06 5.36443
1.04730E+06 2.70101
1.04820E+06 1.64755
1.04880E+06 1.31537
1.04990E+06 1.10788
1.05040E+06 1.10016
1.05070E+06 1.31934
1.05100E+06 2.02507
1.05160E+06 4.90895
1.05190E+06 4.31452
1.05230E+06 2.07991
1.05290E+06 1.17330
1.05310E+06 1.04809
1.05320E+06 1.22458
1.05380E+06 1.00854
1.05510E+06 1.24292
1.05630E+06 1.78033
1.05710E+06 2.03256
1.05750E+06 1.53519
1.05780E+06 1.73955
1.05860E+06 4.32366
1.05900E+06 3.42771
1.05930E+06 2.41104
1.05960E+06 2.05657
1.06140E+06 2.38305
1.06290E+06 4.39258
1.06370E+06 7.19300
1.06440E+06 4.25691
1.06760E+06 2.32485
1.06790E+06 2.83928
1.06880E+06 5.90577
1.07060E+06 3.67887
1.07200E+06 3.41817
1.07260E+06 2.10105
1.07320E+06 2.35061
1.07400E+06 1.27424
1.07480E+06 1.18062
1.07750E+06 2.73331
1.07830E+06 4.61456
1.07920E+06 3.15656
1.08040E+06 3.18201
1.08110E+06 4.36743
1.08180E+06 7.08235
1.08260E+06 4.28795
1.08320E+06 4.06793
1.08380E+06 6.92411
1.08430E+06 7.41303
1.08510E+06 4.10789
1.08620E+06 3.15887
1.09020E+06 2.49313
1.09070E+06 3.14298
1.09130E+06 5.00542
1.09210E+06 4.97375
1.09260E+06 4.86564
1.09340E+06 2.87264
1.09450E+06 1.84831
1.09560E+06 2.96088
1.09620E+06 1.31750
1.09650E+06 1.26184
1.09680E+06 1.57450
1.09730E+06 1.35370
1.09750E+06 1.09929
1.09780E+06 0.947124
1.09810E+06 1.18330
1.09840E+06 1.20057
1.09860E+06 0.934637
1.10000E+06 0.930640
1.10030E+06 0.727868
1.10050E+06 0.966090
1.10080E+06 0.862610
1.10090E+06 1.13824
1.10140E+06 1.61662
1.10190E+06 1.81448
1.10240E+06 1.83014
1.10280E+06 2.26363
1.10380E+06 4.04866
1.10570E+06 3.30816
1.10670E+06 4.22403
1.10720E+06 4.05596
1.10800E+06 4.94593
1.10860E+06 3.47093
1.11020E+06 3.22228
1.11260E+06 3.28654
1.11410E+06 3.39705
1.11540E+06 2.95971
1.11630E+06 5.21160
1.11710E+06 3.80963
1.11810E+06 3.99957
1.11910E+06 6.06857
1.12020E+06 3.37121
1.12100E+06 3.40813
1.12170E+06 3.87905
1.12320E+06 1.94547
1.12410E+06 0.544975
1.12450E+06 0.967857
1.12580E+06 4.82990
1.12790E+06 3.45385
1.13140E+06 3.23659
1.13590E+06 3.08619
1.13770E+06 4.12460
1.13850E+06 2.89867
1.13950E+06 3.62609
1.14020E+06 3.25329
1.14140E+06 3.08801
1.14240E+06 2.82168
1.14420E+06 3.05773
1.14490E+06 3.44339
1.14570E+06 2.66609
1.14710E+06 3.38391
1.14790E+06 1.78078
1.14830E+06 1.61698
1.14840E+06 1.27793
1.14880E+06 1.18774
1.14910E+06 1.84732
1.14960E+06 3.18400
1.15060E+06 3.65617
1.15130E+06 2.98506
1.15280E+06 2.88593
1.15350E+06 3.12865
1.15420E+06 4.91120
1.15470E+06 5.99156
1.15540E+06 4.42648
1.15690E+06 5.56751
1.15780E+06 3.16773
1.15920E+06 2.28457
1.16020E+06 2.78323
1.16070E+06 2.66450
1.16140E+06 3.47012
1.16230E+06 1.94611
1.16330E+06 1.88551
1.16430E+06 3.36354
1.16550E+06 1.72605
1.16620E+06 1.58772
1.16710E+06 2.01409
1.16800E+06 1.39817
1.16830E+06 1.26139
1.16880E+06 1.55240
1.16990E+06 4.55331
1.17060E+06 4.37717
1.17130E+06 5.85806
1.17270E+06 3.52241
1.17320E+06 2.09430
1.17370E+06 1.51419
1.17460E+06 1.33427
1.17470E+06 1.63521
1.17610E+06 2.02048
1.17680E+06 1.03166
1.17740E+06 1.40748
1.17790E+06 1.31019
1.17840E+06 2.22733
1.17880E+06 2.86577
1.17970E+06 1.48431
1.18070E+06 0.914767
1.18090E+06 1.06817
1.18110E+06 0.844286
1.18200E+06 0.847790
1.18210E+06 0.747879
1.18280E+06 1.18242
1.18320E+06 1.75769
1.18460E+06 1.33893
1.18550E+06 1.88239
1.18600E+06 3.42789
1.18660E+06 5.18125
1.18760E+06 2.33193
1.18980E+06 2.15731
1.19190E+06 2.56293
1.19300E+06 4.57675
1.19440E+06 3.86395
1.19620E+06 3.53848
1.19730E+06 5.46315
1.19820E+06 3.37085
1.20000E+06 2.90741
1.20090E+06 3.08387
1.20250E+06 2.96998
1.20410E+06 6.73664
1.20520E+06 3.35584
1.20650E+06 1.96098
1.20710E+06 2.21740
1.20800E+06 4.16527
1.20870E+06 2.63388
1.20910E+06 2.92004
1.20960E+06 3.83792
1.21050E+06 3.00538
1.21460E+06 3.65177
1.21550E+06 4.60810
1.21620E+06 2.71105
1.21680E+06 2.79142
1.21730E+06 4.34562
1.21810E+06 7.53897
1.21940E+06 2.47629
1.22010E+06 1.66958
1.22210E+06 3.06495
1.22400E+06 3.28817
1.22490E+06 4.32348
1.22590E+06 2.51830
1.22730E+06 2.62508
1.22830E+06 2.51373
1.22920E+06 5.29522
1.23020E+06 2.33837
1.23090E+06 1.66643
1.23200E+06 1.28199
1.23280E+06 1.20047
1.23330E+06 1.82513
1.23410E+06 4.25899
1.23500E+06 3.68334
1.23600E+06 6.06073
1.23730E+06 3.27784
1.23790E+06 2.52907
1.23900E+06 1.98531
1.24150E+06 0.841716
1.24190E+06 1.10295
1.24220E+06 1.79938
1.24340E+06 3.90394
1.24410E+06 2.64750
1.24470E+06 1.42557
1.24530E+06 0.818515
1.24570E+06 0.732908
1.24590E+06 0.842300
1.24640E+06 1.73393
1.24820E+06 1.96776
1.24850E+06 1.78736
1.24890E+06 1.91020
1.24990E+06 4.58638
1.25000E+06 4.79829
1.25050E+06 5.85785
1.25140E+06 3.53520
1.25370E+06 2.94981
1.25490E+06 2.09009
1.25550E+06 2.60982
1.25620E+06 4.26506
1.25720E+06 2.92838
1.25820E+06 2.63233
1.25910E+06 3.43717
1.26030E+06 2.54489
1.26190E+06 2.73951
1.26260E+06 4.34343
1.26440E+06 3.09947
1.26520E+06 3.98536
1.26580E+06 4.43561
1.26790E+06 1.69174
1.26850E+06 2.13644
1.26990E+06 3.07470
1.27110E+06 5.15828
1.27240E+06 3.86822
1.27440E+06 2.70694
1.27560E+06 2.43230
1.27620E+06 1.54920
1.27740E+06 0.894435
1.27780E+06 0.797876
1.27800E+06 0.921380
1.27940E+06 4.03117
1.28060E+06 3.14547
1.28160E+06 3.97914
1.28300E+06 3.33128
1.28440E+06 4.60633
1.28560E+06 2.71816
1.28700E+06 2.05378
1.28840E+06 2.59331
1.28920E+06 3.15094
1.29100E+06 3.10268
1.29240E+06 4.71533
1.29360E+06 4.01820
1.29460E+06 5.07564
1.29560E+06 4.09118
1.29640E+06 4.53792
1.29710E+06 3.18438
1.29810E+06 3.91177
1.29890E+06 2.80626
1.29970E+06 4.02248
1.30050E+06 5.75228
1.30170E+06 3.28661
1.30300E+06 4.56935
1.30400E+06 3.14334
1.30540E+06 3.71425
1.30690E+06 7.22836
1.30810E+06 3.23095
1.30890E+06 2.74969
1.31010E+06 2.46528
1.31100E+06 3.97971
1.31200E+06 3.09812
1.31300E+06 4.72061
1.31410E+06 2.74207
1.31610E+06 1.85892
1.31720E+06 2.06452
1.31880E+06 5.07682
1.32010E+06 2.59027
1.32090E+06 2.30708
1.32180E+06 3.53075
1.32380E+06 2.75330
1.32470E+06 4.07969
1.32530E+06 5.97380
1.32680E+06 2.66552
1.32870E+06 1.64963
1.32990E+06 1.44491
1.33010E+06 1.60309
1.33080E+06 1.32237
1.33160E+06 1.50116
1.33230E+06 1.72104
1.33310E+06 1.82729
1.33350E+06 1.37106
1.33540E+06 1.15046
1.33560E+06 1.29031
1.33650E+06 1.10863
1.33730E+06 1.00667
1.33780E+06 1.05650
1.33880E+06 0.947170
1.33900E+06 1.09965
1.33930E+06 0.989798
1.34050E+06 1.18547
1.34140E+06 1.87737
1.34220E+06 1.17613
1.34270E+06 1.62978
1.34350E+06 3.51993
1.34570E+06 1.00113
1.34630E+06 1.20151
1.34700E+06 1.58796
1.34740E+06 1.36064
1.34780E+06 1.43203
1.34820E+06 1.95032
1.35040E+06 1.51334
1.35100E+06 2.75009
1.35190E+06 5.81980
1.35320E+06 2.83404
1.35390E+06 3.84114
1.35470E+06 5.54611
1.35780E+06 2.25023
1.35950E+06 2.27899
1.36100E+06 2.90780
1.36230E+06 5.84503
1.36360E+06 3.47583
1.36560E+06 2.92009
1.36670E+06 2.82425
1.36800E+06 2.06144
1.36870E+06 2.27919
1.36980E+06 3.92876
1.37040E+06 3.59621
1.37160E+06 5.77900
1.37290E+06 2.58209
1.37420E+06 1.55022
1.37510E+06 1.46172
1.37640E+06 2.08340
1.37710E+06 2.75018
1.37800E+06 2.36703
1.37980E+06 2.73310
1.38090E+06 2.34087
1.38270E+06 5.73924
1.38330E+06 7.61375
1.38430E+06 4.73299
1.38470E+06 3.58069
1.38620E+06 3.10973
1.38710E+06 3.15390
1.38830E+06 2.61497
1.38940E+06 3.56078
1.39120E+06 3.99421
1.39210E+06 2.68545
1.39250E+06 2.47980
1.39320E+06 3.32113
1.39430E+06 1.59592
1.39500E+06 2.22037
1.39570E+06 3.60467
1.39660E+06 5.88220
1.39770E+06 4.48693
1.39890E+06 2.23686
1.40000E+06 1.79710
1.40090E+06 1.95433
1.40230E+06 1.41384
1.40320E+06 1.58542
1.40390E+06 2.58909
1.40460E+06 4.68759
1.40500E+06 5.04929
1.40590E+06 2.92964
1.40660E+06 2.58491
1.40780E+06 3.46887
1.40850E+06 4.56867
1.41010E+06 3.08146
1.41260E+06 1.83747
1.41280E+06 1.93144
1.41330E+06 1.51862
1.41400E+06 1.52726
1.41420E+06 1.72283
1.41560E+06 5.37744
1.41770E+06 1.99722
1.41840E+06 2.32990
1.41930E+06 3.34561
1.42000E+06 3.54159
1.42120E+06 5.08780
1.42330E+06 4.96291
1.42420E+06 3.22968
1.42520E+06 3.24458
1.42590E+06 4.05411
1.42750E+06 2.54333
1.42930E+06 1.82534
1.42940E+06 1.78545
1.42980E+06 1.59553
1.43030E+06 2.00438
1.43130E+06 3.77060
1.43220E+06 2.00530
1.43290E+06 1.59221
1.43340E+06 1.76277
1.43430E+06 1.50404
1.43433E+06 1.49499
1.43480E+06 1.36016
1.43530E+06 1.05478
1.43570E+06 0.901274
1.43620E+06 0.897977
1.43670E+06 0.974492
1.43720E+06 1.49446
1.43790E+06 2.62230
1.43900E+06 2.72774
1.43930E+06 2.94739
1.44020E+06 3.60637
1.44140E+06 2.46563
1.44190E+06 2.50011
1.44280E+06 1.29398
1.44360E+06 1.26062
1.44430E+06 1.97877
1.44500E+06 3.56003
1.44570E+06 2.90960
1.44640E+06 1.97260
1.44740E+06 2.02249
1.44810E+06 3.31190
1.44880E+06 5.55437
1.44950E+06 4.41746
1.45030E+06 2.90676
1.45150E+06 2.42991
1.45220E+06 2.54608
1.45340E+06 3.81451
1.45510E+06 3.40218
1.45700E+06 2.62525
1.45800E+06 1.64452
1.45850E+06 1.91814
1.45920E+06 2.92708
1.46140E+06 2.48612
1.46280E+06 3.39604
1.46450E+06 1.37128
1.46530E+06 1.39341
1.46570E+06 1.84462
1.46620E+06 2.75090
1.46700E+06 2.12385
1.46740E+06 1.55580
1.46770E+06 1.70847
1.46920E+06 4.38287
1.47110E+06 3.75493
1.47310E+06 4.40190
1.47430E+06 5.69896
1.47530E+06 5.71412
1.47630E+06 7.24858
1.47850E+06 3.58695
1.48000E+06 3.45386
1.48100E+06 3.36219
1.48170E+06 2.68120
1.48220E+06 3.07589
1.48300E+06 4.52856
1.48420E+06 1.76708
1.48430E+06 1.71509
1.48440E+06 1.66310
1.48540E+06 3.29211
1.48640E+06 5.24195
1.48840E+06 4.19099
1.49020E+06 4.71264
1.49140E+06 3.08626
1.49220E+06 2.71933
1.49340E+06 3.54692
1.49620E+06 2.21617
1.49820E+06 2.74605
1.49970E+06 2.70750
1.50000E+06 2.50921
1.50100E+06 1.84825
1.50170E+06 1.95285
1.50430E+06 5.84518
1.50530E+06 6.12552
1.50680E+06 3.37579
1.50910E+06 3.17324
1.50960E+06 3.14892
1.51110E+06 5.10774
1.51270E+06 4.06006
1.51420E+06 5.83715
1.51680E+06 4.85668
1.51780E+06 4.79733
1.51990E+06 3.33831
1.52110E+06 3.79397
1.52220E+06 2.47874
1.52300E+06 3.51914
1.52370E+06 4.96450
1.52550E+06 2.03940
1.52810E+06 1.17940
1.52990E+06 0.935538
1.53130E+06 1.40522
1.53200E+06 1.10121
1.53230E+06 0.943561
1.53280E+06 0.949688
1.53360E+06 1.43465
1.53440E+06 3.21429
1.53520E+06 5.24826
1.53670E+06 2.91000
1.53730E+06 3.16075
1.53830E+06 6.72229
1.53910E+06 5.43911
1.54010E+06 3.17469
1.54170E+06 1.99124
1.54360E+06 1.73079
1.54410E+06 2.45159
1.54510E+06 4.02160
1.54670E+06 3.11420
1.54960E+06 1.77070
1.55040E+06 2.31971
1.55150E+06 4.91641
1.55280E+06 3.38540
1.55420E+06 1.46318
1.55500E+06 1.02355
1.55550E+06 1.01650
1.55580E+06 0.757161
1.55600E+06 0.953420
1.55660E+06 0.769549
1.55680E+06 0.950189
1.55710E+06 0.875895
1.55820E+06 1.81050
1.55950E+06 1.21895
1.56060E+06 1.34225
1.56140E+06 1.10317
1.56320E+06 1.99394
1.56430E+06 4.28753
1.56490E+06 5.08875
1.56620E+06 4.07280
1.56760E+06 5.99835
1.56940E+06 2.83972
1.57050E+06 2.22092
1.57130E+06 2.45558
1.57270E+06 3.90094
1.57380E+06 3.21793
1.57540E+06 2.61700
1.57620E+06 3.62669
1.57760E+06 5.62111
1.57950E+06 3.91171
1.58170E+06 3.28224
1.58280E+06 2.93116
1.58360E+06 2.60731
1.58520E+06 5.33207
1.58660E+06 5.28178
1.58800E+06 4.80591
1.58940E+06 3.72368
1.59070E+06 4.18715
1.59210E+06 3.07224
1.59400E+06 3.28859
1.59570E+06 5.09057
1.59820E+06 2.98359
1.60040E+06 1.57350
1.60180E+06 1.46552
1.60320E+06 2.64702
1.60460E+06 5.19514
1.60600E+06 3.99914
1.60770E+06 2.64636
1.60880E+06 2.81152
1.61050E+06 3.61907
1.61300E+06 3.02445
1.61440E+06 4.71839
1.61750E+06 2.27360
1.61980E+06 1.84178
1.62210E+06 1.63631
1.62290E+06 1.42921
1.62430E+06 2.18371
1.62490E+06 1.83785
1.62660E+06 2.86476
1.62750E+06 1.88713
1.62980E+06 1.95882
1.63350E+06 5.14186
1.63490E+06 3.53638
1.63630E+06 4.64406
1.63750E+06 3.36685
1.63890E+06 4.39724
1.64010E+06 2.98847
1.64130E+06 3.77072
1.64240E+06 7.38277
1.64390E+06 6.59100
1.64530E+06 4.09303
1.64760E+06 4.37133
1.64880E+06 4.15635
1.65200E+06 5.56672
1.65350E+06 4.42221
1.65460E+06 2.56874
1.65550E+06 2.52219
1.65760E+06 3.57435
1.66110E+06 2.55798
1.66250E+06 1.46948
1.66310E+06 1.48229
1.66430E+06 2.32053
1.66760E+06 3.13134
1.66960E+06 5.34490
1.67140E+06 6.82606
1.67410E+06 3.06315
1.67620E+06 3.04088
1.67860E+06 2.12204
1.67920E+06 1.48847
1.68040E+06 1.45243
1.68280E+06 2.86448
1.68460E+06 6.17504
1.68610E+06 3.32749
1.68700E+06 4.01854
1.68790E+06 5.74544
1.68940E+06 3.15814
1.69240E+06 3.14915
1.69360E+06 4.21809
1.69570E+06 2.16676
1.69660E+06 1.63633
1.69880E+06 3.30159
1.70210E+06 4.48137
1.70370E+06 4.70828
1.70550E+06 3.11200
1.70640E+06 3.56387
1.70730E+06 4.37147
1.70890E+06 3.17600
1.71040E+06 3.53834
1.71290E+06 2.63984
1.71410E+06 3.11323
1.71630E+06 1.50547
1.71690E+06 1.49702
1.71900E+06 2.85739
1.72090E+06 4.42490
1.72240E+06 6.04722
1.72430E+06 3.13126
1.72520E+06 2.88687
1.72680E+06 3.60176
1.72870E+06 2.51312
1.73020E+06 2.05445
1.73430E+06 4.69168
1.73590E+06 2.58903
1.73810E+06 1.84400
1.73930E+06 1.98695
1.74350E+06 2.94726
1.74660E+06 1.49501
1.74790E+06 1.50505
1.74820E+06 1.77224
1.74880E+06 1.80639
1.75000E+06 2.74396
1.75040E+06 3.05648
1.75140E+06 3.93353
1.75430E+06 3.79166
1.75650E+06 4.08597
1.75750E+06 2.91639
1.75910E+06 3.07161
1.76000E+06 2.01599
1.76070E+06 2.18485
1.76190E+06 3.15700
1.76320E+06 3.37643
1.76480E+06 4.65160
1.76870E+06 1.94463
1.77130E+06 2.34977
1.77160E+06 2.02081
1.77260E+06 2.18718
1.77580E+06 6.63321
1.77750E+06 5.16727
1.77980E+06 4.77885
1.78170E+06 2.51262
1.78430E+06 2.46020
1.78530E+06 3.29463
1.78630E+06 4.19054
1.78790E+06 3.87611
1.78990E+06 4.45988
1.79260E+06 2.79977
1.79490E+06 3.09067
1.79680E+06 4.78885
1.79920E+06 3.38247
1.80120E+06 3.37091
1.80280E+06 4.21670
1.80380E+06 4.34622
1.80520E+06 4.91528
1.80680E+06 4.32645
1.80920E+06 4.05932
1.81080E+06 3.72315
1.81220E+06 4.41127
1.81420E+06 2.56195
1.81620E+06 2.46853
1.81820E+06 4.12562
1.81990E+06 3.82711
1.82090E+06 4.73632
1.82300E+06 2.08548
1.82400E+06 1.52125
1.82460E+06 1.35609
1.82570E+06 1.94188
1.82740E+06 3.08803
1.82940E+06 3.74106
1.83110E+06 2.46361
1.83380E+06 3.12454
1.83620E+06 3.59518
1.84410E+06 3.03461
1.84690E+06 3.58059
1.84790E+06 2.81078
1.85070E+06 4.03921
1.85170E+06 2.93146
1.85410E+06 2.39497
1.85620E+06 2.40818
1.85760E+06 2.83636
1.85930E+06 2.62760
1.86180E+06 3.54035
1.86490E+06 2.66833
1.86560E+06 2.59301
1.86740E+06 5.05547
1.87090E+06 2.27012
1.87270E+06 1.94712
1.87440E+06 2.79805
1.87550E+06 3.61546
1.87720E+06 3.24728
1.87870E+06 4.37894
1.88330E+06 1.78100
1.88540E+06 2.58538
1.88720E+06 3.06383
1.88930E+06 4.42053
1.89250E+06 2.51967
1.89400E+06 2.78083
1.89790E+06 3.75316
1.90080E+06 2.95977
1.90220E+06 3.34162
1.90400E+06 4.80598
1.90580E+06 3.60241
1.90800E+06 4.43524
1.90950E+06 3.00921
1.91060E+06 2.96575
1.91490E+06 4.21650
1.91710E+06 2.78365
1.91970E+06 4.01202
1.92150E+06 3.52856
1.92330E+06 5.71256
1.92630E+06 3.99402
1.92770E+06 2.60168
1.92990E+06 2.98048
1.93360E+06 3.10338
1.93510E+06 3.88047
1.93620E+06 3.72888
1.93770E+06 3.89374
1.93880E+06 2.53124
1.94100E+06 2.34505
1.94220E+06 1.66435
1.94330E+06 2.08926
1.94480E+06 3.66467
1.94630E+06 3.34422
1.95070E+06 3.71874
1.95190E+06 3.21601
1.95490E+06 3.08318
1.95600E+06 3.09364
1.95790E+06 4.67510
1.96130E+06 2.42168
1.96280E+06 3.44007
1.96350E+06 3.91880
1.96660E+06 2.31041
1.96960E+06 2.89112
1.97000E+06 3.08795
1.97150E+06 4.91592
1.97490E+06 4.45650
1.97910E+06 4.42691
1.98370E+06 2.32005
1.98530E+06 1.92966
1.98870E+06 3.28561
1.99140E+06 2.06393
1.99300E+06 2.31308
1.99410E+06 2.76976
1.99690E+06 1.70037
1.99880E+06 2.35483
2.00000E+06 2.71336
2.00190E+06 3.28105
2.00820E+06 3.23048
2.01640E+06 2.16410
2.01920E+06 1.66442
2.02310E+06 2.84591
2.02980E+06 3.20179
2.03700E+06 1.70735
2.04140E+06 3.49487
2.04950E+06 3.33522
2.05880E+06 4.34067
2.06530E+06 3.74487
2.07840E+06 3.24289
2.08830E+06 4.12298
2.09580E+06 3.52594
2.10250E+06 2.71308
2.11300E+06 3.58619
2.11770E+06 2.72694
2.12790E+06 3.22355
2.13430E+06 2.42877
2.14200E+06 3.55103
2.14890E+06 3.24279
2.15410E+06 2.22426
2.16150E+06 3.20483
2.16720E+06 2.93089
2.17820E+06 3.76969
2.18440E+06 4.66383
2.19420E+06 2.82641
2.20050E+06 3.03561
2.20950E+06 3.59089
2.22080E+06 3.57774
2.23040E+06 3.74537
2.24100E+06 2.55987
2.24750E+06 3.63951
2.25000E+06 3.46412
2.25400E+06 3.18352
2.26140E+06 3.42520
2.26990E+06 2.87203
2.27740E+06 3.89940
2.28640E+06 4.27411
2.29690E+06 3.73193
2.30650E+06 3.65107
2.31330E+06 2.64657
2.32150E+06 3.26706
2.32880E+06 3.42469
2.33860E+06 3.67370
2.34310E+06 3.28565
2.35000E+06 3.51840
2.35690E+06 2.95041
2.36540E+06 4.99969
2.37390E+06 3.60342
2.38450E+06 3.54149
2.39470E+06 2.90341
2.40290E+06 3.23467
2.41420E+06 3.04866
2.42500E+06 2.99249
2.43130E+06 3.23210
2.44020E+06 2.64704
2.44810E+06 2.90748
2.46230E+06 4.01511
2.47030E+06 4.72116
2.47780E+06 3.98442
2.48970E+06 3.64611
2.50000E+06 3.48761
2.50100E+06 3.47223
2.51580E+06 3.86218
2.52180E+06 3.55176
2.52960E+06 4.04801
2.53620E+06 4.27339
2.54400E+06 4.19539
2.55350E+06 3.80651
2.56870E+06 3.87358
2.57840E+06 4.09610
2.58550E+06 3.91226
2.59380E+06 3.69736
2.60540E+06 3.02610
2.60890E+06 3.13297
2.61520E+06 3.32535
2.62160E+06 4.12358
2.64040E+06 3.53905
2.65170E+06 3.24136
2.66540E+06 3.41719
2.67320E+06 2.98466
2.68280E+06 2.96214
2.68770E+06 2.89008
2.70230E+06 3.34974
2.71210E+06 3.03665
2.71820E+06 3.33285
2.73560E+06 3.98860
2.74490E+06 3.13445
2.75000E+06 3.43990
2.75810E+06 3.92501
2.77140E+06 2.81301
2.78090E+06 3.85732
2.79180E+06 3.90482
2.80020E+06 3.86930
2.81500E+06 3.48754
2.82020E+06 3.43450
2.82680E+06 3.43241
2.83860E+06 4.11243
2.85380E+06 3.45004
2.86770E+06 3.37169
2.88250E+06 3.43266
2.89800E+06 3.04150
2.90620E+06 3.53412
2.92060E+06 3.55084
2.93430E+06 2.90727
2.95030E+06 3.66208
2.96360E+06 3.51321
2.97490E+06 4.01024
2.98830E+06 3.78200
2.99900E+06 3.63278
3.00000E+06 3.62661
3.00520E+06 3.59449
3.01430E+06 3.53831
3.01433E+06 3.53809
3.01480E+06 3.53521
3.02710E+06 3.22186
3.04960E+06 3.75110
3.06800E+06 3.75830
3.08140E+06 3.07143
3.10380E+06 3.38685
3.12270E+06 3.22329
3.14490E+06 3.37431
3.17030E+06 3.68699
3.19770E+06 3.38999
3.22000E+06 3.71618
3.22520E+06 3.79224
3.22521E+06 3.79231
3.22620E+06 3.80686
3.25000E+06 3.28640
3.25030E+06 3.27983
3.27300E+06 3.74151
3.31160E+06 3.29274
3.34250E+06 3.21680
3.35000E+06 3.28866
3.35660E+06 3.35189
3.35662E+06 3.35205
3.36000E+06 3.38446
3.37640E+06 3.54158
3.40000E+06 3.46655
3.40300E+06 3.45701
3.40760E+06 3.46134
3.42300E+06 3.47583
3.45000E+06 3.33844
3.45990E+06 3.28808
3.48660E+06 3.36836
3.50000E+06 3.33769
3.51000E+06 3.31480
3.53910E+06 3.53043
3.55750E+06 3.43719
3.59760E+06 3.69810
3.62590E+06 3.78601
3.65750E+06 3.42935
3.69140E+06 3.28314
3.71690E+06 3.39314
3.75000E+06 3.57708
3.77080E+06 3.69267
3.79300E+06 3.62705
3.82270E+06 3.59964
3.85690E+06 3.64705
3.90210E+06 3.29087
3.94060E+06 3.73917
3.97420E+06 3.83596
4.00000E+06 3.57488
4.01040E+06 3.46965
4.05390E+06 3.77564
4.09350E+06 3.53628
4.12680E+06 3.59535
4.16980E+06 3.46858
4.19930E+06 3.83026
4.23150E+06 3.54819
4.25000E+06 3.57993
4.26770E+06 3.61028
4.29450E+06 3.72084
4.33650E+06 3.72267
4.35900E+06 3.94590
4.40830E+06 3.51982
4.45320E+06 3.75872
4.48050E+06 3.89272
4.50000E+06 3.76674
4.50810E+06 3.71441
4.52260E+06 3.73552
4.55990E+06 3.86609
4.60040E+06 3.66180
4.65390E+06 3.73855
4.69430E+06 3.55563
4.76220E+06 3.55673
4.79680E+06 3.61614
4.83900E+06 3.48915
4.88040E+06 3.63217
4.90270E+06 3.56898
4.94180E+06 3.77897
4.97230E+06 3.50229
4.99830E+06 3.65469
5.00000E+06 3.65786
5.04020E+06 3.73272
5.10150E+06 3.71918
5.15920E+06 3.63190
5.22600E+06 3.79029
5.29420E+06 3.59242
5.34660E+06 3.60025
5.44680E+06 3.63272
5.49090E+06 3.48269
5.50000E+06 3.49048
5.55530E+06 3.53780
5.65960E+06 3.73241
5.71390E+06 3.66007
5.76500E+06 3.59994
5.84800E+06 3.59306
5.89510E+06 3.69106
5.93670E+06 3.58515
6.00000E+06 3.54020
6.02340E+06 3.52360
6.07470E+06 3.66806
6.13090E+06 3.67931
6.18350E+06 3.49146
6.22620E+06 3.73925
6.27140E+06 3.56170
6.32370E+06 3.65062
6.40340E+06 3.38123
6.43480E+06 3.55079
6.49840E+06 3.44605
6.50000E+06 3.44681
6.54890E+06 3.46973
6.61880E+06 3.62104
6.68510E+06 3.49442
6.75170E+06 3.56834
6.75398E+06 3.57087
6.75480E+06 3.57178
6.85280E+06 3.47652
6.92010E+06 3.37096
6.98840E+06 3.41007
7.00000E+06 3.40936
7.07590E+06 3.40474
7.16510E+06 3.42761
7.22900E+06 3.45319
7.33480E+06 3.39577
7.44290E+06 3.34717
7.50000E+06 3.37047
7.53060E+06 3.38296
7.59960E+06 3.31531
7.69890E+06 3.37366
7.83030E+06 3.34975
7.92810E+06 3.26402
7.97140E+06 3.28840
8.00000E+06 3.28611
8.06860E+06 3.28063
8.15800E+06 3.29973
8.28830E+06 3.23635
8.50000E+06 3.21070
8.57570E+06 3.20153
8.57572E+06 3.20152
9.00000E+06 3.15012
9.01750E+06 3.14800
9.01753E+06 3.14800
9.50000E+06 3.08954
1.00000E+07 3.02896
1.02440E+07 2.99940
1.05000E+07 2.97009
1.10000E+07 2.91284
1.15000E+07 2.85560
1.16710E+07 2.83602
1.20000E+07 2.79923
1.25000E+07 2.74333
1.26700E+07 2.72432
1.30000E+07 2.66753
1.35000E+07 2.58146
1.36300E+07 2.55909
1.36302E+07 2.55905
1.37690E+07 2.53516
1.40000E+07 2.51094
1.45000E+07 2.45850
1.48000E+07 2.42704
1.49380E+07 2.41257
1.50000E+07 2.40844
1.55000E+07 2.37512
1.59490E+07 2.34518
1.60000E+07 2.34309
1.69210E+07 2.30539
1.70000E+07 2.30504
1.75000E+07 2.30279
1.80000E+07 2.30055
1.82540E+07 2.29941
2.00000E+07 2.10000
2.00000E+07 2.23790
2.10000E+07 2.23872
2.14732E+07 2.23844
2.18188E+07 2.23815
2.20000E+07 2.23800
2.29631E+07 2.23375
2.30000E+07 2.23353
2.33907E+07 2.23142
2.40000E+07 2.23000
2.41369E+07 2.23020
2.45121E+07 2.23198
2.50000E+07 2.23659
2.50983E+07 2.23779
2.54451E+07 2.24263
2.55644E+07 2.24449
2.60000E+07 2.25200
2.70000E+07 2.27058
2.72950E+07 2.27619
2.80000E+07 2.29000
2.82402E+07 2.29481
2.85021E+07 2.30004
2.90000E+07 2.30999
3.00000E+07 2.33000
3.07268E+07 2.34498
3.07292E+07 2.34503
3.10000E+07 2.35077
3.18189E+07 2.36839
3.20000E+07 2.37231
3.22124E+07 2.37691
3.23496E+07 2.37987
3.25825E+07 2.38489
3.25984E+07 2.38523
3.30000E+07 2.39382
3.36488E+07 2.40741
3.40000E+07 2.41458
3.46229E+07 2.42687
3.50000E+07 2.43400
3.60000E+07 2.45120
3.70000E+07 2.46598
3.71407E+07 2.46789
3.73315E+07 2.47043
3.75586E+07 2.47335
3.76565E+07 2.47459
3.80000E+07 2.47879
3.90000E+07 2.49001
3.98167E+07 2.49825
4.00000E+07 2.50000
4.04370E+07 2.50393
4.06076E+07 2.50536
4.10000E+07 2.50838
4.10000E+07 2.50838
4.16031E+07 2.51237
4.20000E+07 2.51456
4.30000E+07 2.51854
4.32601E+07 2.51922
4.38781E+07 2.52024
4.40000E+07 2.52034
4.47341E+07 2.52030
4.49752E+07 2.52003
4.50000E+07 2.52000
4.54559E+07 2.51921
4.55039E+07 2.51911
4.56599E+07 2.51877
4.60000E+07 2.51791
4.70000E+07 2.51462
4.80000E+07 2.51039
4.90000E+07 2.50545
4.92402E+07 2.50418
5.00000E+07 2.50000
5.10000E+07 2.49418
5.20000E+07 2.48790
5.28318E+07 2.48223
5.29719E+07 2.48123
5.30000E+07 2.48103
5.40000E+07 2.47343
5.46142E+07 2.46836
5.50000E+07 2.46500
5.60000E+07 2.45551
5.70000E+07 2.44477
5.70414E+07 2.44430
5.80000E+07 2.43277
5.88241E+07 2.42194
5.90000E+07 2.41951
6.00000E+07 2.40500
6.10000E+07 2.38973
6.15943E+07 2.38057
6.20000E+07 2.37429
6.30000E+07 2.35878
6.40000E+07 2.34332
6.47382E+07 2.33199
6.50000E+07 2.32800
6.60000E+07 2.31309
6.70000E+07 2.29847
6.80000E+07 2.28368
6.83703E+07 2.27808
6.90000E+07 2.26831
7.00000E+07 2.25200
7.10000E+07 2.23460
7.11246E+07 2.23237
7.20000E+07 2.21645
7.30000E+07 2.19792
7.40000E+07 2.17934
7.50000E+07 2.16100
7.60000E+07 2.14288
7.70000E+07 2.12493
7.80000E+07 2.10735
7.90000E+07 2.09032
8.00000E+07 2.07400
8.10000E+07 2.05841
8.20000E+07 2.04334
8.30000E+07 2.02866
8.40000E+07 2.01425
8.50000E+07 2.00000
8.60000E+07 1.98588
8.70000E+07 1.97188
8.80000E+07 1.95794
8.90000E+07 1.94400
9.00000E+07 1.93000
9.10000E+07 1.91494
9.20000E+07 1.89851
9.30000E+07 1.88166
9.40000E+07 1.86524
9.50000E+07 1.85000
9.60000E+07 1.83653
9.70000E+07 1.82426
9.80000E+07 1.81229
9.90000E+07 1.79979
1.00000E+08 1.78600
1.02000E+08 1.75660
1.04000E+08 1.72727
1.06000E+08 1.69826
1.08000E+08 1.66978
1.10000E+08 1.64200
1.12000E+08 1.61509
1.14000E+08 1.58905
1.16000E+08 1.56375
1.18000E+08 1.53910
1.20000E+08 1.51500
1.22000E+08 1.49129
1.24000E+08 1.46798
1.26000E+08 1.44525
1.28000E+08 1.42322
1.30000E+08 1.40200
1.32000E+08 1.38174
1.34000E+08 1.36248
1.36000E+08 1.34414
1.38000E+08 1.32666
1.40000E+08 1.31000
1.42000E+08 1.29567
1.44000E+08 1.28459
1.46000E+08 1.27594
1.48000E+08 1.26897
1.50000E+08 1.26300