Ni-61(n,tot) ENDF/B-VII.1
Energy(eV) XS(b)
1.00000E-05 134.912
1.25000E-05 121.591
1.50000E-05 111.758
2.00000E-05 97.9546
2.75000E-05 84.8211
3.50000E-05 76.1776
4.25000E-05 69.9378
5.00000E-05 65.1609
6.25000E-05 59.2034
7.50000E-05 54.8057
0.000100000 48.6329
0.000125000 44.4203
0.000150000 41.3107
0.000200000 36.9458
0.000275000 32.7926
0.000350000 30.0593
0.000425000 28.0861
0.000500000 26.5755
0.000625000 24.6916
0.000750000 23.3009
0.00100000 21.3489
0.00125000 20.0167
0.00150000 19.0334
0.00200000 17.6531
0.00275000 16.3397
0.00350000 15.4754
0.00425000 14.8514
0.00500000 14.3737
0.00625000 13.7779
0.00750000 13.3382
0.0100000 12.7208
0.0125000 12.2996
0.0150000 11.9886
0.0200000 11.5521
0.0253000 11.2392
0.0314750 10.9796
0.0376500 10.7869
0.0500000 10.5149
0.0625000 10.3264
0.0750000 10.1873
0.100000 9.99194
0.125000 9.85860
0.150000 9.76014
0.200000 9.62185
0.275000 9.49013
0.350000 9.40332
0.500000 9.29240
0.750000 9.18761
1.00000 9.12465
1.50000 9.04898
2.00000 9.00291
2.75000 8.95774
3.50000 8.92679
5.00000 8.88476
7.50000 8.84008
10.0000 8.80869
15.0000 8.76197
20.0000 8.72480
27.5000 8.67694
35.0000 8.63395
50.0000 8.55530
75.0000 8.43523
100.000 8.32288
150.000 8.11307
200.000 7.91830
275.000 7.64886
350.000 7.40247
500.000 6.96645
750.000 6.36911
999.999 5.88984
1000.00 5.88983
1000.01 5.88982
1000.01 5.88981
1000.02 5.88980
1000.05 5.88976
1000.09 5.88968
1000.17 5.88954
1000.35 5.88924
1000.69 5.88864
1001.38 5.88746
1002.76 5.88509
1005.52 5.88035
1011.03 5.87091
1022.06 5.85217
1044.11 5.81524
1088.22 5.74364
1132.34 5.67542
1176.45 5.61174
1220.56 5.55623
1242.61 5.53501
1264.67 5.52400
1275.70 5.52611
1286.72 5.53807
1297.75 5.56830
1308.78 5.63668
1314.29 5.69971
1319.81 5.79998
1325.32 5.96880
1330.84 6.27883
1333.59 6.53883
1336.35 6.93185
1339.11 7.56449
1341.86 8.67558
1344.62 10.8943
1346.00 12.9392
1347.38 16.3452
1348.76 22.6352
1349.45 27.9654
1350.13 36.1082
1350.82 49.3418
1351.51 72.5841
1352.20 117.290
1352.55 155.086
1352.89 209.131
1353.45 332.904
1354.00 415.946
1354.56 332.930
1355.11 209.330
1355.74 123.089
1356.37 78.5179
1357.00 54.3175
1357.63 40.1267
1358.26 31.2131
1358.89 25.2896
1360.15 18.1991
1361.41 14.2923
1362.67 11.9238
1365.19 9.32108
1367.71 7.99986
1370.23 7.23833
1372.74 6.75927
1375.26 6.43798
1380.30 6.04585
1385.34 5.82328
1390.38 5.68354
1395.42 5.58906
1405.49 5.47060
1415.57 5.39911
1425.65 5.35028
1435.72 5.31374
1455.88 5.25978
1476.03 5.21860
1516.33 5.15234
1556.64 5.09545
1596.94 5.04297
1677.56 4.94518
1838.78 4.76639
2000.00 4.60335
2284.86 4.34686
2569.71 4.13478
2712.14 4.05821
2854.57 4.03236
2925.78 4.06503
2996.99 4.17252
3032.60 4.28359
3068.21 4.47215
3086.01 4.61827
3103.81 4.83117
3112.72 4.98679
3121.62 5.22457
3126.07 5.42378
3128.29 5.57387
3130.52 5.79573
3132.75 6.17357
3133.86 6.48907
3134.97 6.98569
3136.08 7.86920
3136.64 8.61197
3137.20 9.76119
3137.75 11.7047
3138.31 15.3995
3138.59 18.6415
3138.86 23.7334
3139.14 32.1449
3139.42 46.2883
3139.71 67.8212
3140.00 79.5665
3140.29 61.5536
3140.58 38.4659
3140.87 24.4088
3141.16 16.8880
3141.46 12.7248
3141.75 10.2825
3142.04 8.75522
3142.33 7.75749
3142.91 6.60537
3143.50 6.01045
3144.08 5.67909
3145.25 5.36670
3146.41 5.25176
3147.58 5.21539
3149.91 5.23161
3152.25 5.28983
3154.58 5.36175
3159.25 5.52028
3168.58 5.87234
3177.91 6.28678
3196.58 7.44160
3215.24 9.41692
3233.91 13.2657
3243.24 16.7241
3252.57 22.3314
3261.90 32.2507
3271.24 52.0602
3275.90 70.0594
3280.57 99.0827
3285.23 148.510
3289.90 235.175
3294.95 384.518
3300.00 487.926
3305.05 384.694
3310.10 236.626
3315.49 140.938
3320.88 90.4851
3326.27 62.5427
3331.66 45.8991
3337.05 35.3166
3342.44 28.2155
3353.22 19.6189
3364.00 14.8294
3374.78 11.8960
3396.34 8.63809
3417.90 6.96036
3439.46 5.97987
3461.02 5.35406
3482.58 4.92769
3525.69 4.39398
3568.81 4.07792
3655.05 3.71979
3741.29 3.51393
3827.53 3.37066
4000.00 3.16137
4000.00 3.16137
4000.01 3.16136
4000.02 3.16136
4000.03 3.16134
4000.06 3.16131
4000.12 3.16124
4000.25 3.16111
4000.49 3.16086
4000.98 3.16034
4001.96 3.15932
4003.91 3.15727
4007.81 3.15318
4015.63 3.14507
4031.25 3.12904
4062.50 3.09772
4125.00 3.03751
4250.00 2.92360
4500.00 2.70720
5000.00 2.26689
5344.84 1.92913
5689.68 1.54380
5862.10 1.33007
6034.51 1.10794
6120.72 1.00265
6206.93 0.921402
6250.04 0.907227
6293.14 0.941532
6314.70 0.999446
6336.25 1.12092
6347.02 1.23289
6357.80 1.43173
6363.19 1.61400
6365.88 1.75612
6368.58 1.97014
6371.27 2.33959
6372.62 2.65071
6373.96 3.14412
6375.31 4.02895
6375.98 4.78095
6376.66 5.95410
6377.33 7.96515
6377.67 9.56634
6378.00 11.8762
6378.34 15.3990
6378.68 21.0816
6379.02 30.8231
6379.35 47.9287
6379.68 72.6902
6379.84 83.3539
6380.00 86.4494
6380.33 66.1402
6380.65 39.8618
6380.81 30.5004
6380.98 23.6400
6381.14 18.6453
6381.31 14.9801
6381.64 10.1915
6381.97 7.38082
6382.30 5.62182
6382.63 4.47328
6383.29 3.13701
6383.95 2.44323
6384.60 2.05267
6385.92 1.67893
6387.24 1.53709
6388.56 1.48932
6391.20 1.50460
6393.83 1.57756
6396.47 1.67483
6401.74 1.91394
6412.29 2.58953
6422.83 3.74055
6433.38 5.99770
6438.65 8.04901
6443.92 11.4185
6449.19 17.4989
6451.83 22.5317
6454.47 30.0339
6457.10 41.8206
6459.74 61.5118
6462.37 96.6989
6465.01 162.044
6467.51 260.974
6470.00 327.815
6472.50 262.004
6474.99 163.525
6477.48 100.871
6479.97 65.8308
6482.45 45.6209
6484.94 33.2542
6487.43 25.2421
6489.91 19.7975
6494.89 13.1215
6499.86 9.35784
6504.84 7.03630
6514.79 4.44197
6524.73 3.09955
6534.68 2.31353
6554.58 1.47029
6574.48 1.04493
6594.37 0.796520
6634.17 0.527921
6673.96 0.396853
6713.76 0.339030
6753.55 0.340491
6793.35 0.408877
6833.14 0.570004
6872.93 0.876168
6912.73 1.43062
6952.52 2.45090
6972.42 3.27392
6992.32 4.45024
7012.22 6.18527
7032.11 8.84907
7052.01 13.1501
7071.91 20.5333
7091.80 34.0865
7111.70 60.0193
7130.85 102.020
7150.00 135.683
7169.15 116.094
7188.30 78.4286
7206.56 53.7992
7224.81 39.3661
7243.07 30.9867
7261.33 26.1134
7297.84 22.1742
7334.35 22.9660
7370.86 27.7884
7407.38 37.8775
7443.89 56.5382
7480.40 89.8352
7525.20 158.337
7570.00 219.247
7614.80 194.658
7659.60 135.261
7693.55 100.932
7727.49 77.3472
7761.44 61.2479
7795.39 49.9928
7863.28 35.8464
7931.18 27.6352
7999.07 22.4096
8066.96 18.8414
8202.75 14.3238
8338.54 11.5592
8474.33 9.57396
8542.22 8.66974
8576.17 8.18859
8610.11 7.64501
8644.06 6.96609
8661.03 6.52867
8678.01 5.97394
8694.98 5.22426
8703.47 4.73783
8711.95 4.15493
8720.44 3.49674
8724.68 3.19765
8728.93 3.04693
8733.17 3.38129
8735.29 4.00956
8737.41 5.31374
8738.48 6.40047
8739.54 7.94384
8740.60 10.1481
8741.66 13.3206
8742.72 17.9451
8743.78 24.7543
8744.84 34.8503
8745.90 49.7282
8746.93 70.1459
8747.95 96.6232
8750.00 146.204
8751.03 151.013
8752.05 140.578
8754.10 104.668
8756.42 73.1293
8758.73 54.2440
8761.05 42.7908
8763.36 35.4267
8765.68 30.4122
8767.99 26.8279
8772.62 22.1143
8777.25 19.1936
8781.88 17.2250
8791.14 14.7555
8800.40 13.2732
8809.66 12.2829
8828.18 11.0317
8846.71 10.2595
8865.23 9.72354
8902.27 9.00270
8939.31 8.51627
8976.35 8.14910
9050.44 7.60153
9198.60 6.85163
9346.77 6.31252
9643.10 5.52410
9791.27 5.21252
9865.35 5.07088
9902.40 5.00583
9911.66 4.99271
9920.92 4.98695
9925.55 4.99409
9930.18 5.02917
9932.49 5.08328
9934.81 5.23279
9935.97 5.42329
9936.54 5.59705
9937.12 5.88179
9937.70 6.39468
9937.99 6.81842
9938.28 7.44506
9938.57 8.42623
9938.86 10.0446
9939.15 12.8925
9939.44 18.0703
9939.72 26.0388
9940.00 31.3851
9940.28 26.1462
9940.56 18.2415
9940.80 13.8313
9941.03 11.1062
9941.26 9.39706
9941.49 8.28467
9941.96 6.99827
9942.42 6.32525
9942.89 5.93167
9943.35 5.68360
9944.28 5.39999
9946.14 5.16071
9947.99 5.06364
9951.71 4.98376
9955.42 4.94945
9962.85 4.91528
9970.28 4.89444
10000.0 4.83512
10042.1 4.76281
10084.3 4.69577
10105.4 4.66584
10126.4 4.64441
10137.0 4.64464
10147.5 4.67435
10152.8 4.72699
10155.4 4.78076
10158.0 4.87591
10160.7 5.06495
10162.0 5.23561
10163.3 5.50970
10164.6 5.99588
10165.9 6.94966
10166.6 7.81204
10167.3 9.18704
10167.9 11.4871
10168.6 15.3298
10169.3 21.8115
10170.0 26.1421
10170.7 21.8267
10171.4 15.3489
10172.1 11.6870
10172.7 9.47513
10173.3 8.09553
10173.9 7.20128
10175.1 6.17286
10176.3 5.63539
10177.5 5.32236
10178.7 5.12476
10181.1 4.89878
10183.5 4.77839
10185.9 4.70655
10190.7 4.62650
10200.3 4.55548
10209.9 4.51974
10229.1 4.47467
10248.3 4.43976
10286.8 4.37778
10325.2 4.31929
10479.0 4.09657
10786.5 3.67260
11094.0 3.24811
11401.5 2.78748
11709.0 2.23668
11862.8 1.89824
12016.6 1.49091
12170.3 0.986313
12247.2 0.693692
12324.1 0.393648
12362.5 0.262705
12381.7 0.211691
12401.0 0.177747
12420.2 0.169948
12429.8 0.179914
12439.4 0.202096
12449.0 0.239433
12458.6 0.295621
12468.2 0.375352
12477.8 0.484622
12497.1 0.824994
12516.3 1.41163
12535.5 2.41256
12554.7 4.14032
12573.9 7.21026
12593.2 12.9096
12602.8 17.5264
12612.4 24.0596
12622.0 33.3743
12631.6 46.5891
12650.8 87.4792
12670.0 126.604
12679.6 127.639
12689.2 115.930
12708.4 82.1988
12730.6 53.9543
12752.8 37.8166
12775.0 28.3315
12797.2 22.3705
12819.4 18.3739
12841.6 15.5504
12886.0 11.8702
12930.3 9.59330
12974.7 8.04100
13063.5 6.00938
13152.3 4.64379
13241.0 3.53989
13329.8 2.49870
13352.0 2.23665
13374.2 1.98349
13385.3 1.87484
13396.4 1.82155
13401.9 1.86848
13404.7 1.94631
13407.5 2.10725
13410.3 2.45854
13411.7 2.79049
13413.0 3.33803
13414.4 4.33340
13415.8 6.34216
13416.5 8.22009
13417.2 11.2415
13417.9 16.4342
13418.6 25.5864
13419.3 40.2236
13420.0 50.0703
13420.7 40.4159
13421.4 25.8156
13422.3 15.1379
13423.1 9.76842
13424.0 6.90937
13424.8 5.25201
13425.7 4.21679
13426.5 3.52965
13428.2 2.70623
13429.9 2.24192
13431.6 1.95232
13435.0 1.61548
13438.4 1.42205
13441.8 1.29208
13448.6 1.11339
13462.2 0.870472
13475.7 0.679120
13502.9 0.387003
13516.5 0.305845
13523.3 0.291903
13530.1 0.302398
13536.9 0.344272
13543.6 0.426622
13550.4 0.561437
13557.2 0.764641
13564.0 1.05757
13570.8 1.46910
13577.6 2.03869
13584.4 2.82093
13591.2 3.89215
13598.0 5.36036
13604.8 7.37994
13611.5 10.1733
13618.3 14.0615
13625.1 19.5038
13631.9 27.1354
13638.7 37.7635
13654.4 76.9987
13670.0 119.457
13677.9 124.269
13685.7 116.172
13701.4 86.7358
13712.3 69.1329
13723.2 56.0570
13734.1 46.5445
13745.0 39.5638
13766.8 30.3071
13788.6 24.6410
13810.3 20.9024
13832.1 18.2922
13875.7 14.9648
13919.3 13.0496
13941.1 12.4486
13962.9 12.0860
13984.6 12.0656
13995.5 12.2819
14006.4 12.7880
14017.3 13.8596
14022.8 14.7990
14028.2 16.2262
14033.7 18.4959
14039.1 22.2936
14044.6 29.0736
14050.0 41.5023
14055.0 59.0460
14060.0 69.3438
14065.1 55.5419
14070.1 36.9634
14076.0 24.1124
14082.0 17.7615
14087.9 14.4132
14093.8 12.4851
14099.7 11.2841
14105.6 10.4857
14117.5 9.51343
14129.3 8.95054
14141.2 8.58140
14164.8 8.10927
14188.5 7.79908
14212.2 7.56456
14259.6 7.20902
14306.9 6.93758
14354.3 6.71982
14378.0 6.62857
14401.7 6.55495
14413.5 6.53430
14425.4 6.55396
14431.3 6.61652
14434.2 6.68744
14437.2 6.82143
14440.2 7.10481
14441.6 7.37570
14443.1 7.84047
14444.6 8.72985
14445.3 9.51013
14446.1 10.7424
14446.8 12.8381
14447.6 16.7717
14447.9 20.1164
14448.3 25.1569
14448.7 32.9905
14449.0 45.2297
14449.5 69.1799
14450.0 84.9538
14450.5 69.0641
14451.0 45.7354
14451.5 30.5164
14451.9 22.1750
14452.4 17.3369
14452.9 14.3634
14453.4 12.3984
14453.9 11.0910
14454.8 9.48125
14455.8 8.56243
14456.8 8.00048
14458.7 7.36667
14460.6 7.03706
14462.6 6.84272
14466.4 6.63143
14470.3 6.52182
14474.1 6.45511
14481.9 6.37603
14497.3 6.29198
14512.7 6.23792
14543.6 6.15665
14574.5 6.09119
14698.0 5.91396
14945.1 5.87005
15192.1 6.26900
15315.6 6.69694
15377.4 6.99147
15392.8 7.07725
15408.3 7.17369
15416.0 7.23256
15423.7 7.31806
15427.6 7.39496
15431.4 7.56115
15433.3 7.75351
15435.3 8.20362
15436.2 8.70970
15437.2 9.74877
15437.7 10.7587
15438.2 12.4377
15438.7 15.4860
15439.1 21.2595
15439.6 29.7497
15440.0 35.2892
15440.4 29.7201
15440.9 21.4835
15441.2 17.6782
15441.4 15.1211
15442.0 12.0698
15442.5 10.4496
15443.1 9.54353
15444.1 8.61060
15445.2 8.17693
15447.4 7.80618
15449.6 7.66240
15453.9 7.56433
15458.3 7.54457
15467.0 7.56647
15475.7 7.61343
15493.1 7.73002
15510.5 7.86045
15580.2 8.47319
15649.8 9.23881
15684.6 9.69167
15702.0 9.94926
15706.4 10.0266
15710.7 10.1306
15712.9 10.2165
15715.1 10.3886
15716.2 10.5787
15717.3 11.0056
15717.8 11.4696
15718.3 12.3726
15718.6 13.1856
15718.9 14.4864
15719.2 16.6759
15719.4 20.4409
15719.7 26.6589
15720.0 30.8583
15720.3 26.7939
15720.6 20.6163
15720.8 17.1752
15721.1 15.1119
15721.3 13.7520
15721.5 12.9009
15722.0 11.8898
15722.5 11.3603
15723.4 10.8620
15724.3 10.6509
15726.2 10.4885
15728.1 10.4415
15731.8 10.4407
15735.6 10.4775
15750.6 10.6993
15780.5 11.2208
15840.4 12.4414
15960.3 15.7357
16080.2 20.6334
16200.0 27.8452
16405.0 46.4445
16610.0 61.3688
16714.6 59.4157
16767.0 56.0849
16793.1 54.0533
16799.7 53.5273
16806.2 53.0164
16809.5 52.7911
16812.7 52.6539
16814.4 52.6974
16816.0 53.0096
16816.8 53.4621
16817.7 54.5015
16818.1 55.5388
16818.5 57.3464
16818.9 60.7275
16819.3 67.1036
16819.6 76.3835
16820.0 82.7222
16820.4 76.7931
16820.7 67.5711
16821.1 61.1914
16821.5 57.7307
16821.9 55.7763
16822.3 54.5905
16823.1 53.2910
16823.8 52.6203
16825.4 51.9388
16827.0 51.5723
16830.1 51.1073
16833.2 50.7578
16839.4 50.1464
16845.6 49.5695
16870.5 47.3069
16920.4 42.8409
17020.0 34.6039
17224.8 21.9223
17327.1 17.3682
17429.5 13.6010
17531.9 10.4144
17634.3 7.89506
17685.4 7.20003
17736.6 7.55329
17762.2 8.56551
17787.8 10.6339
17813.4 14.4613
17839.0 21.1603
17861.8 30.6964
17884.5 44.2776
17930.0 74.7863
17952.8 81.4671
17975.5 79.6746
18021.0 64.6652
18049.6 55.1478
18078.1 47.4098
18135.3 36.6087
18192.4 29.8288
18249.5 25.2843
18306.7 22.0336
18363.8 19.5755
18478.1 16.0172
18592.3 13.4107
18706.6 11.2359
18763.7 10.2853
18820.8 9.71441
18849.4 9.97092
18878.0 11.4575
18892.3 13.3170
18906.5 16.7880
18920.8 23.3426
18935.1 35.7357
18952.6 63.5209
18970.0 93.4351
18987.5 90.7120
19004.9 69.5794
19020.5 54.0147
19036.0 43.4785
19051.6 36.4242
19067.1 31.5500
19098.2 25.4421
19129.3 21.8544
19160.4 19.5154
19191.5 17.8706
19253.7 15.6937
19315.9 14.2919
19378.1 13.2919
19502.5 11.9146
19751.2 10.2594
20000.0 9.21636
20174.7 8.66347
20262.0 8.42383
20305.7 8.31244
20327.5 8.26338
20338.4 8.25950
20343.9 8.33099
20345.3 8.40597
20346.6 8.59041
20347.3 8.79939
20348.0 9.23147
20348.7 10.3146
20349.0 11.5199
20349.4 13.7454
20349.7 17.1948
20350.0 19.4471
20350.3 17.1644
20350.7 13.8453
20351.0 11.7070
20351.3 10.5267
20351.9 9.39615
20352.5 8.91018
20353.2 8.66943
20354.4 8.44396
20355.6 8.34597
20360.6 8.22421
20370.6 8.16695
20390.5 8.11014
20430.4 8.01556
20510.0 7.84016
20589.7 7.67621
20629.6 7.59912
20649.5 7.56693
20659.5 7.57281
20664.5 7.65339
20665.7 7.73385
20666.9 7.93012
20667.6 8.15745
20668.2 8.62576
20668.8 9.82129
20669.1 11.1835
20669.4 13.8450
20669.7 17.6896
20670.0 20.2397
20670.3 17.7432
20670.6 13.9114
20670.9 10.9588
20671.3 9.57713
20672.0 8.45915
20672.7 8.04732
20673.5 7.85445
20674.9 7.68519
20676.3 7.61421
20682.1 7.52822
20693.6 7.48492
20716.7 7.43626
20762.9 7.35145
20855.2 7.19204
21039.8 6.89926
21224.4 6.63512
21270.6 6.57372
21316.7 6.51598
21362.9 6.47408
21374.4 6.47709
21386.0 6.51080
21391.7 6.56774
21397.5 6.73103
21400.4 6.94638
21403.3 7.48876
21404.7 8.13286
21405.4 8.69238
21406.2 9.56887
21406.9 11.0453
21407.6 13.7818
21408.0 16.0817
21408.3 19.5111
21408.7 24.7716
21409.0 32.8674
21409.5 48.9832
21410.0 59.4310
21410.5 48.5056
21411.0 32.7107
21411.4 24.0915
21411.7 18.8103
21412.1 15.3710
21412.5 13.1724
21413.3 10.5737
21414.1 9.20241
21414.8 8.40018
21415.6 7.89327
21417.1 7.31518
21420.2 6.83229
21423.3 6.64011
21429.5 6.48791
21435.6 6.42719
21447.9 6.37327
21460.2 6.34496
21484.9 6.30752
21509.5 6.27995
21534.1 6.26292
21558.7 6.27727
21571.1 6.32708
21577.2 6.38478
21583.4 6.49514
21589.5 6.73210
21592.6 6.96085
21595.7 7.35451
21598.8 8.11510
21600.3 8.78595
21601.8 9.84956
21603.4 11.6662
21604.9 15.0914
21605.7 18.0136
21606.5 22.4280
21607.2 29.3029
21608.0 39.8843
21609.0 60.5871
21610.0 74.5131
21611.0 61.1471
21612.0 40.8584
21612.6 31.7428
21613.3 25.4465
21614.5 17.8606
21615.8 13.8854
21617.0 11.6209
21618.3 10.2052
21619.5 9.27345
21622.0 8.16886
21624.5 7.56000
21627.0 7.19130
21632.0 6.78171
21637.0 6.56953
21642.0 6.44375
21651.9 6.30459
21661.9 6.22945
21671.9 6.18144
21691.8 6.11985
21711.8 6.07777
21731.7 6.04397
21771.6 5.98716
21851.4 5.88944
21931.2 5.79944
22090.8 5.62903
22250.4 5.46586
22888.8 4.84012
23208.0 4.51765
23527.2 4.16128
23686.8 3.95929
23846.4 3.73289
23926.2 3.60887
24006.0 3.47937
24045.9 3.41596
24085.8 3.36292
24105.8 3.35133
24115.8 3.35665
24125.7 3.37912
24135.7 3.44085
24140.7 3.50437
24145.7 3.61450
24150.7 3.82196
24153.2 3.99846
24155.7 4.26509
24158.2 4.69378
24160.6 5.42461
24163.1 6.77130
24165.6 9.37039
24167.8 13.0621
24170.0 15.5046
24172.2 13.0094
24174.4 9.30070
24175.9 7.54511
24177.4 6.36086
24180.3 5.01608
24183.3 4.34289
24186.3 3.96779
24189.3 3.73879
24192.2 3.58984
24198.2 3.41263
24204.1 3.31352
24210.1 3.25117
24221.9 3.17644
24245.7 3.10123
24269.5 3.06190
24317.0 3.04531
24364.6 3.14659
24412.2 3.50647
24459.7 4.51173
24483.5 5.55677
24507.3 7.32958
24531.0 10.3976
24554.8 15.7180
24587.4 28.4831
24620.0 41.8814
24652.6 40.2052
24685.2 30.3702
24722.3 21.7176
24759.4 16.5588
24796.5 13.4356
24833.6 11.4264
24870.7 10.0545
24907.8 9.07012
24982.0 7.76423
25056.2 6.94144
25130.4 6.37470
25167.5 6.15202
25204.6 5.95957
25223.2 5.87435
25241.7 5.80045
25251.0 5.77394
25260.3 5.77316
25264.9 5.80569
25269.6 5.92381
25271.9 6.08649
25274.2 6.48891
25275.4 6.94199
25276.5 7.86813
25277.1 8.72636
25277.7 10.1354
25278.3 12.5864
25278.8 16.8715
25279.4 23.8132
25280.0 28.4368
25280.6 23.8932
25281.2 17.1248
25281.6 13.8608
25282.0 11.6576
25282.8 9.14863
25283.6 7.89420
25284.4 7.20277
25286.0 6.49873
25287.6 6.17322
25290.7 5.88401
25293.9 5.75869
25300.3 5.64460
25306.7 5.58647
25319.5 5.51428
25332.2 5.46041
25357.7 5.36952
25383.2 5.28865
25485.3 5.01460
25689.4 4.60069
25893.5 4.28479
25944.6 4.21604
25995.6 4.15224
26021.1 4.12409
26046.6 4.10402
26059.4 4.10377
26072.2 4.12850
26078.5 4.17139
26084.9 4.28764
26088.1 4.42742
26091.3 4.73554
26092.9 5.04715
26094.5 5.60572
26096.1 6.72183
26096.9 7.70653
26097.7 9.14200
26098.8 12.1705
26100.0 14.1499
26101.2 12.0725
26102.3 9.01801
26103.3 7.37120
26104.2 6.34963
26105.1 5.70220
26106.1 5.27752
26107.9 4.78168
26109.8 4.52163
26113.5 4.27175
26117.3 4.16019
26124.7 4.06294
26132.2 4.01983
26147.1 3.97640
26162.0 3.94967
26221.6 3.87216
26340.8 3.73762
26460.0 3.60971
26519.7 3.54728
26549.5 3.51958
26564.4 3.52502
26571.8 3.60871
26573.7 3.69741
26575.6 3.92532
26576.5 4.19639
26577.4 4.79147
26577.9 5.39562
26578.3 6.45155
26578.8 8.57575
26579.3 13.0497
26579.6 19.0039
26580.0 23.0667
26580.4 19.3669
26580.7 13.5046
26581.0 10.0920
26581.4 8.05004
26582.0 5.96369
26582.6 5.02297
26583.2 4.53075
26584.5 4.05867
26585.7 3.85046
26588.2 3.67189
26590.7 3.59789
26600.6 3.50752
26620.6 3.46179
26660.4 3.41325
26740.1 3.33125
26899.4 3.17591
27058.8 3.02788
27138.5 2.96269
27158.4 2.95142
27178.3 2.94969
27188.3 2.96007
27198.2 2.99760
27203.2 3.04814
27208.2 3.17200
27210.7 3.31325
27213.2 3.61384
27214.4 3.91079
27215.7 4.43220
27216.9 5.46322
27217.5 6.34557
27218.2 7.62949
27219.1 10.2873
27220.0 11.8961
27220.9 9.89440
27221.8 7.13761
27222.9 5.23856
27224.0 4.29091
27225.0 3.78618
27226.1 3.49543
27228.2 3.19839
27230.3 3.06063
27234.5 2.94295
27238.7 2.89572
27255.5 2.84059
27289.1 2.80576
27356.3 2.75108
27490.7 2.65868
27557.9 2.63664
27625.1 2.67469
27658.7 2.76361
27692.3 3.00627
27709.1 3.28069
27725.9 3.82226
27734.3 4.30000
27742.7 5.04186
27751.1 6.23591
27759.5 8.17572
27769.8 11.7449
27780.0 14.1989
27790.3 11.9013
27800.5 8.36747
27811.4 5.98285
27822.3 4.68291
27833.1 3.94655
27844.0 3.50027
27865.8 3.01411
27887.5 2.76882
27931.0 2.53369
27974.5 2.42240
28018.1 2.35780
28061.6 2.31717
28083.3 2.30469
28105.1 2.30378
28116.0 2.31783
28126.8 2.37333
28132.3 2.45704
28137.7 2.68989
28140.4 2.98863
28141.8 3.26169
28143.1 3.70982
28144.5 4.51227
28145.9 6.13585
28146.5 7.62442
28147.2 10.0401
28147.9 14.1722
28148.6 21.2670
28149.3 33.1090
28150.0 41.1632
28150.7 33.6960
28151.4 22.2194
28151.9 16.7228
28152.4 12.9653
28153.4 8.62516
28154.3 6.42407
28155.3 5.18775
28156.2 4.43205
28157.2 3.93851
28159.1 3.35552
28161.0 3.03725
28163.0 2.84418
28166.8 2.63087
28174.5 2.45471
28182.1 2.38309
28197.5 2.32220
28212.8 2.29403
28243.5 2.25945
28274.2 2.22187
28304.9 2.15414
28320.2 2.09412
28335.6 1.99967
28350.9 1.84253
28358.6 1.72407
28366.3 1.56422
28374.0 1.35016
28381.6 1.10742
28385.5 1.06243
28387.4 1.13124
28389.3 1.35410
28391.2 1.91862
28392.2 2.45207
28393.1 3.28398
28394.1 4.59660
28395.1 6.69946
28396.0 10.1129
28397.0 15.5719
28397.7 22.0410
28398.5 30.4778
28400.0 46.5285
28400.8 48.2909
28401.5 45.1442
28403.1 33.9401
28404.0 27.9646
28404.9 23.3907
28406.7 17.3024
28408.6 13.6798
28410.4 11.4016
28412.3 9.85978
28414.1 8.77358
28417.8 7.35882
28421.5 6.49188
28425.2 5.91652
28432.6 5.21513
28439.9 4.81479
28447.3 4.56607
28462.1 4.29522
28476.8 4.17758
28491.6 4.13987
28521.0 4.19858
28580.0 4.63200
28639.0 5.41498
28757.0 8.45683
28816.0 11.2042
28875.0 15.2811
28977.5 26.2143
29080.0 35.8088
29182.5 31.6296
29285.0 21.8932
29300.8 20.6013
29316.5 19.4243
29324.4 18.9106
29332.3 18.5363
29336.2 18.5046
29338.2 18.5922
29340.2 18.8265
29342.1 19.3609
29344.1 20.6036
29345.1 21.8306
29346.1 23.8844
29347.1 27.5863
29348.1 34.2912
29349.0 44.9692
29350.0 52.3048
29351.0 45.5317
29352.0 35.0464
29352.7 29.5508
29353.4 25.9431
29354.1 23.5648
29354.9 21.9483
29356.3 19.9773
29357.8 18.8638
29359.3 18.1612
29360.7 17.6773
29363.6 17.0403
29366.6 16.6175
29369.5 16.2961
29375.3 15.7951
29381.2 15.3836
29387.0 15.0163
29398.7 14.3540
29422.0 13.1930
29445.4 12.1781
29538.8 9.09742
29632.2 7.04625
29725.7 5.60780
29912.5 3.76584
30006.0 3.16883
30052.7 2.93126
30076.0 2.82811
30087.7 2.79043
30093.6 2.81856
30096.5 2.99002
30097.9 3.47414
30098.7 4.37961
30099.0 5.45915
30099.4 7.68517
30099.7 10.7408
30100.0 12.9595
30100.3 11.0018
30100.6 8.00711
30101.1 5.18473
30101.7 4.06990
30102.7 3.29666
30104.8 2.92255
30108.9 2.76989
30117.2 2.69416
30133.8 2.62280
30167.0 2.51998
30233.3 2.38534
30366.1 2.41018
30432.4 2.59984
30498.8 2.91770
30532.0 3.11253
30548.6 3.21371
30565.1 3.31870
30581.7 3.44833
30590.0 3.55025
30598.3 3.72812
30606.6 4.10576
30614.9 5.06398
30619.1 6.10843
30623.2 8.03767
30627.4 11.8184
30631.5 19.4767
30635.8 34.1158
30640.0 49.1689
30644.3 46.9376
30648.5 35.6543
30651.2 29.5966
30653.9 25.0609
30659.3 19.2518
30664.7 15.9835
30670.1 14.0198
30675.5 12.7665
30680.9 11.9371
30691.8 10.9862
30702.6 10.5500
30713.4 10.3909
30735.0 10.5231
30759.7 11.0846
30784.4 11.9165
30833.8 14.1653
30932.5 20.5222
31130.0 35.3837
31228.8 38.7384
31327.5 37.9486
31525.0 30.5787
31599.8 27.5779
31674.5 24.8136
31711.9 23.5224
31749.3 22.2835
31767.9 21.6936
31777.3 21.4214
31786.6 21.1927
31796.0 21.0795
31800.7 21.1291
31805.3 21.3388
31810.0 21.8836
31814.7 23.2115
31817.0 24.5122
31819.3 26.6391
31821.7 30.2428
31824.0 36.3344
31827.0 49.2301
31830.0 60.7619
31833.0 56.1813
31836.0 44.9094
31839.0 36.8516
31841.9 31.9273
31844.8 28.8595
31847.8 26.8461
31853.7 24.4356
31859.5 23.0693
31865.4 22.1827
31871.3 21.5515
31883.1 20.6772
31894.8 20.0611
31906.6 19.5740
31930.1 18.7928
31977.2 17.5706
32024.3 16.5541
32118.4 14.8469
32212.5 13.4651
32306.6 12.4539
32400.8 12.1605
32447.8 12.6219
32494.9 13.9739
32541.9 17.0878
32589.0 23.6983
32644.5 39.0996
32700.0 56.8355
32755.5 56.5757
32811.0 45.0331
32863.4 35.6443
32915.8 29.2320
32968.2 24.8852
33020.7 21.8173
33125.5 17.7815
33230.3 15.1436
33335.1 13.0911
33387.5 12.1298
33440.0 11.1308
33492.4 10.0109
33518.6 9.37114
33544.8 8.66083
33571.0 7.88998
33597.2 7.18766
33610.3 7.02769
33623.4 7.28222
33636.5 8.55243
33649.6 12.2406
33657.2 16.4863
33664.8 22.9020
33680.0 39.0517
33695.2 44.4913
33710.4 39.0981
33723.5 33.5983
33736.6 29.3071
33749.7 26.1526
33762.8 23.8183
33789.0 20.6733
33815.1 18.6830
33841.3 17.3123
33867.5 16.3067
33919.9 14.9114
33972.3 13.9675
34024.6 13.2686
34129.4 12.2665
34234.1 11.5498
34338.8 10.9900
34548.3 10.1333
34967.3 8.93202
35386.2 8.02894
35805.2 7.22034
36014.6 6.80174
36224.1 6.33679
36433.6 5.77658
36538.3 5.43612
36643.1 5.03790
36747.8 4.57812
36800.2 4.34093
36852.5 4.14014
36904.9 4.08455
36957.3 4.51217
36983.5 5.20004
37009.6 6.59823
37035.8 9.37822
37062.0 14.8120
37079.0 20.6305
37096.0 28.5920
37130.0 45.4007
37164.0 46.8610
37198.0 37.6310
37229.7 29.8335
37261.3 24.4311
37293.0 20.7741
37324.7 18.2303
37388.0 15.0198
37451.3 13.1222
37514.7 11.8832
37578.0 11.0128
37704.6 9.86726
37831.3 9.13778
37957.9 8.62303
38211.3 7.92065
38464.6 7.43721
38717.9 7.06145
39224.5 6.45627
39731.1 5.90298
39984.4 5.60367
40237.8 5.25820
40491.1 4.82296
40617.7 4.54771
40744.4 4.21319
40871.0 3.80042
40934.4 3.56414
40997.7 3.32234
41061.0 3.12464
41124.4 3.14033
41156.0 3.37951
41187.7 3.97782
41219.3 5.28151
41251.0 7.94415
41273.3 11.1580
41295.5 15.7830
41340.0 26.5368
41384.5 29.0259
41429.0 24.4783
41457.4 21.3767
41485.7 18.8288
41542.4 15.2704
41599.2 13.0602
41655.9 11.6059
41712.6 10.5907
41769.3 9.84589
41882.8 8.82698
41996.2 8.15728
42109.6 7.67569
42336.5 7.00252
42563.4 6.51117
42790.3 6.07065
42903.7 5.82967
42960.4 5.69088
43017.1 5.52817
43073.9 5.32158
43102.2 5.18874
43130.6 5.02113
43158.9 4.79386
43173.1 4.64299
43187.3 4.45308
43201.5 4.20865
43215.7 3.91018
43222.7 3.78667
43229.8 3.85255
43233.4 4.13738
43236.9 4.90866
43240.5 6.91385
43242.2 8.92431
43244.0 12.1658
43247.0 21.7802
43250.0 32.8070
43253.0 32.8515
43256.0 25.9927
43258.7 20.7371
43261.3 17.1099
43263.9 14.6439
43266.6 12.9232
43271.9 10.7513
43277.1 9.47278
43282.4 8.64366
43287.7 8.06595
43298.3 7.31460
43308.8 6.84330
43319.4 6.51517
43340.5 6.07112
43361.6 5.76262
43382.8 5.51444
43425.0 5.07605
43467.3 4.60944
43488.4 4.33506
43509.5 4.01990
43530.6 3.66971
43541.2 3.50269
43551.8 3.38474
43562.3 3.41880
43572.9 3.89392
43578.2 4.52495
43583.4 5.69744
43588.7 7.83914
43594.0 11.6819
43598.0 16.3293
43602.0 22.7469
43610.0 36.5656
43618.0 38.1944
43626.0 30.9768
43633.2 24.9584
43640.3 20.6830
43647.5 17.7347
43654.6 15.6561
43668.9 13.0028
43683.2 11.4230
43697.5 10.3891
43711.8 9.66476
43740.4 8.72041
43769.0 8.13070
43797.6 7.72539
43854.8 7.19697
43911.9 6.85908
43969.1 6.61722
44083.5 6.27761
44197.9 6.03270
44312.3 5.83248
44541.0 5.48365
44769.8 5.12815
44884.1 4.92076
44998.5 4.67031
45112.9 4.34169
45170.1 4.12782
45227.3 3.86190
45284.4 3.52260
45313.0 3.32009
45341.6 3.10133
45370.2 2.89754
45398.8 2.83637
45413.1 2.98795
45427.4 3.45638
45441.7 4.61579
45456.0 7.26051
45464.5 10.0716
45473.0 14.0726
45490.0 23.1924
45507.0 25.0336
45524.0 20.9295
45543.0 16.4842
45562.0 13.5274
45581.0 11.6059
45600.0 10.3017
45619.0 9.37101
45638.0 8.67629
45676.0 7.70474
45714.0 7.04512
45752.0 6.55062
45828.0 5.79416
45904.0 5.12647
45942.0 4.76676
45980.0 4.35602
46018.0 3.86352
46037.0 3.57975
46056.0 3.27839
46075.0 2.99718
46094.0 2.87569
46103.5 3.00265
46113.0 3.42882
46122.5 4.44700
46132.0 6.60842
46139.0 9.42599
46146.0 13.6160
46160.0 23.9256
46174.0 27.1197
46188.0 23.4581
46202.9 19.1424
46217.8 16.0848
46232.7 14.0180
46247.6 12.5812
46262.5 11.5422
46277.4 10.7625
46307.1 9.67765
46336.9 8.96143
46366.7 8.45301
46426.3 7.77540
46485.8 7.33886
46545.4 7.02951
46664.5 6.60977
46783.6 6.32811
46902.8 6.11850
47141.0 5.81178
47617.5 5.39312
48094.0 5.06752
48570.5 4.75922
49047.0 4.41764
49285.3 4.21191
49523.5 3.95915
49761.8 3.61970
49880.9 3.39276
50000.0 3.10227
50110.6 2.74737
50165.9 2.52975
50221.3 2.28596
50276.6 2.03831
50331.9 1.89171
50359.5 1.96705
50387.2 2.31318
50414.9 3.26108
50428.7 4.16123
50442.5 5.52041
50459.4 8.05199
50476.3 11.7439
50510.0 20.5475
50526.9 22.8799
50543.8 22.8979
50577.5 19.4469
50598.2 17.0886
50618.9 15.1132
50660.4 12.2915
50701.8 10.5006
50743.2 9.30619
50784.6 8.46537
50826.0 7.84557
50908.9 6.99501
50991.7 6.43654
51074.6 6.03761
51240.3 5.49170
51405.9 5.11738
51571.6 4.82691
51903.0 4.35412
52234.4 3.90966
52400.1 3.66677
52565.8 3.39146
52731.4 3.06631
52814.3 2.88174
52897.1 2.68975
52980.0 2.52525
53021.4 2.48918
53062.8 2.53823
53104.2 2.77892
53145.7 3.47055
53166.4 4.16670
53187.1 5.29379
53207.8 7.12041
53228.5 10.0542
53264.3 18.9246
53300.0 29.1424
53335.8 29.2192
53371.5 22.8821
53413.5 16.7422
53455.4 12.9995
53497.4 10.6986
53539.4 9.19413
53581.4 8.14815
53623.3 7.38163
53707.3 6.32797
53791.2 5.62174
53875.1 5.09502
54043.0 4.29321
54210.9 3.60517
54294.8 3.25643
54378.8 2.89004
54462.7 2.51254
54546.6 2.19865
54588.6 2.15843
54630.6 2.35395
54672.5 3.11388
54693.5 3.91732
54714.5 5.20000
54738.4 7.49765
54762.3 10.8981
54810.0 19.1755
54833.9 21.4590
54857.8 21.5836
54905.5 18.4858
54953.1 15.1080
55000.8 12.6541
55048.4 10.9511
55096.0 9.74028
55191.3 8.16127
55286.5 7.17792
55381.8 6.49502
55477.0 5.97903
55667.5 5.20312
55858.0 4.57061
55953.3 4.26410
56048.5 3.94820
56143.8 3.62274
56191.4 3.46884
56239.0 3.34944
56286.6 3.33588
56334.3 3.64392
56358.1 4.10310
56381.9 5.01266
56405.7 6.79226
56429.5 10.2334
56459.8 18.5833
56490.0 28.3326
56520.3 28.5774
56550.5 22.6748
56578.6 17.8865
56606.7 14.6121
56634.8 12.4091
56662.9 10.8805
56719.1 8.94830
56775.3 7.79552
56831.4 7.02916
56887.6 6.47699
57000.0 5.71163
57000.0 6.25311
57012.1 6.18054
57024.2 6.11055
57036.4 6.04307
57048.5 5.97781
57060.7 5.91458
57072.8 5.85326
57097.1 5.73596
57121.4 5.62463
57145.7 5.51854
57163.7 5.44245
57190.4 5.33392
57208.4 5.26319
57226.3 5.19397
57244.3 5.12618
57262.2 5.05950
57280.2 4.99383
57298.2 4.92899
57316.1 4.86475
57334.1 4.80113
57352.0 4.73773
57370.0 4.67464
57387.9 4.61167
57405.9 4.54871
57423.8 4.48546
57441.8 4.42194
57459.8 4.35803
57477.7 4.29353
57495.7 4.22836
57513.6 4.16231
57531.6 4.09528
57549.5 4.02707
57567.5 3.95759
57585.4 3.88674
57603.4 3.81433
57621.4 3.74004
57639.3 3.66390
57657.3 3.58561
57675.2 3.50507
57693.2 3.42208
57711.1 3.33637
57720.1 3.29259
57729.1 3.24793
57738.1 3.20269
57747.0 3.15658
57754.2 3.11922
57757.8 3.10039
57761.4 3.08137
57768.6 3.04303
57775.8 3.00422
57782.9 2.96484
57790.1 2.92507
57797.3 2.88483
57800.9 2.86448
57804.5 2.84412
57808.1 2.82358
57811.7 2.80294
57815.3 2.78222
57818.9 2.76140
57822.4 2.74038
57826.0 2.71938
57829.6 2.69829
57833.2 2.67710
57836.8 2.65583
57840.4 2.63457
57844.0 2.61312
57847.6 2.59168
57851.2 2.57025
57854.8 2.54873
57858.4 2.52723
57861.9 2.50574
57865.5 2.48426
57869.1 2.46280
57872.7 2.44135
57876.3 2.41992
57879.9 2.39871
57883.5 2.37751
57887.1 2.35644
57890.7 2.33558
57894.3 2.31484
57897.9 2.29432
57901.4 2.27412
57905.0 2.25415
57908.6 2.23460
57912.2 2.21538
57915.8 2.19658
57919.4 2.17821
57923.0 2.16046
57926.6 2.14325
57930.2 2.12677
57933.8 2.11093
57937.4 2.09602
57940.9 2.08204
57944.5 2.06901
57948.1 2.05721
57951.7 2.04656
57955.3 2.03736
57958.9 2.02960
57962.5 2.02349
57966.1 2.01934
57969.7 2.01704
57971.5 2.01682
57973.3 2.01710
57976.9 2.01953
57980.4 2.02462
57984.0 2.03258
57987.6 2.04381
57991.2 2.05852
57994.8 2.07710
57998.4 2.09988
58002.0 2.12724
58005.6 2.15970
58009.2 2.19766
58012.8 2.24163
58016.4 2.29210
58019.9 2.34990
58023.5 2.41551
58027.1 2.48965
58030.7 2.57303
58034.3 2.66664
58037.9 2.77130
58041.5 2.88791
58045.1 3.01758
58048.7 3.16131
58052.3 3.32021
58055.9 3.49567
58059.5 3.68871
58063.0 3.90073
58066.6 4.13312
58070.2 4.38708
58073.8 4.66411
58077.4 4.96530
58081.0 5.29205
58084.6 5.64533
58088.2 6.02624
58091.8 6.43534
58095.4 6.87311
58099.0 7.33983
58102.5 7.83484
58106.1 8.35761
58109.7 8.90649
58113.3 9.47971
58115.1 9.77450
58116.9 10.0743
58118.7 10.3790
58120.5 10.6874
58122.3 10.9987
58124.1 11.3139
58125.9 11.6310
58127.7 11.9500
58129.5 12.2689
58131.3 12.5886
58133.1 12.9083
58134.9 13.2267
58136.7 13.5421
58138.5 13.8553
58140.2 14.1643
58142.0 14.4692
58143.8 14.7689
58145.6 15.0624
58147.4 15.3488
58149.2 15.6270
58150.1 15.7630
58151.0 15.8980
58152.8 16.1588
58154.6 16.4105
58156.4 16.6520
58158.2 16.8823
58158.4 16.9052
58158.6 16.9271
58158.7 16.9500
58158.9 16.9720
58159.1 16.9939
58159.3 17.0158
58159.5 17.0377
58159.6 17.0596
58159.8 17.0805
58160.0 17.1024
58160.2 17.1233
58160.4 17.1452
58160.5 17.1661
58160.7 17.1870
58160.9 17.2079
58161.1 17.2288
58161.3 17.2487
58161.4 17.2696
58161.6 17.2895
58161.8 17.3104
58163.6 17.5063
58165.4 17.6899
58167.2 17.8615
58169.0 18.0199
58170.8 18.1661
58172.6 18.2993
58174.4 18.4203
58176.2 18.5292
58178.0 18.6250
58179.8 18.7087
58181.5 18.7803
58183.3 18.8399
58185.1 18.8883
58186.9 18.9257
58188.7 18.9531
58190.5 18.9694
58192.3 18.9767
58193.2 18.9763
58194.1 18.9739
58195.9 18.9622
58197.7 18.9424
58199.5 18.9136
58201.3 18.8777
58203.1 18.8349
58204.9 18.7851
58206.7 18.7293
58210.3 18.5998
58213.9 18.4503
58217.5 18.2839
58221.0 18.1027
58224.6 17.9096
58228.2 17.7077
58231.8 17.4989
58235.4 17.2843
58239.0 17.0659
58242.6 16.8456
58246.2 16.6235
58249.8 16.4026
58253.4 16.1819
58257.0 15.9633
58260.5 15.7469
58264.1 15.5337
58267.7 15.3236
58271.3 15.1176
58274.9 14.9148
58278.5 14.7161
58282.1 14.5225
58285.7 14.3331
58289.3 14.1477
58292.9 13.9675
58296.5 13.7914
58300.1 13.6193
58303.6 13.4524
58307.2 13.2896
58310.8 13.1308
58314.4 12.9771
58318.0 12.8265
58321.6 12.6810
58325.2 12.5385
58328.8 12.4001
58332.4 12.2658
58336.0 12.1355
58339.6 12.0083
58343.1 11.8841
58346.7 11.7640
58350.3 11.6469
58353.9 11.5328
58357.5 11.4218
58361.1 11.3139
58364.7 11.2090
58368.3 11.1061
58371.9 11.0062
58375.5 10.9094
58379.1 10.8147
58382.6 10.7229
58386.2 10.6332
58389.8 10.5455
58393.4 10.4598
58397.0 10.3762
58400.6 10.2945
58404.2 10.2159
58407.8 10.1384
58411.4 10.0628
58415.0 9.98896
58418.6 9.91684
58422.1 9.84654
58425.7 9.77775
58429.3 9.71058
58432.9 9.64493
58436.5 9.58079
58440.1 9.51807
58443.7 9.45666
58447.3 9.39666
58450.9 9.33797
58454.5 9.28050
58458.1 9.22424
58461.6 9.16919
58465.2 9.11525
58468.8 9.06242
58472.4 9.01070
58476.0 8.95999
58479.6 8.91039
58483.2 8.86170
58486.8 8.81401
58490.4 8.76714
58494.0 8.72127
58497.6 8.67631
58501.1 8.63216
58504.7 8.58881
58508.3 8.54638
58511.9 8.50464
58515.5 8.46372
58519.1 8.42350
58522.7 8.38398
58529.9 8.30707
58537.1 8.23288
58544.2 8.16121
58551.4 8.09196
58558.6 8.02492
58562.2 7.99226
58565.8 7.96010
58573.0 7.89730
58581.9 7.82154
58590.9 7.74870
58599.9 7.67858
58608.9 7.61108
58626.8 7.48302
58644.8 7.36372
58662.7 7.25217
58680.7 7.14746
58698.6 7.04919
58716.6 6.95656
58734.6 6.86915
58752.5 6.78637
58770.5 6.70791
58788.4 6.63337
58806.4 6.56256
58824.3 6.49495
58842.3 6.43047
58860.2 6.36870
58878.2 6.30964
58896.2 6.25299
58914.1 6.19865
58932.1 6.14632
58950.0 6.09600
58985.9 6.00068
59021.8 5.91169
59057.8 5.82842
59093.7 5.75006
59129.6 5.67613
59165.5 5.60611
59201.4 5.53970
59237.3 5.47641
59273.2 5.41612
59309.1 5.35834
59327.1 5.33031
59380.9 5.24971
59416.9 5.19845
59461.7 5.13688
59506.6 5.07793
59551.5 5.02128
59596.4 4.96663
59638.4 4.91730
59701.3 4.84615
59764.2 4.77811
59831.5 4.70817
59898.8 4.64105
59966.1 4.57633
60033.4 4.51381
60100.6 4.45310
60167.9 4.39420
60201.5 4.36540
60302.5 4.28110
60410.1 4.19442
60490.8 4.13143
60571.6 4.06996
60625.4 4.02987
60733.0 3.95131
60840.7 3.87516
60948.3 3.80112
61056.0 3.72939
61163.6 3.65977
61271.3 3.59246
61378.9 3.52766
61486.5 3.46568
61594.2 3.40670
61701.8 3.35125
61809.5 3.30001
61917.1 3.25369
62024.8 3.21330
62078.6 3.19571
62132.4 3.18014
62186.2 3.16667
62240.1 3.15570
62293.9 3.14745
62347.7 3.14221
62401.5 3.14039
62455.3 3.14237
62509.2 3.14857
62563.0 3.15959
62616.8 3.17603
62670.6 3.19868
62724.4 3.22837
62751.4 3.24612
62778.3 3.26597
62805.2 3.28814
62832.1 3.31281
62853.6 3.33446
62864.4 3.34584
62875.2 3.35781
62896.7 3.38307
62918.2 3.41034
62939.7 3.43971
62961.3 3.47139
62982.8 3.50547
62993.6 3.52347
63004.3 3.54207
63015.1 3.56137
63025.9 3.58138
63036.6 3.60218
63047.4 3.62359
63058.1 3.64590
63068.9 3.66892
63079.7 3.69284
63090.4 3.71756
63101.2 3.74318
63112.0 3.76971
63122.7 3.79723
63133.5 3.82567
63144.3 3.85510
63155.0 3.88564
63165.8 3.91719
63176.6 3.94994
63187.3 3.98379
63198.1 4.01894
63208.8 4.05520
63219.6 4.09287
63230.4 4.13184
63241.1 4.17221
63251.9 4.21399
63262.7 4.25738
63273.4 4.30227
63284.2 4.34876
63295.0 4.39696
63305.7 4.44687
63316.5 4.49869
63327.3 4.55231
63338.0 4.60804
63348.8 4.66577
63359.6 4.72562
63370.3 4.78777
63381.1 4.85223
63391.8 4.91910
63402.6 4.98848
63413.4 5.06056
63424.1 5.13546
63434.9 5.21317
63445.7 5.29389
63456.4 5.37782
63467.2 5.46507
63478.0 5.55582
63488.7 5.65009
63499.5 5.74818
63510.2 5.85028
63521.0 5.95660
63531.8 6.06723
63542.5 6.18248
63553.3 6.30255
63564.1 6.42764
63574.8 6.55804
63585.6 6.69408
63596.4 6.83593
63607.1 6.98401
63617.9 7.13861
63628.7 7.30004
63639.4 7.46870
63650.2 7.64489
63661.0 7.82912
63671.7 8.02178
63682.5 8.22337
63693.2 8.43430
63704.0 8.65518
63714.8 8.88650
63725.5 9.12876
63736.3 9.38267
63747.1 9.64884
63757.8 9.92796
63768.6 10.2209
63779.4 10.5282
63790.1 10.8505
63800.9 11.1879
63811.7 11.5433
63822.4 11.9159
63833.2 12.3065
63843.9 12.7172
63854.7 13.1470
63865.5 13.5989
63876.2 14.0719
63887.0 14.5681
63897.8 15.0873
63908.5 15.6307
63919.3 16.1972
63930.1 16.7888
63935.4 17.0942
63940.8 17.4056
63946.2 17.7220
63951.6 18.0455
63957.0 18.3740
63962.4 18.7085
63967.7 19.0481
63973.1 19.3937
63978.5 19.7433
63983.9 20.0980
63989.3 20.4577
63994.6 20.8204
64000.0 21.1872
64005.4 21.5570
64010.8 21.9298
64016.2 22.3037
64021.6 22.6785
64026.9 23.0544
64032.3 23.4293
64037.7 23.8033
64043.1 24.1742
64048.5 24.5422
64053.9 24.9051
64059.2 25.2631
64064.6 25.6130
64065.2 25.6482
64065.7 25.6824
64066.2 25.7166
64066.8 25.7508
64067.3 25.7850
64067.8 25.8192
64068.4 25.8534
64068.9 25.8875
64069.5 25.9217
64070.0 25.9549
64070.5 25.9891
64071.1 26.0223
64071.6 26.0555
64072.2 26.0887
64072.7 26.1229
64073.2 26.1561
64073.8 26.1883
64074.3 26.2215
64074.8 26.2547
64075.4 26.2868
64080.8 26.6077
64086.1 26.9156
64091.5 27.2084
64096.9 27.4862
64102.3 27.7459
64107.7 27.9856
64113.1 28.2052
64118.4 28.4027
64123.8 28.5761
64129.2 28.7245
64134.6 28.8458
64140.0 28.9389
64145.4 29.0040
64150.7 29.0389
64153.4 29.0443
64154.8 29.0445
64156.1 29.0427
64161.5 29.0164
64166.9 28.9579
64172.3 28.8673
64177.6 28.7456
64183.0 28.5918
64185.7 28.5028
64188.4 28.4068
64193.8 28.1916
64199.2 27.9464
64204.6 27.6730
64209.9 27.3714
64220.7 26.6930
64231.5 25.9230
64242.2 25.0747
64253.0 24.1639
64263.8 23.2059
64274.5 22.2156
64285.3 21.2061
64296.1 20.1914
64306.8 19.1817
64317.6 18.1869
64328.3 17.2162
64339.1 16.2734
64349.9 15.3658
64360.6 14.4952
64371.4 13.6658
64382.2 12.8774
64392.9 12.1312
64403.7 11.4272
64414.5 10.7642
64425.2 10.1424
64436.0 9.55929
64446.8 9.01387
64457.5 8.50450
64468.3 8.02935
64479.0 7.58662
64489.8 7.17472
64500.6 6.79163
64511.3 6.43585
64522.1 6.10568
64532.9 5.79970
64543.6 5.51622
64554.4 5.25392
64561.2 5.09939
64570.2 4.90502
64579.2 4.72341
64593.5 4.45921
64607.9 4.22303
64622.2 4.01275
64636.6 3.82638
64650.9 3.66200
64665.3 3.51811
64679.6 3.39320
64693.9 3.28597
64708.3 3.19530
64722.6 3.12010
64737.0 3.05946
64751.3 3.01248
64765.7 2.97854
64780.0 2.95696
64794.3 2.94712
64797.9 2.94642
64808.7 2.94842
64823.0 2.96067
64837.4 2.98325
64851.7 3.01596
64866.0 3.05841
64880.4 3.11040
64894.7 3.17171
64909.1 3.24215
64923.4 3.32162
64937.8 3.40991
64952.1 3.50702
64966.4 3.61286
64980.8 3.72733
64995.1 3.85041
64998.7 3.88251
65009.5 3.98211
65023.8 4.12244
65038.2 4.27148
65066.8 4.59552
65095.5 4.95472
65124.2 5.34958
65152.9 5.78060
65181.6 6.24848
65210.3 6.75370
65238.9 7.29687
65267.6 7.87838
65296.3 8.49822
65325.0 9.15660
65353.7 9.85300
65382.4 10.5870
65411.1 11.3557
65439.7 12.1603
65468.4 12.9960
65497.1 13.8596
65511.4 14.3020
65525.8 14.7493
65540.1 15.2026
65554.5 15.6599
65568.8 16.1212
65583.2 16.5855
65597.5 17.0528
65611.8 17.5211
65626.2 17.9904
65640.5 18.4596
65654.9 18.9289
65669.2 19.3951
65683.6 19.8583
65697.9 20.3185
65712.2 20.7727
65726.6 21.2219
65740.9 21.6640
65755.3 22.0992
65769.6 22.5243
65783.9 22.9404
65798.3 23.3455
65812.6 23.7385
65827.0 24.1186
65841.3 24.4866
65855.7 24.8396
65857.1 24.8736
65858.5 24.9086
65860.0 24.9426
65861.4 24.9766
65862.8 25.0106
65864.3 25.0436
65865.7 25.0775
65867.1 25.1105
65868.6 25.1445
65870.0 25.1775
65871.4 25.2105
65872.9 25.2435
65874.3 25.2755
65875.7 25.3085
65877.2 25.3405
65878.6 25.3725
65880.0 25.4045
65881.5 25.4365
65882.9 25.4685
65884.3 25.4995
65898.7 25.8054
65913.0 26.0943
65927.4 26.3662
65941.7 26.6201
65956.1 26.8559
65970.4 27.0728
65984.7 27.2716
65999.1 27.4514
66013.4 27.6121
66027.8 27.7539
66042.1 27.8766
66056.4 27.9803
66070.8 28.0661
66085.1 28.1337
66099.5 28.1834
66113.8 28.2151
66128.2 28.2298
66135.3 28.2316
66142.5 28.2284
66156.8 28.2101
66171.2 28.1757
66185.5 28.1273
66199.9 28.0629
66214.2 27.9855
66228.6 27.8942
66242.9 27.7908
66271.6 27.5460
66300.3 27.2582
66329.0 26.9314
66357.6 26.5696
66386.3 26.1788
66415.0 25.7620
66443.7 25.3233
66472.4 24.8675
66501.1 24.3968
66529.7 23.9151
66558.4 23.4235
66587.1 22.9268
66615.8 22.4252
66644.5 21.9206
66673.2 21.4161
66701.8 20.9115
66730.5 20.4090
66759.2 19.9095
66787.9 19.4131
66816.6 18.9207
66845.3 18.4323
66874.0 17.9499
66902.6 17.4726
66931.3 17.0003
66960.0 16.5340
66988.7 16.0737
67017.4 15.6185
67046.1 15.1692
67074.7 14.7251
67103.4 14.2869
67132.1 13.8537
67160.8 13.4266
67189.5 13.0035
67218.2 12.5845
67246.9 12.1714
67275.5 11.7614
67304.2 11.3564
67332.9 10.9545
67361.6 10.5575
67390.3 10.1636
67419.0 9.77274
67447.6 9.38570
67476.3 9.00188
67505.0 8.62149
67509.8 8.55843
67513.5 8.50996
67535.5 8.22076
67557.6 7.93348
67579.6 7.64852
67601.6 7.36568
67623.7 7.08537
67645.7 6.80768
67667.8 6.53292
67689.8 6.26119
67711.9 5.99298
67733.9 5.72880
67756.0 5.46896
67778.0 5.21405
67800.0 4.96487
67822.1 4.72213
67844.1 4.48662
67866.2 4.25956
67888.2 4.04193
67910.3 3.83505
67932.3 3.64062
67954.4 3.46023
67976.4 3.29569
67998.4 3.14930
68020.5 3.02336
68031.5 2.96886
68042.5 2.92057
68053.6 2.87869
68064.6 2.84373
68075.6 2.81609
68086.6 2.79625
68097.6 2.78443
68108.7 2.78132
68109.0 2.78154
68119.7 2.78733
68130.7 2.80294
68141.7 2.82867
68152.8 2.86501
68163.8 2.91257
68174.8 2.97173
68185.8 3.04321
68196.8 3.12749
68207.9 3.22519
68218.9 3.33679
68229.9 3.46290
68240.9 3.60392
68252.0 3.76064
68263.0 3.93336
68274.0 4.12269
68285.0 4.32892
68296.0 4.55275
68307.1 4.79428
68318.1 5.05400
68329.1 5.33212
68340.1 5.62892
68351.2 5.94432
68362.2 6.27860
68373.2 6.63167
68384.2 7.00332
68395.2 7.39335
68406.3 7.80146
68417.3 8.22714
68439.3 9.12882
68461.4 10.0928
68483.4 11.1106
68494.4 11.6359
68505.5 12.1722
68516.5 12.7164
68527.5 13.2676
68538.5 13.8238
68549.6 14.3839
68560.6 14.9459
68566.1 15.2269
68571.6 15.5079
68582.6 16.0678
68593.6 16.6247
68604.7 17.1776
68615.7 17.7234
68626.7 18.2611
68637.7 18.7888
68648.8 19.3055
68659.8 19.8111
68670.8 20.3016
68681.8 20.7782
68692.8 21.2396
68703.9 21.6841
68714.9 22.1105
68725.9 22.5199
68736.9 22.9113
68748.0 23.2826
68759.0 23.6359
68760.1 23.6698
68761.2 23.7038
68762.3 23.7377
68763.4 23.7716
68764.5 23.8056
68765.6 23.8385
68766.7 23.8714
68767.8 23.9044
68768.9 23.9373
68770.0 23.9692
68771.1 24.0021
68772.2 24.0341
68773.3 24.0660
68774.4 24.0979
68775.5 24.1289
68776.6 24.1608
68777.7 24.1917
68778.8 24.2226
68779.9 24.2536
68781.0 24.2845
68792.0 24.5797
68803.1 24.8560
68814.1 25.1132
68825.1 25.3515
68836.1 25.5727
68847.2 25.7749
68858.2 25.9601
68869.2 26.1294
68880.2 26.2816
68891.2 26.4178
68902.3 26.5390
68913.3 26.6453
68924.3 26.7375
68935.3 26.8167
68946.4 26.8840
68957.4 26.9383
68968.4 26.9815
68979.4 27.0128
68990.4 27.0351
69001.5 27.0464
69012.5 27.0487
69023.5 27.0431
69034.5 27.0294
69045.6 27.0078
69056.6 26.9791
69078.6 26.9019
69100.7 26.8008
69122.7 26.6806
69144.8 26.5436
69166.8 26.3916
69188.8 26.2276
69210.9 26.0537
69232.9 25.8708
69255.0 25.6820
69277.0 25.4872
69299.1 25.2894
69321.1 25.0877
69343.2 24.8840
69365.2 24.6794
69387.2 24.4747
69409.3 24.2702
69431.3 24.0656
69453.4 23.8621
69475.4 23.6606
69497.5 23.4601
69519.5 23.2626
69541.6 23.0672
69563.6 22.8738
69585.6 22.6834
69607.7 22.4950
69629.7 22.3106
69651.8 22.1283
69673.8 21.9490
69695.9 21.7726
69717.9 21.5993
69740.0 21.4290
69762.0 21.2618
69784.0 21.0965
69806.1 20.9352
69828.1 20.7770
69850.2 20.6208
69872.2 20.4685
69894.3 20.3183
69916.3 20.1711
69938.4 20.0269
69960.4 19.8847
69982.4 19.7455
70000.0 19.6364
70000.0 19.7003
70000.0 19.7003
72500.0 14.3997
75000.0 9.11196
85000.0 6.75135
95000.0 5.43228
99999.9 5.65251
100000 5.65252
105000 5.87278
115000 5.46624
125000 3.88164
135000 3.74376
145000 8.66265
155000 4.70069
165000 9.20051
175000 5.16923
185000 3.86191
195000 6.01915
200000 6.30880
205000 6.59845
215000 8.39586
225000 3.83229
235000 7.04891
245000 6.58341
250000 5.99026
250000 5.99024
255000 5.39709
265000 3.39144
275000 5.87565
285000 6.38552
287680 6.14503
287685 6.14459
295000 5.48815
300000 5.18464
305000 4.88113
315000 4.19290
325000 4.30998
335000 5.31323
345000 4.38484
355000 5.79530
365000 4.41055
375000 3.77684
385000 3.61742
395000 3.62384
400000 2.89107
405000 2.15829
415000 2.63924
425000 4.04057
435000 5.92205
445000 4.63111
455000 4.61851
465000 4.57338
475000 4.15805
485000 3.35856
495000 3.61178
500000 3.75524
500000 3.75525
505000 3.89872
515000 4.10032
525000 3.54692
548630 2.80748
548634 2.80735
600000 1.20000
600226 1.23333
600867 1.83333
601269 3.11667
601571 4.28333
602074 2.85000
602175 2.56667
602276 2.48333
602730 2.60000
602831 2.73333
603538 3.31667
603741 3.83333
603943 4.60000
604196 5.90000
604450 6.98333
604551 7.05000
604754 5.58333
604956 4.20000
605363 3.85000
605769 3.73333
606024 3.81667
606533 4.10000
606787 4.53333
606940 5.00000
607298 5.91667
607553 6.48333
607706 6.50000
607808 6.26667
607961 5.76667
608217 4.83333
608422 4.70000
608678 4.71667
608883 4.85000
609396 6.13333
609601 6.25000
609652 5.98333
609909 5.08333
610166 4.80000
610320 5.01667
610680 6.38333
610989 7.55000
611093 7.26667
611402 5.93333
611723 4.96667
612497 4.23333
612731 4.16668
613584 4.16667
614051 3.85000
614440 3.65000
614830 3.21667
615220 3.21667
615533 3.03333
615924 2.81667
616240 2.86667
616501 3.35000
616709 3.50000
617023 3.45000
617128 3.31667
617389 2.96667
617756 2.20000
618070 2.20000
618174 2.41667
618479 3.45000
618792 3.83333
619108 3.58333
619424 3.46667
619660 3.50000
619892 3.61667
620445 4.65000
620608 4.73333
620713 4.70000
620924 4.36667
621135 4.15000
621663 5.23333
621822 5.25000
622140 4.85000
622457 3.56667
622669 3.25000
623040 2.93333
623624 2.55000
623943 2.53333
624156 2.70000
624581 2.91667
624847 3.11667
625167 3.63333
625434 3.15000
625700 2.83333
625860 2.78333
626021 3.01667
626395 3.95000
626930 5.86667
627091 6.25000
627252 6.38333
627412 6.13333
627680 5.35000
628056 4.28333
628432 4.03333
628647 3.70000
629077 2.71667
629292 2.33333
629670 2.75000
629993 2.18333
630101 1.90000
630424 1.70000
630694 1.75000
630856 1.96667
631073 2.30000
631776 3.96667
631993 4.40000
632209 4.03333
632318 3.86667
632660 4.16667
632905 5.36667
632986 5.88333
633122 6.41667
633231 5.55000
633421 4.11667
633808 2.56667
633917 2.26667
634353 2.10000
634540 2.45000
635101 3.33333
635917 3.43333
636082 2.98333
636355 2.93333
636793 3.00000
637232 3.36667
637451 2.75000
637780 2.53333
638126 2.91667
638436 3.45000
639014 3.60000
639428 4.01667
639978 5.05000
640255 6.05000
640365 6.18333
640531 6.05000
640697 5.66668
640974 4.78333
641085 4.58333
641583 4.46667
641805 4.45000
641921 4.66667
642586 4.95000
642809 4.58333
642920 4.45000
643199 4.20000
643477 4.35000
643755 4.51667
644089 4.75000
644312 4.80000
644480 4.26667
644703 4.05000
644982 3.91667
645206 3.93333
645373 4.01667
645765 4.65000
646045 4.93333
646213 4.96667
646381 4.33333
646676 3.86667
647665 3.36667
648171 3.40000
648425 3.23333
648762 3.15000
648931 3.28333
649184 3.45000
649845 5.68333
650297 5.53333
650410 6.00000
650750 6.53333
650864 6.41667
651033 6.25000
651146 5.96667
651657 5.45000
651770 5.01667
652290 3.93334
652717 3.55000
652973 3.36667
653400 3.23333
653742 3.13333
654067 3.16667
654202 3.26667
654659 4.30000
654944 5.06667
655116 5.26667
655173 5.10000
655345 4.36667
655631 3.78333
655975 3.98333
656205 3.76667
656376 3.31667
656917 2.60000
657423 2.10000
658026 1.85000
658460 1.61667
658860 1.40000
659091 1.40000
659322 1.46667
659668 1.66667
659784 1.93333
660131 2.36667
660420 2.70000
660652 4.00001
660941 5.45000
661057 5.91667
661231 5.88333
661463 5.70000
661695 4.86667
661997 4.25000
663279 3.26667
663542 3.21667
663892 2.80000
664155 2.65000
664858 2.61667
665209 3.33333
665559 4.33333
665736 4.33333
665917 3.98333
666327 2.43333
666620 1.81667
666797 1.63333
666860 1.61998
666860 1.61987
667031 1.58333
667208 1.55000
667973 3.13333
668326 2.11667
668503 1.56667
668680 1.50000
669034 1.46667
669388 1.55000
669565 1.73333
670039 2.51667
670512 4.16667
670867 5.11667
671223 4.15000
671401 4.13334
671816 3.25000
671995 3.08333
672233 3.26667
672470 3.73333
672946 5.13333
673363 4.65000
673542 4.81667
673780 4.78333
673960 4.30000
674198 4.03333
674437 4.26667
674556 4.41668
675095 5.73333
675214 5.56667
675694 4.66667
675813 4.38333
676653 4.56667
676893 4.81667
677554 5.21667
677674 5.05000
677915 4.36667
678156 4.01667
678337 3.85000
678639 3.80000
678880 3.45000
679242 3.13333
679846 3.31667
680390 3.56667
680753 4.00000
681178 3.75000
681785 4.10000
682149 3.66667
682547 3.63333
683000 3.66667
683822 3.86667
684611 4.06667
684981 4.31668
685348 4.23333
685531 3.93333
685898 3.36667
686389 3.70000
686757 4.13333
686880 4.23333
687065 4.10000
687249 3.81667
687556 3.55000
688884 3.18333
689438 3.08333
689663 3.10000
689911 3.36667
690163 3.91667
690287 4.23333
690906 5.15000
691216 5.63333
691340 5.56667
691650 5.08333
692022 3.46667
692332 3.31667
692519 3.36667
692954 4.23333
693328 5.18333
693577 5.53334
693639 5.36667
693950 4.00000
694325 2.61667
694575 2.06667
694949 1.78333
695200 1.76667
695450 1.85000
695825 3.46667
696095 5.10000
696220 5.68333
696314 5.66667
696439 5.21667
696662 4.45000
696976 3.80000
697416 2.73333
697981 2.23333
698233 1.90000
698547 1.25000
698736 1.06667
698862 1.06667
699051 1.36667
699556 2.56668
699935 3.55000
700000 3.58428
700567 3.88333
701516 4.23333
701707 4.58333
701897 4.58333
702087 4.38333
702341 4.56667
702722 5.25000
703103 5.45000
703230 5.65000
703485 5.66667
703803 5.56667
703867 5.31667
704249 5.08333
704441 4.55000
704759 3.61667
705014 3.13333
705270 3.11667
705525 3.58333
705717 3.58333
705845 3.46667
706102 3.15000
706357 3.11667
706485 3.20000
706998 4.55000
707191 5.21667
707319 5.33334
707639 4.58334
707961 4.61667
708282 5.23333
708603 5.50000
708797 4.53333
709376 3.15000
709570 2.76667
710150 2.48333
710537 2.60000
710926 3.15000
711055 3.33333
711378 2.53333
711637 2.01667
711960 1.73333
712479 2.50000
712869 2.91667
713454 3.16667
713714 2.85001
713980 2.71667
714240 2.63333
714566 3.00000
714956 3.06668
715283 2.55000
715414 2.53333
715739 2.93333
715935 2.90000
716540 2.06667
717032 2.05000
717720 1.68333
718114 1.51667
718704 1.48333
719297 1.53333
719790 1.95000
720574 2.15000
720838 2.66668
721300 3.08333
721697 3.23333
723012 3.58333
723411 3.50000
723709 3.26667
724706 2.86667
725506 2.51667
726106 2.55000
726607 2.70000
727309 3.10000
728289 3.40000
728557 3.08333
728759 2.65000
729094 2.53333
729431 2.71667
729632 3.03333
729901 3.05000
730035 2.85000
730237 2.46667
730507 1.98333
730776 1.93333
730978 1.96667
731653 2.51667
731855 2.88333
732193 3.28333
732599 2.38333
732937 1.71667
733140 1.53333
733479 1.73333
733615 2.13334
733954 3.55000
734224 4.06667
734428 3.36667
734836 2.21667
735175 1.73333
735720 1.21667
736265 1.10000
736810 0.916668
737015 1.11667
737424 1.28333
737560 1.13333
737902 1.15000
738176 1.16667
738518 1.65000
738792 2.36667
739134 2.90000
739477 3.23333
739614 3.18333
739820 3.06667
740233 2.65000
740644 2.48333
740988 2.58333
741264 2.45001
741471 2.06667
741677 1.98333
742159 1.16667
742573 0.983334
742925 0.921162
743547 0.921708
743962 0.922072
744794 2.56667
745209 3.35000
745695 2.11667
745834 1.88333
745973 2.01667
746460 2.76667
746599 2.76667
746947 2.11667
747225 1.91667
747434 2.00000
747923 2.81667
748132 3.00000
748341 2.90000
748830 2.31667
749250 2.08333
749530 2.20000
749810 2.86667
749950 2.96667
750000 2.96429
750000 2.96429
750300 2.95000
750511 2.70000
750721 2.46667
751002 2.36667
751142 2.41667
751564 3.21667
751915 4.31667
752056 4.48333
752267 4.40000
752548 3.98334
752830 3.23333
752971 3.11667
753112 2.86667
753323 2.76668
753606 2.28333
754241 2.25000
754383 2.41668
755639 3.16667
756277 3.30000
757662 3.86667
759265 3.95000
759479 3.76667
759686 3.68333
759865 3.71667
760154 4.11667
760655 4.75000
761013 5.03333
761370 4.60000
761729 4.30000
762159 4.63333
762446 4.85000
762662 4.71667
762878 4.38333
763380 4.05000
763884 3.88333
764317 4.00000
764677 3.81667
765037 3.76667
765832 2.91667
766194 2.76667
766484 2.38333
766991 2.18333
767425 1.55000
767933 1.28333
768369 1.26667
768586 1.38333
769096 1.75000
769460 2.36667
769829 3.06667
770663 3.11667
771320 3.21667
772088 3.41667
772746 3.21668
773516 3.23333
773981 3.33333
774208 3.50000
774502 3.56667
774943 3.20000
775238 3.46667
775827 5.13333
776122 5.56667
776565 4.41667
776934 3.63333
777229 3.28333
777673 3.28333
777896 3.33333
778487 3.65000
778635 3.28333
779228 2.68333
779451 2.75000
780120 3.40000
780566 2.73333
780715 2.55000
781161 2.50000
781682 2.66668
781831 2.90001
782279 3.10000
782876 2.15000
783176 1.88333
783475 1.95000
783550 2.11667
783849 2.56667
784223 2.76667
784598 2.50000
784973 2.33333
785198 2.38333
785648 2.81667
786025 3.71668
786250 3.91667
786475 4.05000
787002 3.21667
787379 3.10000
788661 3.11667
790024 3.23333
790478 3.35000
791085 4.75000
791312 5.08333
791540 4.93333
791616 4.60000
791844 4.31667
791996 4.40000
792224 4.63333
792604 5.30000
792909 5.50000
793214 4.81667
793366 4.51668
793595 4.40000
793747 4.13333
794129 3.66667
794587 3.16667
795046 3.15000
796424 2.61667
796885 2.00000
797268 1.66667
797652 1.75000
798267 1.98334
798498 1.88333
798805 1.95000
799731 2.96667
800000 3.26934
800000 3.26946
800116 3.40000
800657 5.00000
800812 5.30000
801044 5.15000
801276 4.80001
801508 4.46667
802057 4.03333
802755 3.66668
803298 3.63333
803764 3.38334
804153 3.35000
804464 3.43333
805009 3.61668
805243 3.48334
805399 3.26667
805867 3.20000
806335 3.20000
806882 3.43333
807351 3.68333
807586 3.33333
808056 3.11667
808291 3.08333
808684 3.30000
809076 3.91668
809312 3.98334
809704 4.01667
809994 3.73333
810292 3.45000
810871 3.50000
811579 3.48333
812170 3.25001
812533 3.21667
812692 3.03333
813087 2.95000
813562 3.03333
814036 4.26667
814274 4.56667
814512 4.60000
814750 4.28333
814909 3.78333
815306 2.76667
815704 2.40000
816259 2.40000
816498 2.23333
817453 1.68333
818172 1.16667
818412 0.976713
818811 0.976852
819131 1.00000
819291 1.21667
819611 1.23333
820011 1.35000
820813 1.75000
821455 2.95000
821856 3.61667
822499 3.50000
822580 3.76667
822983 3.90000
823224 3.71667
823466 3.66668
823950 3.70000
824434 4.68333
824757 4.91667
824919 4.75000
825081 4.36667
825242 3.86667
825727 3.35000
826052 3.13334
826456 3.00001
827024 3.01667
827673 3.11667
828323 3.41667
828892 3.93333
829219 4.75000
829464 4.71667
829789 4.18333
830360 4.08333
830850 4.45000
831259 4.13333
831586 4.10000
832077 4.51667
832404 4.58333
832649 4.51667
833060 3.91667
833388 3.36667
833635 3.26667
833881 3.31667
834867 3.86667
835279 4.23333
835443 4.11667
835773 3.81667
836102 3.30000
836350 3.11667
836763 3.11667
837259 3.13333
837507 3.25000
837837 3.65000
838110 4.65000
838441 5.68333
838607 5.40000
838790 5.06667
839252 3.73333
839751 2.43333
840165 2.18333
840415 2.13333
840581 2.25000
840830 2.71667
841246 3.41668
842246 3.70000
842534 3.61667
843035 3.80000
843285 3.61667
844121 2.16667
844456 2.26667
844790 2.56667
845294 4.36667
845545 4.28333
846384 3.53333
847056 3.10000
847477 3.08333
848403 3.80000
848981 5.65001
849108 6.13333
849319 6.06668
849530 5.83333
850245 3.70000
851007 2.75000
852194 2.83333
852618 3.10000
853043 3.31667
853893 2.60000
854234 2.60000
854574 2.86667
854830 3.36668
855256 3.85000
855769 3.86668
856110 3.56668
856709 2.61667
857393 2.18333
857736 2.20000
857908 2.43333
858337 2.50000
858937 2.36667
859109 2.00000
859796 1.85000
860571 2.05000
861260 1.83333
862468 1.86667
862901 1.70000
863940 1.26667
864546 1.55000
865414 2.25000
865761 2.30000
866572 4.06667
866834 4.43334
866921 4.56667
867051 4.51667
867138 4.25000
867635 2.61668
868071 2.01667
868595 1.80000
869644 2.08333
870257 2.38334
870958 3.38333
871221 3.43333
871660 2.91667
872011 2.78334
872274 3.11667
872626 3.21667
873066 3.70000
873330 3.66667
873857 2.83334
874122 2.78333
874484 2.83333
875013 3.00000
875278 3.26667
875896 3.30000
876250 3.16667
876781 2.85001
877047 2.93333
877579 3.53333
877845 3.63333
878200 3.68333
878466 3.50001
879622 2.40000
880334 2.13333
881226 3.25000
881315 3.36667
881583 3.01667
882120 1.78333
882298 1.43333
882655 1.18333
883103 1.26667
883477 1.93333
884031 4.25000
884300 4.56667
884659 4.41667
885108 3.70000
885647 2.75000
886277 2.56667
887177 2.31667
887809 2.36668
888080 2.53334
889254 3.70001
889972 4.85000
890199 4.90001
890425 5.50000
890742 6.01667
891060 6.01667
891151 5.76667
891832 4.16667
892469 3.41667
892742 3.41667
893379 4.85000
893652 4.81667
894108 4.10000
894655 3.56667
895751 3.43333
896118 3.50000
896484 3.80001
896667 3.96667
897217 4.08333
897401 3.95000
897859 3.00001
898043 2.81667
898409 2.93333
898593 3.23333
899605 3.53334
900000 3.53333
900000 3.53333
900527 3.53333
901356 4.56668
902004 4.90001
902683 5.88333
902821 5.93333
902960 5.85000
903423 4.40000
903761 3.63333
904410 3.60000
904882 3.85000
905346 3.60000
905718 3.58333
906649 3.93333
907114 4.70000
908047 3.50000
908421 3.58334
909449 4.25001
910667 3.71667
911416 3.83333
911980 3.53333
914428 3.40000
915938 3.01667
916412 3.08334
916980 3.43333
917453 3.56667
918497 3.45000
919162 3.75000
919923 2.55000
920018 2.43333
920399 2.46667
921066 3.65000
922021 3.00000
922690 3.03333
923933 3.45000
924048 3.52308
924050 3.52449
924221 3.63334
924989 4.38334
925181 4.43334
925469 4.36668
925661 4.10000
926142 3.25001
926622 2.88334
927778 2.38334
928067 2.48333
928743 2.48333
929709 1.46667
930192 1.28333
930677 1.51667
931161 2.18333
931840 2.41668
933006 4.21667
934465 3.85000
935440 3.00000
936124 3.71667
937495 3.41668
938474 3.38333
939159 4.18333
939651 4.01668
940242 3.23333
941029 2.58333
941727 2.48334
942417 2.01668
942813 2.50000
943899 4.43334
944394 3.68333
945088 3.15001
945583 3.16668
946477 3.65000
947073 3.33334
947869 3.33333
948965 2.65000
949663 2.68334
950362 2.50001
951163 2.36667
951664 1.93333
952165 1.78333
952566 1.88333
953469 2.80001
953971 2.98333
955279 3.80000
956488 3.03334
958004 2.98334
958308 2.25000
958611 2.13333
959625 3.23333
960132 3.28333
961067 4.58333
961270 4.85000
961372 4.80001
961979 4.03333
962469 3.35001
962775 3.30000
963387 3.88333
963693 3.83333
964408 2.58334
964920 2.23334
965226 2.35000
965942 2.95000
966659 3.25000
967069 2.96668
967583 2.85000
967788 2.66667
968610 3.00000
968816 3.43333
969433 3.46667
969742 3.26667
970567 3.25001
971083 2.21667
972117 2.18333
972633 1.96667
972944 2.01667
973669 2.75001
973876 2.85000
974084 2.76668
974914 2.28334
975225 2.15000
976161 2.16667
976890 2.58334
977411 2.26668
978642 2.28334
979105 2.68334
979475 3.28333
980117 4.40000
981478 4.71667
982214 3.90001
982739 3.68333
983678 4.50001
984046 4.66667
984204 4.48333
984901 3.26667
985956 3.46668
986695 2.91668
987753 2.25001
988283 2.23334
988601 2.41668
989451 3.11667
990620 3.85001
991151 4.01667
992110 3.20001
992857 3.38334
993604 3.20001
994353 2.56668
994781 2.60000
996066 3.31667
996603 2.93333
997569 2.73334
997891 2.35000
998107 2.25001
998430 2.46668
999292 4.23333
999722 4.53333
999938 4.41668
1.00000E+06 4.29468
1.00037E+06 3.56668
1.00123E+06 3.10001
1.00188E+06 3.13334
1.00232E+06 2.96667
1.00286E+06 2.58333
1.00372E+06 2.65000
1.00459E+06 3.45000
1.00525E+06 3.76668
1.00590E+06 2.63333
1.00688E+06 2.20001
1.00731E+06 2.45000
1.00786E+06 3.66667
1.00830E+06 3.88333
1.00906E+06 3.33333
1.01005E+06 3.38333
1.01103E+06 3.21668
1.01202E+06 2.70000
1.01257E+06 2.31667
1.01466E+06 2.28333
1.01633E+06 3.58333
1.01660E+06 4.11667
1.01683E+06 4.33333
1.01700E+06 4.15000
1.01744E+06 3.03333
1.01834E+06 1.85000
1.01967E+06 2.10000
1.02049E+06 3.35000
1.02071E+06 3.48332
1.02099E+06 3.26667
1.02184E+06 1.83333
1.02218E+06 1.50000
1.02296E+06 1.46667
1.02441E+06 1.95000
1.02475E+06 2.18333
1.02542E+06 3.01667
1.02609E+06 3.43333
1.02676E+06 3.20000
1.02834E+06 3.36666
1.02924E+06 3.53333
1.03048E+06 4.06667
1.03059E+06 3.86667
1.03180E+06 2.59812
1.03180E+06 2.59497
1.03183E+06 2.56667
1.03217E+06 2.10000
1.03387E+06 2.21666
1.03478E+06 3.09999
1.03535E+06 2.73332
1.03580E+06 2.68332
1.03740E+06 3.24999
1.03797E+06 3.23332
1.03968E+06 2.75000
1.04071E+06 2.78333
1.04163E+06 2.66667
1.04197E+06 2.21667
1.04255E+06 1.78332
1.04312E+06 2.15000
1.04405E+06 4.95000
1.04422E+06 5.19999
1.04445E+06 5.38332
1.04451E+06 5.30000
1.04468E+06 4.83332
1.04509E+06 3.96666
1.04561E+06 3.81667
1.04613E+06 4.61666
1.04630E+06 4.38333
1.04688E+06 3.86667
1.04810E+06 3.18332
1.04868E+06 3.18332
1.05007E+06 2.54999
1.05100E+06 2.24999
1.05146E+06 2.38332
1.05181E+06 2.63332
1.05263E+06 4.13333
1.05298E+06 4.18333
1.05345E+06 3.58333
1.05357E+06 3.51667
1.05369E+06 3.46667
1.05474E+06 1.95000
1.05638E+06 1.58332
1.05755E+06 2.21666
1.05802E+06 2.00000
1.05837E+06 1.98333
1.05919E+06 2.88333
1.05990E+06 3.16667
1.06049E+06 2.91667
1.06084E+06 2.61667
1.06120E+06 2.51666
1.06167E+06 2.78332
1.06249E+06 3.43332
1.06344E+06 3.88333
1.06380E+06 3.63333
1.06439E+06 3.11667
1.06498E+06 2.88333
1.06593E+06 3.49999
1.06629E+06 3.58332
1.06652E+06 3.44999
1.06747E+06 1.71667
1.06771E+06 1.51667
1.06831E+06 1.88333
1.06890E+06 2.63333
1.06938E+06 2.74999
1.07010E+06 1.96667
1.07105E+06 2.01667
1.07273E+06 3.09999
1.07357E+06 3.21667
1.07429E+06 3.11667
1.07477E+06 3.34999
1.07501E+06 3.31666
1.07573E+06 2.83332
1.07657E+06 1.86667
1.07706E+06 1.56667
1.07742E+06 1.65000
1.07802E+06 2.28332
1.07887E+06 3.46667
1.07923E+06 3.51667
1.07972E+06 3.44999
1.08032E+06 2.98332
1.08068E+06 2.80000
1.08200E+06 3.28333
1.08255E+06 3.81667
1.08291E+06 4.75000
1.08334E+06 4.93333
1.08370E+06 4.86667
1.08401E+06 4.59999
1.08453E+06 4.26667
1.08562E+06 3.70000
1.08697E+06 3.74999
1.08782E+06 3.31667
1.08831E+06 3.31667
1.08917E+06 4.23332
1.08954E+06 4.38333
1.08991E+06 4.30000
1.09015E+06 4.05000
1.09089E+06 3.41666
1.09151E+06 3.58333
1.09249E+06 2.51666
1.09372E+06 1.90000
1.09508E+06 1.65000
1.09694E+06 2.10000
1.09732E+06 2.03333
1.09819E+06 1.76667
1.09943E+06 2.81667
1.10133E+06 3.08333
1.10157E+06 3.36667
1.10220E+06 3.76667
1.10257E+06 3.20000
1.10330E+06 2.76667
1.10417E+06 3.11667
1.10467E+06 3.05000
1.10530E+06 2.61667
1.10568E+06 2.25000
1.10618E+06 2.43332
1.10681E+06 3.40000
1.10744E+06 3.80000
1.10832E+06 3.40000
1.10920E+06 2.86667
1.10970E+06 2.98333
1.11097E+06 4.45000
1.11160E+06 3.79999
1.11223E+06 3.33333
1.11299E+06 3.18333
1.11362E+06 3.46667
1.11426E+06 4.41667
1.11464E+06 4.66667
1.11489E+06 4.65000
1.11565E+06 4.11667
1.11629E+06 3.55000
1.11743E+06 3.55000
1.11794E+06 3.81667
1.11820E+06 3.80000
1.11821E+06 3.79929
1.11846E+06 3.78332
1.11935E+06 2.71666
1.11999E+06 2.34999
1.12076E+06 2.56666
1.12165E+06 1.86666
1.12191E+06 1.73332
1.12255E+06 1.86666
1.12332E+06 2.58332
1.12435E+06 3.09999
1.12474E+06 3.11666
1.12499E+06 2.89999
1.12693E+06 2.93333
1.12757E+06 1.69999
1.12822E+06 1.33332
1.12886E+06 1.24999
1.12938E+06 1.33332
1.13005E+06 2.24999
1.13070E+06 3.38332
1.13109E+06 3.28332
1.13129E+06 3.04999
1.13148E+06 3.01666
1.13227E+06 2.50000
1.13305E+06 2.75000
1.13370E+06 2.98333
1.13501E+06 3.14999
1.13566E+06 3.59999
1.13592E+06 3.51666
1.13670E+06 3.13332
1.13775E+06 2.39999
1.13919E+06 1.79999
1.13985E+06 1.70000
1.14064E+06 1.91666
1.14143E+06 2.41666
1.14261E+06 3.48333
1.14314E+06 3.83333
1.14368E+06 4.03333
1.14394E+06 3.91666
1.14434E+06 3.55000
1.14513E+06 3.58333
1.14632E+06 4.26667
1.14659E+06 4.18333
1.14765E+06 3.11666
1.14831E+06 2.81666
1.14937E+06 3.35000
1.15044E+06 3.23332
1.15070E+06 3.39298
1.15074E+06 3.41750
1.15177E+06 4.04996
1.15244E+06 4.08329
1.15297E+06 3.43329
1.15377E+06 3.31663
1.15511E+06 4.23330
1.15605E+06 4.94996
1.15659E+06 5.24996
1.15685E+06 5.13330
1.15739E+06 4.54996
1.15847E+06 4.21664
1.15887E+06 3.93330
1.15995E+06 3.68330
1.16116E+06 2.63329
1.16143E+06 2.73329
1.16238E+06 3.11663
1.16332E+06 3.58330
1.16373E+06 3.29996
1.16427E+06 3.19997
1.16468E+06 3.23329
1.16495E+06 3.46663
1.16604E+06 4.78330
1.16644E+06 4.96664
1.16699E+06 4.14997
1.16808E+06 2.99997
1.16849E+06 2.91664
1.17026E+06 4.16664
1.17122E+06 4.21664
1.17204E+06 4.68330
1.17313E+06 4.14997
1.17396E+06 4.69997
1.17451E+06 4.33330
1.17561E+06 2.59997
1.17616E+06 1.99997
1.17726E+06 1.54997
1.17795E+06 1.44997
1.17864E+06 1.48330
1.17905E+06 1.61664
1.18016E+06 2.36664
1.18099E+06 2.63330
1.18168E+06 2.43330
1.18265E+06 2.64997
1.18321E+06 2.58330
1.18348E+06 2.44997
1.18462E+06 2.38330
1.18602E+06 2.98330
1.18748E+06 3.19998
1.18853E+06 2.89998
1.18958E+06 3.18331
1.19042E+06 3.23330
1.19147E+06 3.14998
1.19310E+06 2.63331
1.19367E+06 2.66665
1.19416E+06 3.31664
1.19472E+06 4.26665
1.19514E+06 4.46665
1.19543E+06 4.26664
1.19657E+06 2.84998
1.19875E+06 2.36664
1.20030E+06 2.99998
1.20116E+06 2.41665
1.20372E+06 2.84998
1.20400E+06 3.18331
1.20460E+06 3.19720
1.20462E+06 3.19760
1.20472E+06 3.19996
1.20557E+06 2.78329
1.20700E+06 3.14996
1.20829E+06 2.73329
1.20987E+06 2.83330
1.21116E+06 3.46663
1.21332E+06 3.76663
1.21389E+06 4.11663
1.21432E+06 4.61663
1.21461E+06 4.64997
1.21482E+06 4.48330
1.21511E+06 4.23330
1.21610E+06 3.13330
1.21741E+06 2.46664
1.21799E+06 2.31664
1.21842E+06 2.38330
1.21975E+06 2.96665
1.22106E+06 3.86665
1.22164E+06 3.89997
1.22266E+06 4.93331
1.22295E+06 5.03331
1.22332E+06 4.84998
1.22383E+06 4.49998
1.22448E+06 3.63331
1.22470E+06 3.43331
1.22500E+06 3.34998
1.22536E+06 3.39998
1.22565E+06 3.46665
1.22624E+06 3.93331
1.22705E+06 4.79998
1.22756E+06 5.71665
1.22771E+06 5.79998
1.22800E+06 5.61665
1.22866E+06 4.59998
1.22910E+06 4.36666
1.22925E+06 4.13331
1.22947E+06 4.13331
1.22976E+06 4.34999
1.22999E+06 4.68331
1.23028E+06 4.74999
1.23096E+06 3.83331
1.23162E+06 2.73332
1.23280E+06 2.01666
1.23369E+06 2.33332
1.23458E+06 2.34999
1.23605E+06 2.88332
1.23701E+06 4.04999
1.23776E+06 4.96666
1.23805E+06 5.09999
1.23820E+06 5.00000
1.23865E+06 4.51666
1.23887E+06 4.44999
1.23939E+06 3.88332
1.23963E+06 3.81667
1.24015E+06 3.83333
1.24104E+06 4.18332
1.24149E+06 4.01667
1.24239E+06 3.06666
1.24358E+06 2.58333
1.24418E+06 2.25000
1.24463E+06 2.25000
1.24493E+06 2.35000
1.24568E+06 2.71667
1.24673E+06 3.28333
1.24718E+06 3.33333
1.24793E+06 2.91667
1.24914E+06 2.91667
1.25000E+06 2.83306
1.25034E+06 2.80001
1.25065E+06 2.86667
1.25087E+06 3.01668
1.25162E+06 3.78333
1.25283E+06 4.43333
1.25404E+06 3.20001
1.25586E+06 2.95001
1.25662E+06 3.00000
1.25753E+06 3.33333
1.25921E+06 3.70000
1.25982E+06 3.56668
1.26089E+06 2.86667
1.26135E+06 2.76667
1.26226E+06 2.86668
1.26410E+06 3.48333
1.26548E+06 4.03333
1.26579E+06 3.95001
1.26665E+06 3.26668
1.26700E+06 3.30000
1.26761E+06 3.70001
1.26777E+06 4.00000
1.26823E+06 4.45000
1.26839E+06 4.33333
1.26900E+06 3.36668
1.26962E+06 2.53334
1.27051E+06 2.16667
1.27128E+06 2.30000
1.27361E+06 3.86667
1.27469E+06 4.21667
1.27594E+06 4.65000
1.27656E+06 4.45001
1.27687E+06 4.00000
1.27843E+06 2.68333
1.27921E+06 2.40000
1.27999E+06 2.45001
1.28063E+06 2.65000
1.28204E+06 4.60001
1.28243E+06 4.46667
1.28335E+06 3.68333
1.28460E+06 4.15000
1.28617E+06 3.81667
1.28775E+06 3.10001
1.28822E+06 3.03333
1.28933E+06 4.35000
1.28980E+06 4.48334
1.29059E+06 4.40001
1.29257E+06 4.98334
1.29368E+06 5.41667
1.29408E+06 5.55000
1.29423E+06 5.45000
1.29567E+06 4.66667
1.29678E+06 4.93333
1.29750E+06 3.96667
1.29878E+06 3.01668
1.29910E+06 2.88333
1.29950E+06 2.58333
1.30033E+06 2.71668
1.30129E+06 3.36668
1.30274E+06 3.90001
1.30322E+06 3.81667
1.30418E+06 3.11667
1.30467E+06 3.13333
1.30611E+06 3.53334
1.30692E+06 3.38333
1.30724E+06 3.15000
1.30805E+06 3.00000
1.30870E+06 3.06667
1.31064E+06 3.71667
1.31161E+06 3.33333
1.31307E+06 3.36667
1.31433E+06 3.13334
1.31480E+06 3.28333
1.31561E+06 4.53333
1.31618E+06 4.68334
1.31732E+06 4.08333
1.31781E+06 3.98333
1.31830E+06 4.10000
1.31936E+06 5.53333
1.31969E+06 5.80000
1.32018E+06 5.43333
1.32100E+06 3.90001
1.32206E+06 3.01667
1.32529E+06 3.01668
1.32678E+06 4.23333
1.32719E+06 4.30000
1.32744E+06 4.08333
1.32768E+06 3.70000
1.32859E+06 3.15000
1.32909E+06 3.03334
1.32934E+06 3.11667
1.33107E+06 3.95001
1.33157E+06 3.98333
1.33240E+06 5.00000
1.33257E+06 5.23333
1.33290E+06 5.30000
1.33315E+06 5.21668
1.33340E+06 4.85000
1.33406E+06 4.01667
1.33473E+06 3.58333
1.33680E+06 3.33333
1.33897E+06 3.30000
1.33997E+06 3.11667
1.34148E+06 2.93333
1.34166E+06 2.87500
1.34200E+06 2.92500
1.34316E+06 3.45000
1.34451E+06 4.21250
1.34560E+06 4.26250
1.34602E+06 4.60000
1.34670E+06 4.52500
1.34695E+06 4.30001
1.34746E+06 3.91250
1.34796E+06 3.60000
1.34813E+06 3.63750
1.34856E+06 3.88750
1.34923E+06 4.72501
1.34982E+06 5.17500
1.35008E+06 5.27500
1.35042E+06 5.18750
1.35118E+06 4.53750
1.35152E+06 4.23750
1.35177E+06 4.13750
1.35211E+06 4.23750
1.35271E+06 4.52500
1.35347E+06 4.73750
1.35415E+06 5.01250
1.35449E+06 4.86250
1.35526E+06 4.50000
1.35594E+06 3.77500
1.35714E+06 3.28750
1.35850E+06 3.02500
1.36038E+06 2.63750
1.36210E+06 2.83750
1.36416E+06 2.45000
1.36605E+06 2.00000
1.36709E+06 1.96250
1.36766E+06 2.00000
1.36800E+06 2.06250
1.36835E+06 2.23750
1.36904E+06 2.82501
1.36973E+06 3.70000
1.37034E+06 4.42500
1.37077E+06 4.73750
1.37103E+06 4.66250
1.37120E+06 4.51250
1.37189E+06 3.76250
1.37250E+06 3.02500
1.37302E+06 2.87500
1.37364E+06 3.11250
1.37469E+06 4.26250
1.37556E+06 4.28750
1.37712E+06 3.62500
1.37904E+06 3.57500
1.37939E+06 3.77500
1.37974E+06 3.78750
1.38044E+06 3.58750
1.38114E+06 3.91250
1.38237E+06 3.91250
1.38272E+06 3.80000
1.38342E+06 3.80000
1.38430E+06 4.01250
1.38483E+06 4.03750
1.38624E+06 3.10000
1.38712E+06 2.55000
1.38784E+06 2.61250
1.38890E+06 2.56250
1.39014E+06 3.25000
1.39120E+06 3.55000
1.39191E+06 3.40000
1.39332E+06 3.28750
1.39475E+06 2.77500
1.39760E+06 1.87500
1.40063E+06 2.88750
1.40206E+06 3.32500
1.40260E+06 3.20000
1.40368E+06 3.52500
1.40422E+06 3.53750
1.40547E+06 2.61250
1.40637E+06 2.21250
1.40709E+06 2.21250
1.40745E+06 2.35000
1.40872E+06 3.38750
1.40962E+06 3.21250
1.41051E+06 2.83749
1.41070E+06 3.11250
1.41106E+06 3.16250
1.41251E+06 3.62500
1.41342E+06 3.56250
1.41433E+06 3.00000
1.41542E+06 2.96250
1.41705E+06 2.71250
1.41887E+06 3.48750
1.41997E+06 3.16250
1.42180E+06 3.12500
1.42235E+06 2.96250
1.42271E+06 2.91250
1.42320E+06 2.93750
1.42436E+06 3.73750
1.42509E+06 4.58750
1.42610E+06 4.95000
1.42629E+06 4.63750
1.42721E+06 3.83750
1.42822E+06 3.27500
1.42891E+06 3.11250
1.43020E+06 3.13750
1.43093E+06 3.32500
1.43223E+06 4.47500
1.43482E+06 4.65000
1.43519E+06 4.32500
1.43649E+06 3.17500
1.43686E+06 2.98749
1.43910E+06 3.00000
1.44022E+06 3.58750
1.44134E+06 3.88750
1.44171E+06 3.62499
1.44264E+06 2.85000
1.44339E+06 2.48750
1.44396E+06 2.47499
1.44696E+06 2.71249
1.44902E+06 2.98750
1.44940E+06 3.30000
1.45053E+06 3.67499
1.45147E+06 3.73750
1.45185E+06 3.56249
1.45281E+06 3.72500
1.45357E+06 3.71250
1.45508E+06 3.05000
1.45660E+06 3.17499
1.45808E+06 2.88750
1.45853E+06 2.96250
1.46015E+06 3.96250
1.46072E+06 4.20000
1.46139E+06 3.59999
1.46305E+06 3.60000
1.46554E+06 4.17500
1.46630E+06 4.17500
1.46688E+06 3.82500
1.46803E+06 3.73749
1.46899E+06 3.98750
1.47226E+06 4.63750
1.47265E+06 4.67499
1.47419E+06 3.48750
1.47593E+06 3.20000
1.47709E+06 2.83750
1.47864E+06 2.90000
1.47909E+06 3.02417
1.47910E+06 3.02778
1.47981E+06 3.22500
1.48136E+06 4.38750
1.48195E+06 4.55002
1.48292E+06 3.71250
1.48351E+06 3.53750
1.48507E+06 2.98750
1.48683E+06 2.93750
1.48878E+06 3.17500
1.48937E+06 3.02501
1.49134E+06 3.08750
1.49271E+06 3.66250
1.49350E+06 3.60001
1.49449E+06 3.02500
1.49626E+06 3.20000
1.49705E+06 3.65000
1.49883E+06 3.55000
1.49923E+06 3.46250
1.49964E+06 3.46250
1.50000E+06 3.69884
1.50103E+06 4.37500
1.50153E+06 4.72501
1.50203E+06 4.66250
1.50252E+06 4.38751
1.50322E+06 4.08751
1.50382E+06 3.78750
1.50649E+06 3.86250
1.50709E+06 3.66251
1.50869E+06 2.95000
1.50989E+06 2.57501
1.51170E+06 2.21251
1.51471E+06 2.71251
1.51571E+06 3.25001
1.51652E+06 4.08750
1.51773E+06 3.77500
1.51835E+06 3.73750
1.52017E+06 3.70001
1.52139E+06 3.38750
1.52463E+06 3.20001
1.52646E+06 2.68751
1.52789E+06 2.47501
1.52932E+06 2.60000
1.52973E+06 2.86250
1.53054E+06 3.65001
1.53116E+06 3.82500
1.53177E+06 3.75001
1.53259E+06 3.21251
1.53361E+06 3.01251
1.53423E+06 3.02501
1.53484E+06 3.28750
1.53587E+06 3.28750
1.53690E+06 2.91251
1.53813E+06 2.80000
1.53896E+06 2.60001
1.54081E+06 2.87500
1.54164E+06 2.56251
1.54350E+06 2.56250
1.54633E+06 3.05000
1.54716E+06 3.55000
1.54788E+06 3.86251
1.54851E+06 4.25001
1.54903E+06 4.48751
1.55038E+06 4.20001
1.55059E+06 3.85001
1.55132E+06 3.47501
1.55262E+06 2.92500
1.55471E+06 3.11250
1.55534E+06 3.06250
1.55660E+06 2.62500
1.55722E+06 2.47501
1.55806E+06 2.52501
1.55953E+06 3.53751
1.56122E+06 3.83750
1.56185E+06 3.83750
1.56311E+06 3.56250
1.56396E+06 3.22500
1.56544E+06 2.83751
1.56607E+06 2.75001
1.56713E+06 3.35001
1.56819E+06 3.48751
1.57095E+06 3.48751
1.57244E+06 3.41251
1.57329E+06 3.12500
1.57371E+06 2.87500
1.57521E+06 2.72501
1.57627E+06 3.26251
1.57734E+06 3.45000
1.57798E+06 3.45001
1.57905E+06 3.20001
1.57991E+06 3.08750
1.58141E+06 3.05001
1.58291E+06 3.56250
1.58463E+06 3.22500
1.58567E+06 3.10000
1.58630E+06 3.37500
1.58684E+06 3.11250
1.58722E+06 3.05001
1.58758E+06 3.08750
1.58952E+06 3.47500
1.59060E+06 3.32501
1.59170E+06 3.11251
1.59279E+06 2.62501
1.59366E+06 2.37501
1.59474E+06 2.31251
1.59561E+06 2.03751
1.59692E+06 1.96251
1.59779E+06 2.02501
1.59888E+06 2.21251
1.60107E+06 2.30001
1.60194E+06 2.60000
1.60325E+06 3.03750
1.60457E+06 2.85000
1.60545E+06 2.61251
1.60611E+06 2.46251
1.60776E+06 2.41251
1.60812E+06 2.53751
1.60900E+06 3.01251
1.60988E+06 4.23750
1.61055E+06 4.90000
1.61099E+06 5.36251
1.61154E+06 5.46250
1.61187E+06 5.33750
1.61298E+06 4.57501
1.61342E+06 4.02501
1.61521E+06 4.12501
1.61698E+06 3.53751
1.61765E+06 3.35000
1.61898E+06 3.30001
1.62054E+06 3.33751
1.62143E+06 3.72501
1.62210E+06 3.80000
1.62254E+06 3.68751
1.62433E+06 3.06251
1.62540E+06 2.98750
1.62593E+06 3.03750
1.62627E+06 3.11251
1.62683E+06 3.68750
1.62772E+06 4.35000
1.62817E+06 4.47501
1.62862E+06 4.38751
1.62896E+06 3.96251
1.62963E+06 3.56251
1.63162E+06 2.51251
1.63568E+06 2.98750
1.63749E+06 2.96251
1.63907E+06 2.45001
1.63975E+06 2.52501
1.64088E+06 3.28750
1.64157E+06 3.45000
1.64202E+06 3.15001
1.64270E+06 2.65001
1.64338E+06 2.31251
1.64384E+06 2.28751
1.64429E+06 2.58750
1.64611E+06 3.45001
1.64726E+06 3.26251
1.64840E+06 2.86250
1.64886E+06 2.85000
1.65160E+06 3.21250
1.65297E+06 3.45001
1.65389E+06 3.42500
1.65550E+06 2.96251
1.65665E+06 3.33751
1.65965E+06 2.92501
1.66057E+06 2.68750
1.66126E+06 2.68751
1.66219E+06 2.90000
1.66358E+06 3.38751
1.66406E+06 3.72501
1.66708E+06 4.36250
1.66801E+06 4.26250
1.66987E+06 3.82501
1.67127E+06 3.97500
1.67197E+06 3.97501
1.67430E+06 3.67501
1.67571E+06 3.27501
1.67782E+06 3.96250
1.67876E+06 3.85001
1.67993E+06 3.16250
1.68111E+06 2.70001
1.68205E+06 2.91251
1.68417E+06 2.98750
1.68559E+06 3.05000
1.68748E+06 3.42500
1.68795E+06 3.28750
1.69151E+06 2.93751
1.69341E+06 2.38751
1.69483E+06 2.31251
1.69650E+06 2.55000
1.69722E+06 2.36251
1.69865E+06 2.38751
1.69961E+06 2.68750
1.70200E+06 3.85001
1.70344E+06 3.82500
1.70392E+06 4.03750
1.70512E+06 4.75000
1.70584E+06 4.53751
1.70777E+06 3.53751
1.70970E+06 3.63751
1.71066E+06 3.47501
1.71115E+06 3.47500
1.71236E+06 3.90000
1.71356E+06 4.31250
1.71429E+06 4.38750
1.71502E+06 4.30001
1.71672E+06 3.76250
1.71818E+06 3.73750
1.72110E+06 3.03751
1.72183E+06 3.03751
1.72232E+06 3.21250
1.72354E+06 3.18750
1.72549E+06 2.81250
1.72696E+06 3.12500
1.72868E+06 3.40000
1.73064E+06 2.77501
1.73138E+06 2.62501
1.73236E+06 2.60000
1.73310E+06 2.80000
1.73705E+06 3.18751
1.73952E+06 3.18751
1.74125E+06 3.66251
1.74349E+06 3.00000
1.74523E+06 2.63751
1.74748E+06 3.17501
1.74922E+06 2.96251
1.75000E+06 2.97669
1.75197E+06 3.01251
1.75322E+06 3.18750
1.75548E+06 2.57500
1.75649E+06 2.51251
1.75726E+06 2.55000
1.75927E+06 3.52501
1.76028E+06 3.36250
1.76281E+06 2.80001
1.76483E+06 2.47500
1.76914E+06 2.47500
1.77245E+06 3.38751
1.77449E+06 3.45001
1.77653E+06 3.40000
1.77730E+06 3.26250
1.77934E+06 2.90000
1.78165E+06 2.71251
1.78294E+06 2.97501
1.78371E+06 3.01250
1.78551E+06 2.75001
1.78783E+06 2.47500
1.78886E+06 2.55001
1.79352E+06 3.57500
1.79534E+06 4.53751
1.79638E+06 4.58750
1.79820E+06 4.21251
1.79950E+06 4.78750
1.80028E+06 4.72500
1.80132E+06 4.16251
1.80315E+06 3.96250
1.80577E+06 3.78750
1.80708E+06 3.90000
1.80892E+06 4.55000
1.81076E+06 4.40001
1.81155E+06 3.92501
1.81260E+06 3.72500
1.81471E+06 3.25001
1.81735E+06 3.40001
1.81841E+06 3.22501
1.81947E+06 2.80000
1.82159E+06 2.45001
1.82291E+06 2.48750
1.82504E+06 3.35000
1.82558E+06 3.31250
1.82771E+06 2.71250
1.82931E+06 2.50000
1.83038E+06 2.65000
1.83547E+06 2.55000
1.83735E+06 3.12500
1.83816E+06 3.08750
1.83869E+06 2.82500
1.84031E+06 2.77500
1.84139E+06 2.90000
1.84328E+06 2.67501
1.84409E+06 2.75001
1.84544E+06 3.67501
1.84598E+06 3.81250
1.84679E+06 3.70000
1.84788E+06 3.50000
1.84896E+06 2.88750
1.85032E+06 2.90000
1.85250E+06 3.20000
1.85359E+06 3.06250
1.85495E+06 3.00000
1.85659E+06 3.21250
1.85768E+06 3.13750
1.85959E+06 2.90001
1.86014E+06 3.17500
1.86096E+06 3.23750
1.86233E+06 3.12500
1.86386E+06 2.71250
1.86661E+06 2.41250
1.86771E+06 2.05000
1.87020E+06 2.12500
1.87130E+06 2.36250
1.87324E+06 2.15000
1.87407E+06 2.13750
1.87629E+06 2.48750
1.87712E+06 2.43750
1.87767E+06 2.26250
1.87962E+06 2.13750
1.88045E+06 2.27500
1.88296E+06 2.83750
1.88548E+06 2.83750
1.88603E+06 3.22501
1.88855E+06 3.57500
1.88940E+06 3.50000
1.89079E+06 3.30000
1.89276E+06 2.96250
1.89614E+06 3.02500
1.89811E+06 2.70000
1.89953E+06 3.03750
1.90179E+06 3.96250
1.90292E+06 4.00000
1.90406E+06 3.55000
1.90519E+06 3.20000
1.90832E+06 3.02500
1.90946E+06 3.11250
1.91117E+06 3.85000
1.91231E+06 3.78750
1.91374E+06 3.26250
1.91488E+06 2.93750
1.91602E+06 3.03751
1.91775E+06 3.28750
1.91861E+06 3.05000
1.92292E+06 2.52500
1.92436E+06 2.82500
1.92580E+06 2.80000
1.92753E+06 2.51250
1.92956E+06 2.18750
1.93187E+06 2.23750
1.93245E+06 2.37500
1.93390E+06 2.62501
1.93535E+06 2.37500
1.93623E+06 2.37500
1.93885E+06 2.85000
1.94002E+06 2.81250
1.94147E+06 3.01251
1.94206E+06 3.38751
1.94352E+06 3.47500
1.94469E+06 3.18750
1.94674E+06 3.28750
1.94909E+06 3.76250
1.94997E+06 3.48750
1.95144E+06 3.16250
1.95262E+06 2.52500
1.95380E+06 2.35000
1.95793E+06 2.12500
1.96178E+06 2.66250
1.96445E+06 2.53750
1.96624E+06 3.11251
1.96803E+06 3.00000
1.96833E+06 2.70000
1.96922E+06 2.56250
1.97161E+06 3.07500
1.97340E+06 3.28750
1.97460E+06 3.06250
1.97610E+06 3.05000
1.97760E+06 3.46250
1.98060E+06 3.92500
1.98302E+06 3.38750
1.98452E+06 2.73751
1.98603E+06 2.61250
1.98755E+06 3.06250
1.98967E+06 3.07500
1.99300E+06 3.10000
1.99452E+06 2.91250
1.99604E+06 3.22500
1.99787E+06 3.45000
1.99940E+06 2.90000
2.00000E+06 2.83249
2.00000E+06 2.83227
2.00062E+06 2.76250
2.00215E+06 3.22500
2.00429E+06 2.90000
2.00613E+06 2.66250
2.00705E+06 2.71250
2.00858E+06 3.20000
2.00951E+06 3.23750
2.01054E+06 3.02500
2.01259E+06 2.67501
2.01435E+06 2.66250
2.01581E+06 3.01250
2.01905E+06 3.36250
2.02022E+06 3.22500
2.02259E+06 2.73750
2.02436E+06 2.63750
2.02731E+06 3.43750
2.02850E+06 3.32500
2.02998E+06 2.80000
2.03266E+06 3.16250
2.03385E+06 3.78750
2.03534E+06 4.33750
2.03623E+06 4.22500
2.03712E+06 3.67500
2.03862E+06 3.17500
2.04101E+06 3.72500
2.04191E+06 3.77500
2.04370E+06 3.28749
2.04851E+06 3.20000
2.05001E+06 3.35000
2.05062E+06 3.32500
2.05242E+06 2.96250
2.05363E+06 2.81250
2.05514E+06 2.81250
2.05786E+06 3.20000
2.06120E+06 3.70000
2.06211E+06 3.56250
2.06393E+06 3.42500
2.06820E+06 3.21250
2.07064E+06 3.31250
2.07187E+06 3.41250
2.07463E+06 2.77499
2.07585E+06 2.53750
2.07830E+06 3.22500
2.07923E+06 3.33750
2.08015E+06 3.28750
2.08200E+06 2.85000
2.08324E+06 2.81250
2.08540E+06 3.08750
2.08663E+06 3.12499
2.08880E+06 2.67500
2.09035E+06 2.67499
2.09345E+06 3.42500
2.09470E+06 3.66250
2.09594E+06 3.44999
2.09719E+06 3.16250
2.09937E+06 2.82500
2.10031E+06 2.62500
2.10375E+06 2.47500
2.10531E+06 2.53750
2.10751E+06 3.16250
2.10876E+06 3.36250
2.10970E+06 3.26250
2.11160E+06 2.92500
2.11412E+06 2.71250
2.11696E+06 2.93750
2.12107E+06 2.97500
2.12361E+06 3.40000
2.12934E+06 3.85000
2.13157E+06 3.90000
2.13445E+06 3.47500
2.13637E+06 3.21249
2.13736E+06 3.27499
2.14154E+06 4.08750
2.14411E+06 3.43749
2.14604E+06 3.30000
2.14668E+06 3.43749
2.14895E+06 4.11250
2.15024E+06 3.96250
2.15186E+06 3.43750
2.15413E+06 2.91250
2.15803E+06 2.42500
2.16063E+06 2.87500
2.16357E+06 2.91249
2.16717E+06 2.75000
2.17044E+06 2.66250
2.17702E+06 2.67500
2.17867E+06 2.82500
2.17999E+06 3.43749
2.18164E+06 3.87499
2.18395E+06 3.40000
2.18528E+06 3.66250
2.18694E+06 3.58750
2.18893E+06 3.02499
2.19059E+06 2.88749
2.19293E+06 3.18750
2.19493E+06 2.97500
2.19660E+06 2.97500
2.19927E+06 3.52499
2.20195E+06 3.41249
2.20329E+06 2.89999
2.20598E+06 2.48749
2.21036E+06 3.48750
2.21137E+06 3.55000
2.21238E+06 3.41250
2.21407E+06 3.17500
2.21644E+06 3.02500
2.21983E+06 2.49999
2.22289E+06 2.46250
2.22527E+06 2.87499
2.22800E+06 3.08749
2.23175E+06 3.66250
2.23346E+06 3.75000
2.23655E+06 3.28750
2.23965E+06 2.84999
2.24205E+06 2.84999
2.24343E+06 3.07500
2.24516E+06 3.13750
2.24723E+06 2.92499
2.25000E+06 3.23573
2.25035E+06 3.27499
2.25346E+06 3.27499
2.25555E+06 3.02500
2.25729E+06 2.51250
2.26112E+06 3.53749
2.26426E+06 3.15000
2.26671E+06 3.52500
2.26847E+06 3.52500
2.27201E+06 3.40000
2.27870E+06 3.19999
2.28224E+06 2.60000
2.28365E+06 2.48749
2.28755E+06 3.07500
2.28933E+06 3.62499
2.29039E+06 3.73750
2.29146E+06 3.63750
2.29395E+06 2.99999
2.29609E+06 3.01250
2.29788E+06 3.66249
2.29967E+06 3.77499
2.30074E+06 3.72499
2.30182E+06 3.24999
2.30397E+06 2.96250
2.30613E+06 2.93750
2.30828E+06 3.58749
2.31044E+06 4.22499
2.31153E+06 4.36249
2.31224E+06 4.26250
2.31477E+06 3.62499
2.31622E+06 3.20000
2.31948E+06 3.67500
2.32129E+06 3.65000
2.32383E+06 2.92499
2.32492E+06 2.82499
2.32711E+06 2.92499
2.33186E+06 3.29999
2.33441E+06 3.67500
2.33698E+06 3.26249
2.33881E+06 3.03750
2.34322E+06 2.82500
2.34543E+06 2.94999
2.34765E+06 3.49999
2.34949E+06 3.71250
2.35356E+06 3.68749
2.35505E+06 3.50000
2.35801E+06 3.48749
2.36546E+06 3.57499
2.36883E+06 3.30000
2.37295E+06 3.05000
2.37558E+06 2.71250
2.37858E+06 2.49999
2.37972E+06 2.53750
2.38311E+06 3.03749
2.38576E+06 3.27499
2.39068E+06 3.27500
2.39334E+06 2.86250
2.39486E+06 2.81250
2.39600E+06 3.08750
2.39790E+06 3.86250
2.39981E+06 4.11249
2.40057E+06 4.02500
2.40248E+06 3.46249
2.40554E+06 3.03749
2.40938E+06 3.17500
2.41245E+06 3.36250
2.41476E+06 3.30000
2.41785E+06 2.92500
2.42016E+06 2.69999
2.42171E+06 2.54999
2.42291E+06 2.51250
2.42639E+06 3.32500
2.42911E+06 3.30000
2.43261E+06 3.27500
2.43729E+06 3.23749
2.43924E+06 3.79999
2.44159E+06 3.92500
2.44394E+06 3.76250
2.44551E+06 3.47500
2.44748E+06 3.37500
2.44945E+06 3.06250
2.45141E+06 3.28750
2.45456E+06 3.59999
2.45615E+06 3.86249
2.45812E+06 3.74999
2.45970E+06 3.45000
2.46129E+06 3.03750
2.46446E+06 3.39999
2.46803E+06 3.35000
2.47162E+06 3.53750
2.47362E+06 3.44999
2.47681E+06 3.18750
2.47842E+06 2.82499
2.48082E+06 2.56250
2.48403E+06 2.37500
2.48604E+06 2.50000
2.48926E+06 2.76250
2.49290E+06 3.58749
2.49370E+06 3.68750
2.49613E+06 3.63750
2.49735E+06 3.47499
2.50000E+06 3.34414
2.50140E+06 3.27499
2.50384E+06 3.06250
2.50546E+06 2.81249
2.50873E+06 3.30000
2.50995E+06 3.25000
2.51322E+06 2.71250
2.51649E+06 3.16250
2.51813E+06 3.37499
2.51936E+06 3.28750
2.52142E+06 2.78750
2.52265E+06 2.82500
2.52471E+06 3.02499
2.52635E+06 3.51250
2.52801E+06 3.68750
2.53007E+06 3.85000
2.53172E+06 3.71250
2.53420E+06 3.39999
2.53657E+06 3.31249
2.54155E+06 3.15000
2.54530E+06 3.12500
2.54780E+06 3.23750
2.55471E+06 3.53750
2.55785E+06 3.73750
2.56038E+06 3.72500
2.56416E+06 3.61250
2.56796E+06 3.37500
2.57304E+06 3.22500
2.57748E+06 2.97500
2.58030E+06 2.90000
2.58158E+06 2.91250
2.58457E+06 3.28749
2.58670E+06 3.52499
2.58755E+06 3.58749
2.58969E+06 3.43750
2.59312E+06 3.27500
2.59530E+06 3.13750
2.59917E+06 2.88750
2.60347E+06 3.20000
2.60649E+06 3.25000
2.61082E+06 3.78749
2.61212E+06 3.83750
2.61343E+06 3.78750
2.61646E+06 3.40000
2.62037E+06 3.47500
2.62648E+06 2.92500
2.62954E+06 3.40000
2.63304E+06 3.31251
2.63524E+06 3.01250
2.64008E+06 2.91250
2.64802E+06 2.85000
2.64979E+06 3.01250
2.65378E+06 3.06251
2.65511E+06 3.48750
2.65600E+06 3.66250
2.65733E+06 3.48750
2.66000E+06 3.03750
2.66133E+06 3.03750
2.66357E+06 3.25000
2.66670E+06 3.23751
2.66849E+06 3.07500
2.67162E+06 2.91250
2.67431E+06 2.85001
2.67521E+06 2.90000
2.67791E+06 3.26251
2.68016E+06 3.28750
2.68376E+06 3.60000
2.68738E+06 3.33750
2.68873E+06 3.28750
2.69100E+06 3.00000
2.69372E+06 2.46250
2.69599E+06 2.42500
2.69872E+06 3.00000
2.70055E+06 3.48751
2.70191E+06 3.93750
2.70328E+06 3.81251
2.70556E+06 3.32500
2.70830E+06 2.96250
2.71104E+06 2.72500
2.71448E+06 2.81250
2.71930E+06 3.10000
2.72553E+06 3.37501
2.72969E+06 3.53750
2.73317E+06 3.55001
2.73665E+06 3.30000
2.74154E+06 3.33750
2.74503E+06 3.63750
2.74713E+06 3.73751
2.75000E+06 3.35933
2.75064E+06 3.27501
2.75416E+06 2.93750
2.75698E+06 2.90000
2.75980E+06 2.91250
2.76121E+06 3.01251
2.76546E+06 3.32500
2.77183E+06 3.96251
2.77611E+06 3.40000
2.78039E+06 3.26251
2.78611E+06 3.46250
2.79185E+06 3.48750
2.79616E+06 2.92500
2.79977E+06 3.00000
2.80266E+06 3.17500
2.80989E+06 3.87500
2.81642E+06 3.85001
2.82087E+06 3.81250
2.82818E+06 3.17501
2.83406E+06 2.91250
2.83920E+06 2.88750
2.84364E+06 2.91250
2.84806E+06 2.90001
2.84955E+06 3.15000
2.85474E+06 3.52500
2.85771E+06 3.51250
2.86069E+06 3.42500
2.86516E+06 3.21250
2.86890E+06 3.33751
2.87265E+06 4.17500
2.87864E+06 3.50000
2.88392E+06 3.45000
2.88770E+06 3.17500
2.89526E+06 3.38751
2.90212E+06 3.31250
2.91203E+06 3.32500
2.91587E+06 3.52500
2.92047E+06 3.65000
2.92586E+06 3.40000
2.93203E+06 3.07500
2.93668E+06 3.48750
2.93978E+06 3.51250
2.94289E+06 3.25000
2.94912E+06 2.93750
2.95458E+06 3.05000
2.96164E+06 3.20000
2.96713E+06 3.27500
2.97186E+06 4.07500
2.97423E+06 4.22500
2.97898E+06 3.91250
2.98294E+06 3.70000
2.98612E+06 3.36250
2.98850E+06 3.12500
2.99170E+06 3.03750
2.99728E+06 3.28750
3.00000E+06 3.36255
3.00770E+06 3.57500
3.01010E+06 3.22500
3.01414E+06 3.26249
3.01897E+06 3.68750
3.02302E+06 3.22500
3.02829E+06 3.28750
3.03533E+06 3.17500
3.04294E+06 3.15000
3.04513E+06 3.60000
3.04731E+06 3.77500
3.04895E+06 3.66250
3.05004E+06 3.31250
3.05442E+06 3.15000
3.05716E+06 3.35000
3.05937E+06 3.81250
3.06156E+06 3.77500
3.06542E+06 3.22500
3.07309E+06 3.22500
3.08223E+06 3.10000
3.08974E+06 3.24999
3.09309E+06 3.23750
3.09729E+06 2.98750
3.10402E+06 2.87500
3.10993E+06 3.35000
3.11330E+06 3.33750
3.11507E+06 3.19999
3.12951E+06 3.16250
3.13635E+06 2.90000
3.14064E+06 3.17500
3.15182E+06 3.47500
3.16217E+06 2.96250
3.16999E+06 3.15000
3.18045E+06 2.86250
3.18482E+06 2.91250
3.18920E+06 3.61250
3.19359E+06 3.61250
3.19976E+06 3.51250
3.21302E+06 3.51249
3.22280E+06 3.11250
3.22726E+06 3.32500
3.23711E+06 3.32500
3.24340E+06 3.13750
3.25152E+06 3.32500
3.26784E+06 3.42499
3.27512E+06 3.15000
3.27787E+06 3.23749
3.28886E+06 3.37500
3.30084E+06 3.50000
3.30732E+06 3.41250
3.31195E+06 3.62500
3.31753E+06 3.41249
3.32218E+06 3.41249
3.32405E+06 3.67499
3.33155E+06 3.74999
3.33623E+06 3.39999
3.33904E+06 3.39999
3.34187E+06 3.58749
3.34847E+06 3.54999
3.35414E+06 3.26250
3.35887E+06 3.26250
3.36362E+06 3.46249
3.36647E+06 3.41250
3.38366E+06 3.38750
3.38847E+06 3.28749
3.39810E+06 3.71249
3.40390E+06 3.43749
3.41359E+06 3.23749
3.41942E+06 3.19999
3.42137E+06 3.06249
3.42577E+06 3.06249
3.43189E+06 3.72499
3.44826E+06 3.37499
3.45651E+06 3.81249
3.47308E+06 3.46249
3.48140E+06 3.38749
3.48307E+06 3.38749
3.49310E+06 3.54999
3.50000E+06 3.54999
3.52178E+06 3.55000
3.52857E+06 3.88749
3.54737E+06 3.63749
3.55596E+06 3.43749
3.56647E+06 3.68749
3.58558E+06 3.49999
3.59781E+06 3.71249
3.61365E+06 3.51249
3.63848E+06 3.39999
3.64742E+06 3.39999
3.67259E+06 3.88749
3.68345E+06 3.48750
3.69437E+06 3.33749
3.70167E+06 3.17499
3.71818E+06 3.34999
3.73480E+06 3.44999
3.75341E+06 3.81249
3.75902E+06 3.58750
3.77406E+06 3.52499
3.79675E+06 3.53749
3.83120E+06 3.46249
3.83891E+06 3.47499
3.85441E+06 3.74999
3.86609E+06 3.66249
3.87980E+06 3.48749
3.89950E+06 3.56249
3.90742E+06 3.56250
3.92135E+06 3.22499
3.93136E+06 3.43749
3.94336E+06 3.46249
4.00000E+06 3.40252
4.00239E+06 3.39999
4.02510E+06 3.33750
4.04176E+06 3.51250
4.05851E+06 3.67499
4.07114E+06 3.52499
4.08385E+06 3.47499
4.11155E+06 3.47500
4.12442E+06 3.59999
4.13952E+06 3.61249
4.15472E+06 3.41250
4.16561E+06 3.38750
4.18314E+06 3.57500
4.20298E+06 3.57500
4.23863E+06 3.62500
4.26566E+06 3.70000
4.28156E+06 3.50000
4.29983E+06 3.26250
4.31363E+06 3.53750
4.32286E+06 3.57500
4.33907E+06 3.77500
4.34601E+06 3.75000
4.35770E+06 3.62500
4.37198E+06 3.63750
4.41458E+06 3.56251
4.43607E+06 3.66250
4.45537E+06 3.82500
4.46990E+06 3.85000
4.48451E+06 3.78751
4.50000E+06 3.73288
4.51641E+06 3.67501
4.55364E+06 3.65001
4.63208E+06 3.60000
4.66038E+06 3.70001
4.67851E+06 3.81251
4.68894E+06 3.72501
4.69676E+06 3.47501
4.70988E+06 3.50000
4.72833E+06 3.90001
4.73625E+06 3.87500
4.74690E+06 3.81251
4.77093E+06 3.67501
4.80323E+06 3.65000
4.84680E+06 3.65001
4.86882E+06 3.52501
4.87990E+06 3.47500
4.89101E+06 3.50001
4.90493E+06 3.72500
4.91613E+06 3.68751
4.94709E+06 3.58751
4.96411E+06 3.63750
4.99839E+06 3.81250
5.00000E+06 3.80998
5.00000E+06 3.80997
5.03016E+06 3.76250
5.05051E+06 3.67500
5.08869E+06 3.73750
5.27984E+06 3.77500
5.46288E+06 3.75000
5.50000E+06 3.75340
5.73543E+06 3.77500
6.00000E+06 3.77500
6.02896E+06 3.77500
6.50000E+06 3.71788
6.54425E+06 3.71251
6.96001E+06 3.68749
7.00000E+06 3.68420
7.41645E+06 3.64999
7.50000E+06 3.63771
7.94976E+06 3.57165
7.94980E+06 3.57164
8.00000E+06 3.56426
8.00000E+06 3.56426
8.01201E+06 3.56250
8.50000E+06 3.48935
8.50000E+06 3.48935
8.76247E+06 3.45000
9.00000E+06 3.42300
9.00000E+06 3.42300
9.44247E+06 3.37272
9.44250E+06 3.37271
9.50000E+06 3.36617
9.50000E+06 3.36617
9.53232E+06 3.36249
1.00000E+07 3.30063
1.00047E+07 3.30001
1.00250E+07 3.29777
1.00253E+07 3.29774
1.08013E+07 3.21250
1.10000E+07 3.17516
1.13334E+07 3.11251
1.20000E+07 3.01350
1.23434E+07 2.96250
1.30000E+07 2.88043
1.40000E+07 2.75545
1.42435E+07 2.72500
1.45000E+07 2.70305
1.50000E+07 2.66026
1.60000E+07 2.57467
1.61422E+07 2.56250
1.70000E+07 2.50724
1.75000E+07 2.47503
1.78885E+07 2.45000
1.80000E+07 2.44722
1.90000E+07 2.42231
1.93940E+07 2.41250
2.00000E+07 2.36251
2.00000E+07 2.40739
2.10000E+07 2.38646
2.20000E+07 2.37434
2.20861E+07 2.37380
2.29124E+07 2.36982
2.30000E+07 2.36950
2.30708E+07 2.36924
2.33159E+07 2.36842
2.40000E+07 2.36637
2.41422E+07 2.36587
2.42884E+07 2.36523
2.45539E+07 2.36389
2.50000E+07 2.36186
2.57294E+07 2.36203
2.60000E+07 2.36403
2.64724E+07 2.37010
2.65444E+07 2.37123
2.70000E+07 2.37924
2.80000E+07 2.39840
2.83601E+07 2.40485
2.84962E+07 2.40727
2.86757E+07 2.41044
2.90000E+07 2.41616
3.00000E+07 2.43400
3.10000E+07 2.45305
3.15931E+07 2.46485
3.20000E+07 2.47302
3.22207E+07 2.47745
3.25976E+07 2.48498
3.30000E+07 2.49292
3.40000E+07 2.51185
3.43234E+07 2.51764
3.46061E+07 2.52254
3.50000E+07 2.52908
3.51812E+07 2.53198
3.53764E+07 2.53507
3.53764E+07 2.53507
3.55581E+07 2.53790
3.60000E+07 2.54463
3.70000E+07 2.55919
3.70005E+07 2.55920
3.80000E+07 2.57302
3.90000E+07 2.58635
3.99248E+07 2.59841
4.00000E+07 2.59938
4.10000E+07 2.61204
4.10970E+07 2.61323
4.20000E+07 2.62403
4.30000E+07 2.63526
4.30000E+07 2.63526
4.34123E+07 2.63964
4.37386E+07 2.64301
4.40000E+07 2.64563
4.40000E+07 2.64563
4.48651E+07 2.65386
4.48651E+07 2.65386
4.49062E+07 2.65423
4.49062E+07 2.65423
4.50000E+07 2.65507
4.54251E+07 2.65852
4.60000E+07 2.66214
4.70000E+07 2.66607
4.78129E+07 2.66759
4.80000E+07 2.66777
4.80000E+07 2.66777
4.87813E+07 2.66808
4.87813E+07 2.66808
4.90000E+07 2.66806
4.90000E+07 2.66806
5.00000E+07 2.66764
5.01752E+07 2.66752
5.01752E+07 2.66752
5.10000E+07 2.66655
5.20000E+07 2.66454
5.20000E+07 2.66454
5.24370E+07 2.66342
5.30000E+07 2.66178
5.30000E+07 2.66178
5.40000E+07 2.65845
5.40000E+07 2.65845
5.43309E+07 2.65724
5.50000E+07 2.65468
5.60000E+07 2.65077
5.66093E+07 2.64814
5.66093E+07 2.64814
5.69541E+07 2.64646
5.69541E+07 2.64646
5.70000E+07 2.64623
5.70000E+07 2.64623
5.80000E+07 2.64012
5.80000E+07 2.64012
5.85227E+07 2.63603
5.85227E+07 2.63603
5.90000E+07 2.63163
5.90000E+07 2.63163
6.00000E+07 2.62003
6.10000E+07 2.60605
6.10000E+07 2.60605
6.20000E+07 2.59110
6.20000E+07 2.59110
6.30000E+07 2.57553
6.30000E+07 2.57553
6.40000E+07 2.55965
6.40000E+07 2.55965
6.50000E+07 2.54373
6.58433E+07 2.53047
6.58457E+07 2.53043
6.58457E+07 2.53043
6.60000E+07 2.52803
6.60000E+07 2.52803
6.70000E+07 2.51261
6.70000E+07 2.51261
6.73259E+07 2.50764
6.73259E+07 2.50764
6.77110E+07 2.50180
6.77110E+07 2.50180
6.80000E+07 2.49743
6.80000E+07 2.49743
6.90000E+07 2.48245
6.90000E+07 2.48245
7.00000E+07 2.46764
7.00000E+07 2.46764
7.10000E+07 2.45285
7.10000E+07 2.45285
7.20000E+07 2.43803
7.20000E+07 2.43803
7.30000E+07 2.42326
7.30000E+07 2.42326
7.40000E+07 2.40859
7.40000E+07 2.40859
7.50000E+07 2.39410
7.50000E+07 2.39410
7.60000E+07 2.37966
7.60000E+07 2.37966
7.70000E+07 2.36475
7.70000E+07 2.36475
7.80000E+07 2.34891
7.80000E+07 2.34891
7.90000E+07 2.33167
7.90000E+07 2.33167
8.00000E+07 2.31267
8.00000E+07 2.31267
8.10000E+07 2.29232
8.20000E+07 2.27161
8.20000E+07 2.27161
8.30000E+07 2.25101
8.30000E+07 2.25101
8.40000E+07 2.23093
8.40000E+07 2.23093
8.50000E+07 2.21177
8.50000E+07 2.21177
8.60000E+07 2.19346
8.60000E+07 2.19346
8.70000E+07 2.17564
8.70000E+07 2.17564
8.80000E+07 2.15820
8.80000E+07 2.15820
8.90000E+07 2.14102
8.90000E+07 2.14102
9.00000E+07 2.12402
9.00000E+07 2.12402
9.10000E+07 2.10675
9.10000E+07 2.10675
9.20000E+07 2.08909
9.20000E+07 2.08909
9.30000E+07 2.07146
9.30000E+07 2.07146
9.40000E+07 2.05421
9.40000E+07 2.05421
9.50000E+07 2.03769
9.50000E+07 2.03769
9.60000E+07 2.02336
9.60000E+07 2.02336
9.70000E+07 2.01135
9.70000E+07 2.01135
9.80000E+07 2.00000
9.80000E+07 2.00000
9.90000E+07 1.98779
9.90000E+07 1.98779
1.00000E+08 1.97333
1.02000E+08 1.93797
1.04000E+08 1.89870
1.06000E+08 1.85918
1.08000E+08 1.82241
1.10000E+08 1.79086
1.12000E+08 1.76326
1.14000E+08 1.73675
1.16000E+08 1.71111
1.18000E+08 1.68615
1.20000E+08 1.66170
1.22000E+08 1.63782
1.24000E+08 1.61464
1.26000E+08 1.59212
1.28000E+08 1.57023
1.30000E+08 1.54894
1.32000E+08 1.52795
1.34000E+08 1.50717
1.36000E+08 1.48686
1.38000E+08 1.46724
1.40000E+08 1.44848
1.42000E+08 1.43095
1.44000E+08 1.41473
1.46000E+08 1.39958
1.48000E+08 1.38527
1.50000E+08 1.37159