Zn-68(n,tot) ENDF/B-VII.1
Energy(eV) XS(b)
1.00000E-05 58.0858
1.25000E-05 52.4307
1.50000E-05 48.2563
2.00000E-05 42.3967
2.75000E-05 36.8214
3.50000E-05 33.1521
4.25000E-05 30.5032
5.00000E-05 28.4754
6.25000E-05 25.9463
7.50000E-05 24.0795
0.000100000 21.4590
0.000125000 19.6707
0.000150000 18.3506
0.000200000 16.4977
0.000275000 14.7346
0.000350000 13.5743
0.000425000 12.7366
0.000500000 12.0954
0.000625000 11.2956
0.000750000 10.7052
0.00100000 9.87658
0.00125000 9.31107
0.00150000 8.89363
0.00200000 8.30767
0.00275000 7.75014
0.00350000 7.38321
0.00425000 7.11832
0.00500000 6.91553
0.00625000 6.66263
0.00750000 6.47594
0.0100000 6.21388
0.0125000 6.03504
0.0150000 5.90303
0.0200000 5.71771
0.0253000 5.58487
0.0314750 5.47468
0.0376500 5.39285
0.0500000 5.27734
0.0625000 5.19730
0.0750000 5.13820
0.100000 5.05521
0.125000 4.99852
0.150000 4.95664
0.200000 4.89777
0.275000 4.84160
0.350000 4.80448
0.500000 4.75685
0.750000 4.71143
1.00000 4.68375
1.50000 4.64969
2.00000 4.62816
2.75000 4.60601
3.50000 4.58985
5.00000 4.56590
7.50000 4.53659
10.0000 4.51277
15.0000 4.47153
20.0000 4.43383
27.5000 4.37970
35.0000 4.32654
50.0000 4.21995
75.0000 4.03642
100.000 3.84168
150.000 3.40750
200.000 2.89542
275.000 1.92476
312.500 1.32983
350.000 0.688135
368.750 0.391200
378.125 0.268738
387.500 0.179776
392.188 0.153849
394.531 0.146931
396.875 0.144712
399.219 0.147768
401.563 0.156750
403.906 0.172388
406.250 0.195507
408.594 0.227040
410.938 0.268038
415.625 0.383389
420.313 0.553251
425.000 0.792878
429.688 1.12238
434.375 1.56856
439.063 2.16764
443.750 2.96925
453.125 5.48578
457.813 7.44139
462.500 10.1213
467.188 13.8500
471.875 19.1414
476.563 26.8438
481.250 38.4279
485.938 56.6045
490.625 86.7715
495.313 140.813
497.656 184.726
500.000 248.668
503.018 382.915
506.035 634.811
507.544 847.145
509.053 1162.93
510.561 1644.12
512.070 2378.28
514.235 3944.47
516.400 5094.98
518.565 4209.23
520.730 2721.80
522.602 1837.92
524.474 1290.42
526.347 947.740
528.219 724.506
531.963 465.236
535.707 327.429
539.452 245.682
543.196 193.129
550.684 131.548
558.173 97.8599
565.662 77.2115
573.150 63.5145
580.639 53.8864
595.616 41.4306
610.593 33.8477
625.570 28.8103
640.548 25.2492
670.502 20.5870
700.456 17.6931
730.411 15.7313
760.365 14.3165
820.274 12.4126
880.183 11.1871
940.091 10.3278
1000.00 9.68779
1125.00 8.75724
1250.00 8.13133
1375.00 7.67217
1500.00 7.31481
1750.00 6.78135
2000.00 6.38947
2450.22 5.87162
2900.44 5.48407
3350.66 5.16399
3575.76 5.01673
3688.32 4.94431
3744.60 4.90874
3772.74 4.89384
3779.77 4.89279
3786.80 4.89829
3790.32 4.91008
3793.84 4.94767
3795.60 5.00156
3796.48 5.05552
3797.36 5.15363
3798.24 5.36059
3798.68 5.56269
3799.12 5.92092
3799.34 6.21530
3799.56 6.65298
3799.78 7.34405
3799.99 8.52091
3800.21 10.7938
3800.32 12.8093
3800.43 16.0356
3800.54 21.6421
3800.65 32.5421
3800.71 42.1648
3800.76 57.2236
3800.82 81.7969
3800.87 121.482
3800.94 192.085
3801.00 238.205
3801.06 190.969
3801.13 121.560
3801.20 71.4677
3801.27 46.1556
3801.35 32.4535
3801.42 24.4357
3801.49 19.3522
3801.57 16.0322
3801.71 12.0581
3801.86 9.86088
3802.01 8.53996
3802.30 7.09016
3802.59 6.35352
3802.88 5.93058
3803.47 5.48927
3804.06 5.27495
3804.64 5.15521
3805.81 5.03257
3806.98 4.97404
3808.15 4.94141
3810.49 4.90775
3815.18 4.88131
3819.86 4.86992
3829.23 4.85776
3838.59 4.84946
3876.06 4.82264
3950.99 4.77193
4025.92 4.72028
4100.85 4.66673
4250.71 4.55045
4400.56 4.41286
4550.42 4.23219
4625.35 4.11074
4700.28 3.95060
4775.21 3.72050
4812.68 3.55908
4850.14 3.34453
4887.61 3.04237
4906.34 2.83877
4925.07 2.58148
4943.80 2.24645
4962.54 1.79534
4971.90 1.50888
4981.27 1.17114
4990.63 0.779395
5000.00 0.358794
5004.65 0.174452
5006.98 0.105382
5009.30 0.0654968
5010.47 0.0616212
5011.63 0.0722788
5012.79 0.101275
5013.95 0.153389
5015.12 0.234894
5016.28 0.353735
5017.44 0.520296
5018.61 0.747992
5019.77 1.05532
5020.93 1.46646
5023.26 2.74564
5025.58 5.04268
5026.75 6.83695
5027.91 9.30817
5029.07 12.7749
5030.23 17.7363
5031.40 25.0198
5032.56 36.0350
5033.72 53.3437
5034.89 81.6663
5036.05 129.896
5037.21 213.271
5038.61 377.614
5040.00 519.647
5041.40 455.228
5042.79 310.298
5043.98 219.550
5045.17 161.041
5046.36 123.180
5047.55 97.8504
5049.93 67.4283
5052.31 50.5910
5054.70 40.2487
5057.08 33.3906
5061.84 25.0373
5066.60 20.2440
5071.36 17.1833
5076.12 15.0795
5080.89 13.5538
5090.41 11.5015
5099.93 10.1934
5109.46 9.29095
5118.98 8.63250
5138.03 7.73768
5157.08 7.15881
5176.12 6.75361
5195.17 6.45386
5233.27 6.03894
5271.36 5.76389
5309.46 5.56682
5347.55 5.41764
5423.74 5.20413
5499.93 5.05574
5652.31 4.85550
5804.69 4.71932
5957.07 4.61534
6261.83 4.45661
6871.34 4.22548
7176.10 4.13003
7328.48 4.08532
7404.67 4.06432
7442.77 4.05772
7452.29 4.05969
7461.81 4.07074
7466.58 4.08895
7471.34 4.14386
7473.72 4.22173
7474.91 4.29987
7476.10 4.44239
7477.29 4.74504
7477.89 5.04243
7478.48 5.57512
7478.78 6.01631
7479.08 6.67475
7479.37 7.72807
7479.67 9.55120
7479.97 13.1504
7480.12 16.4203
7480.27 21.7447
7480.42 31.3999
7480.49 39.4634
7480.56 51.3367
7480.64 70.2816
7480.71 101.612
7480.79 157.621
7480.86 262.599
7480.93 418.560
7481.00 521.708
7481.07 418.946
7481.14 263.089
7481.19 190.179
7481.23 141.120
7481.28 107.158
7481.32 84.1837
7481.42 55.6114
7481.51 39.8458
7481.60 30.1679
7481.69 23.9606
7481.88 16.6563
7482.07 12.7128
7482.25 10.3730
7482.44 8.86595
7482.62 7.83934
7482.99 6.56839
7483.36 5.84542
7483.73 5.39321
7484.10 5.09308
7484.84 4.73026
7485.58 4.52783
7487.07 4.32137
7488.55 4.22326
7490.03 4.16886
7492.99 4.11343
7498.92 4.07177
7504.85 4.05570
7516.70 4.04177
7528.56 4.03459
7575.98 4.01748
7670.82 3.99041
7765.65 3.96464
7860.49 3.93938
8050.17 3.88991
8145.01 3.86582
8192.43 3.85509
8216.14 3.85508
8222.06 3.86000
8227.99 3.87698
8230.96 3.90210
8233.92 3.97442
8235.40 4.07434
8236.88 4.35040
8237.62 4.71871
8237.99 5.07345
8238.36 5.69188
8238.74 6.92433
8238.92 8.05219
8239.11 9.92332
8239.29 13.3528
8239.38 16.2598
8239.48 20.6228
8239.57 27.7261
8239.66 39.8952
8239.75 63.0746
8239.85 108.727
8239.92 172.176
8240.00 213.818
8240.08 171.454
8240.16 108.910
8240.24 65.7196
8240.33 42.8169
8240.41 30.1554
8240.50 22.6409
8240.58 17.8816
8240.67 14.7001
8240.84 10.8677
8241.01 8.74688
8241.18 7.45603
8241.51 6.03750
8241.85 5.31359
8242.19 4.89752
8242.87 4.46043
8244.23 4.12867
8245.59 4.00656
8248.31 3.91588
8251.02 3.88275
8256.45 3.85761
8261.89 3.84770
8283.62 3.83367
8327.08 3.82039
8414.00 3.79793
8500.92 3.77643
8544.38 3.76775
8566.11 3.77252
8571.54 3.78223
8576.97 3.81301
8579.69 3.85752
8582.41 3.98468
8583.76 4.15967
8584.44 4.33196
8585.12 4.64081
8585.80 5.27854
8586.14 5.88909
8586.48 6.94564
8586.82 9.02764
8586.99 10.9156
8587.16 13.9866
8587.33 19.5336
8587.41 24.1130
8587.50 30.9236
8587.58 41.5886
8587.67 59.3442
8587.75 90.8991
8587.84 148.544
8587.92 235.316
8588.00 293.793
8588.08 235.666
8588.16 148.983
8588.22 103.154
8588.29 74.0597
8588.35 55.3135
8588.41 42.8578
8588.54 28.0961
8588.66 20.2868
8588.78 15.6467
8588.91 12.7236
8589.16 9.35725
8589.41 7.58082
8589.66 6.53242
8590.15 5.40969
8590.65 4.85309
8591.15 4.53722
8592.14 4.21057
8594.14 3.96546
8596.13 3.87583
8600.11 3.80904
8604.09 3.78423
8612.06 3.76465
8620.02 3.75624
8651.88 3.74171
8715.60 3.72401
8843.05 3.69196
9097.93 3.62903
9352.82 3.56611
9480.26 3.53487
9543.98 3.52131
9559.91 3.52000
9575.84 3.52398
9583.81 3.53339
9591.77 3.56425
9595.76 3.60909
9597.75 3.65427
9599.74 3.73672
9601.73 3.91108
9602.73 4.08160
9603.72 4.38448
9604.72 5.00267
9605.22 5.58558
9605.71 6.57979
9606.21 8.49054
9606.46 10.1789
9606.71 12.8706
9606.96 17.5202
9607.21 26.4724
9607.33 34.3332
9607.46 46.4094
9607.58 65.8136
9607.70 97.3257
9607.85 153.952
9608.00 191.464
9608.15 153.772
9608.30 97.6099
9608.39 71.9518
9608.49 54.2695
9608.68 33.7117
9608.87 23.1228
9609.06 17.1835
9609.26 13.5325
9609.45 11.1654
9609.83 8.38049
9610.21 6.87065
9610.59 5.96787
9611.36 4.98562
9612.12 4.49229
9612.89 4.21004
9614.42 3.91586
9615.95 3.77339
9617.48 3.69358
9620.54 3.61165
9626.66 3.55008
9632.78 3.52679
9645.02 3.50766
9657.26 3.49874
9706.22 3.48038
9804.15 3.45376
10000.0 3.40270
10264.0 3.33246
10528.0 3.25926
11056.0 3.09898
11583.9 2.90669
11847.9 2.78901
11979.9 2.72156
12045.9 2.68502
12078.9 2.66601
12095.4 2.65676
12103.7 2.65416
12107.8 2.66134
12109.8 2.69774
12110.9 2.83351
12111.4 3.28278
12111.7 4.49724
12111.8 6.88484
12111.8 9.66146
12111.9 15.8821
12112.0 23.4270
12112.0 29.0328
12112.1 23.4693
12112.1 15.7971
12112.1 11.1690
12112.2 8.07778
12112.3 5.29198
12112.5 3.68096
12112.9 2.97951
12113.6 2.74041
12115.2 2.67027
12118.2 2.64950
12124.4 2.64063
12136.7 2.63164
12161.3 2.61576
12210.5 2.58346
12308.8 2.51349
12505.5 2.34330
12702.2 2.10692
12800.6 1.94566
12849.7 1.84830
12874.3 1.79427
12886.6 1.76580
12892.8 1.75144
12895.8 1.74532
12897.4 1.74653
12898.2 1.76224
12898.5 1.81484
12898.7 1.94387
12898.9 2.95892
12899.0 4.16749
12899.1 2.94431
12899.2 2.11104
12899.3 1.90694
12899.5 1.79618
12900.0 1.75176
12900.9 1.73618
12902.7 1.72801
12906.3 1.71804
12913.5 1.69949
12927.8 1.66148
12956.6 1.57981
13014.0 1.38873
13071.5 1.14909
13129.0 0.843048
13157.7 0.659672
13186.5 0.456867
13215.2 0.246358
13229.6 0.149758
13244.0 0.0742272
13251.1 0.0514703
13258.3 0.0449549
13265.5 0.0618274
13272.7 0.112376
13279.9 0.211950
13287.1 0.383003
13294.3 0.660886
13301.4 1.09956
13308.6 1.78922
13315.8 2.87738
13323.0 4.63024
13330.2 7.52864
13337.4 12.5347
13344.5 21.6213
13348.1 28.8999
13351.7 39.1378
13355.3 53.6625
13358.9 74.1740
13366.0 135.587
13373.0 191.961
13380.1 172.599
13387.1 120.480
13392.2 90.9367
13397.4 70.2928
13402.5 55.9840
13407.6 45.8689
13417.9 33.0279
13428.2 25.5224
13438.4 20.7375
13448.7 17.4848
13469.2 13.4183
13489.7 11.0228
13510.3 9.46621
13530.8 8.38128
13551.3 7.58541
13592.3 6.50038
13633.4 5.79782
13674.4 5.30592
13715.5 4.94199
13797.6 4.43698
13879.7 4.09996
14043.8 3.66776
14208.0 3.39023
14372.2 3.18629
14700.6 2.88089
15028.9 2.63399
15357.3 2.40517
15685.7 2.17488
15849.9 2.05721
15890.9 2.02949
15932.0 2.00775
15952.5 2.00568
15962.7 2.01167
15973.0 2.02939
15983.3 2.07663
15988.4 2.12755
15993.5 2.22298
15996.1 2.30412
15998.7 2.42718
16001.2 2.62745
16003.8 2.98036
16005.1 3.27016
16006.4 3.69429
16007.6 4.35492
16008.9 5.46370
16010.2 7.55262
16010.8 9.33353
16011.5 12.0842
16012.1 16.6230
16012.8 24.7718
16013.4 40.9741
16013.7 55.0897
16014.0 75.8548
16014.5 120.457
16015.0 150.351
16015.5 120.745
16016.0 76.2212
16016.4 49.9451
16016.8 34.3186
16017.3 24.8673
16017.7 18.8835
16018.5 12.1623
16019.4 8.73005
16020.3 6.76259
16021.1 5.53601
16022.8 4.15416
16024.6 3.43586
16026.3 3.01555
16028.0 2.74840
16029.7 2.56879
16033.2 2.34662
16036.6 2.22014
16043.5 2.08664
16050.3 2.01962
16057.2 1.97979
16070.9 1.93364
16084.7 1.90571
16098.4 1.88506
16112.2 1.86772
16119.0 1.86038
16122.5 1.86221
16124.2 1.88932
16125.1 2.00508
16125.5 2.39249
16125.7 3.34637
16125.8 5.12102
16125.9 6.97890
16125.9 10.8803
16126.0 20.1414
16126.1 11.1153
16126.2 7.27843
16126.2 5.11240
16126.3 3.35528
16126.6 2.40673
16127.0 2.03604
16128.0 1.91039
16129.9 1.86946
16133.6 1.85328
16141.2 1.84163
16156.2 1.82567
16186.4 1.79747
16246.6 1.74393
16367.2 1.63706
16608.3 1.41022
17090.5 0.880500
17331.6 0.576709
17572.7 0.268385
17693.2 0.132919
17753.5 0.0780059
17813.8 0.0373932
17843.9 0.0243933
17874.1 0.0176146
17904.2 0.0183187
17934.3 0.0280178
17964.5 0.0485528
17994.6 0.0821635
18024.7 0.131972
18039.8 0.165947
18047.3 0.193652
18051.1 0.242377
18053.0 0.393488
18053.9 0.896137
18054.2 1.35058
18054.4 2.36191
18054.5 3.50105
18054.6 5.78603
18054.8 11.2322
18054.8 16.9382
18054.9 25.1282
18054.9 41.0937
18055.0 50.0986
18055.1 41.1252
18055.1 25.1695
18055.2 13.7348
18055.3 8.35146
18055.5 3.79739
18055.6 2.18750
18055.8 1.45373
18056.5 0.582654
18057.8 0.312411
18060.5 0.242536
18065.9 0.237212
18076.6 0.264665
18098.1 0.339277
18141.2 0.539750
18184.2 0.823467
18227.2 1.21873
18270.2 1.76606
18313.2 2.52410
18356.3 3.59134
18367.0 3.93561
18377.8 4.35357
18383.1 4.63678
18385.8 4.82928
18388.5 5.09971
18391.2 5.55757
18392.6 5.95107
18393.9 6.58907
18395.2 7.79127
18395.9 8.83962
18396.6 10.5137
18397.3 13.4308
18397.9 19.1556
18398.3 24.3662
18398.6 32.3852
18398.9 46.1367
18399.3 68.7204
18399.6 107.208
18400.0 133.074
18400.4 107.714
18400.7 69.3786
18401.0 50.0847
18401.3 37.8027
18401.5 29.6113
18401.8 24.0159
18402.3 17.2305
18402.8 13.5035
18403.4 11.2344
18403.9 9.81161
18404.9 8.17184
18406.0 7.30621
18407.0 6.81335
18409.1 6.31878
18411.2 6.11717
18413.3 6.04229
18417.5 6.05701
18421.6 6.16799
18425.8 6.32250
18434.2 6.69927
18467.6 8.67783
18534.4 14.9372
18601.2 26.3163
18668.0 47.2354
18748.0 91.4726
18828.0 135.720
18868.0 138.411
18908.0 127.162
18988.0 92.2027
19051.3 69.8934
19114.5 54.3718
19177.8 43.7121
19241.0 36.2245
19367.5 26.7527
19494.0 21.2069
19620.5 17.6510
19747.0 15.2086
20000.0 12.1042
20114.9 11.1456
20172.4 10.7341
20201.1 10.5446
20215.4 10.4639
20222.6 10.4716
20224.4 10.5161
20226.2 10.6600
20227.1 10.8635
20228.0 11.4120
20228.5 12.1085
20228.9 13.8015
20229.1 15.7812
20229.4 19.7393
20229.5 23.4665
20229.6 29.7154
20229.7 40.9574
20229.8 64.5222
20229.9 97.2614
20230.0 118.910
20230.1 97.6525
20230.2 64.7434
20230.3 45.9300
20230.4 34.3827
20230.5 27.3875
20230.6 22.9545
20230.7 17.9713
20230.9 15.5299
20231.3 13.1339
20231.6 12.0828
20232.3 11.2060
20233.0 10.8564
20234.4 10.5792
20235.8 10.4693
20241.4 10.3297
20252.6 10.2319
20275.1 10.0898
20297.5 9.95857
20320.0 9.83239
20409.7 9.36335
20589.2 8.53558
20678.9 8.13237
20768.7 7.66531
20813.6 7.34910
20836.0 7.13917
20858.4 6.86084
20880.9 6.44959
20892.1 6.14885
20903.3 5.72953
20908.9 5.44795
20914.5 5.09231
20920.1 4.62802
20925.7 3.99674
20928.6 3.58839
20931.4 3.09715
20934.2 2.49741
20937.0 1.77625
20939.8 0.962843
20941.2 0.598623
20942.6 0.412055
20943.3 0.480561
20944.0 0.763054
20944.7 1.41385
20945.4 2.71022
20945.7 3.74713
20946.1 5.16796
20946.4 7.11291
20946.8 9.77830
20947.1 13.4386
20947.5 18.4731
20947.8 25.3894
20948.2 34.8193
20948.6 52.1192
20949.1 75.3890
20950.0 122.056
20950.5 129.437
20950.9 123.009
20951.8 94.7669
20952.8 70.1564
20953.7 54.2233
20954.6 43.7971
20955.5 36.8557
20956.5 31.9161
20957.4 28.3368
20959.2 23.5003
20961.1 20.4116
20962.9 18.2981
20966.6 15.6209
20970.3 13.9986
20974.0 12.9196
20977.7 12.1493
20981.4 11.5721
20988.8 10.7629
20996.2 10.2228
21003.5 9.83410
21010.9 9.54041
21025.7 9.12164
21040.5 8.83364
21070.0 8.45278
21099.6 8.20184
21129.1 8.01636
21188.2 7.74519
21306.3 7.37779
21424.5 7.10916
21897.2 6.38237
22369.9 5.89760
22606.2 5.70378
22724.4 5.61593
22783.5 5.57641
22813.0 5.56959
22820.4 5.57982
22827.8 5.61942
22831.5 5.67952
22835.2 5.85097
22837.0 6.08296
22837.9 6.30492
22838.9 6.69089
22839.8 7.46111
22840.3 8.15391
22840.7 9.28745
22841.2 11.3201
22841.4 12.9926
22841.6 15.4712
22841.9 19.3336
22842.1 25.7201
22842.3 36.9657
22842.6 58.0532
22842.8 90.0844
22843.0 110.943
22843.2 90.4629
22843.4 58.4130
22843.7 37.4047
22843.9 26.0982
22844.1 19.6580
22844.4 15.7522
22844.6 13.1511
22844.8 11.4778
22845.3 9.43220
22845.8 8.26375
22846.2 7.56325
22847.2 6.78176
22848.1 6.37560
22849.0 6.14015
22850.9 5.89215
22854.6 5.69947
22858.3 5.62609
22865.7 5.56750
22873.1 5.54262
22887.9 5.51758
22902.7 5.50199
22962.0 5.45686
23080.6 5.37985
23317.7 5.23921
23792.0 4.98977
24266.3 4.76562
24503.5 4.65701
24622.0 4.60243
24681.3 4.57725
24711.0 4.57891
24718.4 4.59371
24725.8 4.64508
24729.5 4.72167
24733.2 4.94096
24735.1 5.24156
24736.0 5.53403
24736.9 6.04226
24737.8 7.06785
24738.3 8.00083
24738.8 9.54531
24739.2 12.4477
24739.5 14.8466
24739.7 18.4717
24739.9 24.2710
24740.1 34.2195
24740.4 52.6780
24740.6 88.9144
24740.8 139.822
24741.0 174.338
24741.2 140.659
24741.4 89.9616
24741.5 65.0061
24741.7 48.4878
24741.8 37.4624
24742.0 29.9276
24742.3 20.5507
24742.5 15.6152
24742.8 12.5530
24743.1 10.6557
24743.7 8.40963
24744.2 7.21098
24744.8 6.49763
24746.0 5.72665
24747.1 5.34021
24748.2 5.11880
24750.5 4.88745
24755.1 4.70872
24759.6 4.64070
24768.7 4.58619
24777.8 4.56293
24796.0 4.53956
24814.2 4.52514
24887.1 4.48357
25032.8 4.40879
25178.5 4.33092
25324.1 4.24616
25615.5 4.03841
25761.2 3.89958
25834.0 3.81519
25870.5 3.76836
25888.7 3.74491
25897.8 3.73707
25902.3 3.74671
25904.6 3.79730
25905.8 3.97455
25906.3 4.52280
25906.6 5.86766
25906.7 8.26012
25906.8 11.1070
25906.9 17.3891
25907.0 30.7241
25907.1 17.0499
25907.2 10.2794
25907.3 7.49403
25907.5 5.28894
25907.8 4.22610
25908.5 3.85295
25909.8 3.74253
25912.5 3.71170
25917.9 3.69822
25928.6 3.68116
25950.0 3.64691
25993.0 3.57193
26035.9 3.48762
26078.8 3.39374
26121.8 3.29422
26143.2 3.24827
26164.7 3.21642
26186.2 3.22945
26196.9 3.28114
26207.6 3.40821
26218.4 3.71791
26223.7 4.03285
26229.1 4.58821
26234.5 5.67586
26237.1 6.63935
26239.8 8.17052
26242.5 10.8027
26245.2 15.7602
26246.5 19.9966
26247.9 26.4075
26249.2 36.4178
26250.5 52.1293
26252.3 82.0354
26254.0 102.170
26255.7 82.5300
26257.5 52.7422
26259.3 32.6016
26261.2 21.7633
26263.0 15.6403
26264.8 11.9814
26266.7 9.62716
26268.5 8.04762
26272.2 6.11836
26275.9 5.02636
26279.6 4.34648
26287.0 3.56630
26294.3 3.13414
26301.7 2.85447
26316.5 2.48610
26331.2 2.21556
26345.9 1.97301
26375.4 1.47164
26404.9 0.878996
26419.7 0.548341
26434.4 0.237467
26441.8 0.126766
26449.2 0.0963747
26452.9 0.135224
26456.5 0.231240
26460.2 0.410260
26463.9 0.708638
26467.6 1.18441
26471.3 1.92377
26475.0 3.06294
26478.7 4.81418
26482.4 7.54174
26486.0 11.8119
26489.7 18.5925
26493.4 29.2536
26499.7 60.3400
26506.0 94.5366
26509.2 98.7759
26512.3 92.7532
26518.6 69.8091
26525.0 50.7300
26531.4 38.4695
26537.7 30.6333
26544.1 25.4157
26550.5 21.7651
26556.9 19.1082
26569.6 15.5547
26582.4 13.3169
26595.1 11.7965
26620.6 9.87920
26646.2 8.72986
26671.7 7.96780
26697.2 7.42660
26722.7 7.02280
26773.7 6.45988
26824.7 6.08560
26875.7 5.81786
26926.7 5.61612
27028.8 5.33016
27130.8 5.13486
27232.9 4.99086
27283.9 4.93149
27309.4 4.90410
27322.1 4.89127
27328.5 4.88820
27331.7 4.90283
27333.3 4.97563
27334.1 5.24435
27334.5 6.05242
27334.7 7.87579
27334.8 10.6550
27334.9 17.5232
27335.0 30.4728
27335.1 17.8287
27335.2 11.8766
27335.3 9.17979
27335.4 6.82498
27335.7 5.60004
27336.3 5.10677
27337.5 4.94635
27339.8 4.89627
27344.5 4.87735
27354.0 4.86378
27372.8 4.84473
27410.5 4.81106
27485.9 4.75105
27636.6 4.65077
27938.1 4.49900
28088.9 4.43817
28239.6 4.38411
28315.0 4.35965
28390.4 4.33888
28428.1 4.33319
28465.8 4.34169
28484.6 4.36633
28494.1 4.39486
28503.5 4.45033
28512.9 4.57269
28517.6 4.69455
28522.3 4.91256
28527.0 5.35581
28529.4 5.77050
28531.7 6.46535
28534.1 7.76700
28535.3 8.88147
28536.4 10.5799
28537.6 13.3847
28538.8 18.3681
28540.0 28.0982
28540.6 36.4138
28541.2 48.2010
28542.1 75.0246
28543.0 92.9533
28543.9 75.5425
28544.9 49.2365
28545.7 33.4754
28546.5 24.0622
28547.3 18.3509
28548.2 14.7606
28549.8 10.6736
28551.5 8.57192
28553.1 7.35442
28554.8 6.59694
28558.1 5.73738
28561.4 5.28530
28564.7 5.01941
28568.0 4.84895
28571.3 4.73282
28577.9 4.58835
28584.5 4.50468
28597.7 4.41489
28610.9 4.36865
28624.1 4.34065
28650.6 4.30765
28703.4 4.27305
28756.3 4.25105
28862.0 4.21744
28967.7 4.18873
29179.2 4.13704
29390.6 4.08945
29813.5 4.00134
30236.4 3.91874
31082.1 3.75853
31505.0 3.67570
31716.4 3.63215
31822.1 3.60945
31875.0 3.59762
31901.4 3.59160
31914.6 3.59032
31921.2 3.60019
31924.5 3.65165
31926.2 3.85446
31927.0 4.54020
31927.4 6.34949
31927.6 9.91976
31927.7 14.2072
31927.8 23.0550
31927.9 34.9099
31928.0 42.9581
31928.1 35.2575
31928.2 23.4896
31928.3 14.0099
31928.4 9.94761
31928.6 6.57550
31929.0 4.67806
31929.8 3.93717
31931.4 3.69246
31934.7 3.61844
31941.2 3.59507
31954.2 3.58523
31980.3 3.57698
32032.5 3.56424
32136.8 3.53963
32345.4 3.48810
32449.7 3.46057
32553.9 3.43147
32658.2 3.40033
32710.4 3.38492
32736.5 3.38594
32749.5 3.43132
32752.8 3.48464
32756.0 3.63811
32757.7 3.84574
32759.3 4.39099
32760.1 5.07142
32760.9 6.64368
32761.3 8.36563
32761.7 11.6491
32761.9 14.7220
32762.1 19.3498
32762.3 26.9148
32762.5 40.2105
32762.8 62.7238
32763.0 77.9417
32763.2 63.4320
32763.5 41.0976
32763.7 28.7440
32763.8 21.3268
32764.0 16.5617
32764.2 13.3994
32764.6 9.60001
32764.9 7.63590
32765.7 5.70993
32766.4 4.85843
32767.8 4.12908
32769.3 3.83440
32772.2 3.60011
32775.1 3.50915
32780.9 3.43728
32786.7 3.40848
32809.9 3.37129
32856.3 3.34606
32949.1 3.30992
33042.0 3.27393
33134.8 3.23558
33227.7 3.19400
33320.5 3.14856
33413.3 3.10137
33436.5 3.09299
33459.8 3.09667
33471.4 3.11679
33483.0 3.19168
33488.8 3.30484
33491.7 3.41971
33494.6 3.62874
33497.5 4.06409
33498.9 4.48035
33500.4 5.19944
33501.8 6.59474
33502.5 7.84908
33503.3 9.83585
33504.0 13.3493
33504.7 20.1002
33505.1 26.2487
33505.4 35.6449
33505.8 50.9414
33506.2 76.1724
33506.6 120.621
33507.0 150.726
33507.4 121.749
33507.8 77.5851
33508.3 47.6597
33508.7 31.7716
33509.2 22.6088
33509.6 17.2194
33510.1 13.6893
33510.5 11.3632
33511.4 8.52007
33512.3 6.90761
33513.2 5.91864
33514.9 4.82368
33516.7 4.25609
33518.5 3.92683
33522.0 3.57522
33525.6 3.39930
33529.1 3.29800
33536.2 3.18980
33550.4 3.10036
33564.6 3.06009
33593.0 3.01603
33621.3 2.98569
33734.8 2.88160
33848.3 2.76563
33961.8 2.62253
34075.3 2.43717
34188.8 2.18460
34245.5 2.01986
34302.3 1.81791
34330.6 1.69892
34359.0 1.56511
34387.4 1.41476
34401.6 1.33900
34408.7 1.33319
34412.2 1.46898
34414.0 2.02305
34414.4 2.53474
34414.9 3.70637
34415.1 4.96220
34415.3 7.39893
34415.5 12.8776
34415.6 18.2836
34415.7 27.1503
34415.9 42.9468
34416.0 53.6890
34416.1 43.4523
34416.3 27.7812
34416.4 17.6705
34416.5 12.3155
34416.8 7.06156
34417.0 4.71244
34417.2 3.57166
34417.7 2.48412
34418.2 2.01897
34420.2 1.46138
34424.0 1.26658
34431.8 1.16313
34447.3 1.03650
34478.4 0.786431
34540.6 0.237188
34556.1 0.122483
34571.7 0.0571798
34579.4 0.0595955
34587.2 0.100386
34595.0 0.197479
34602.7 0.377646
34610.5 0.681575
34618.3 1.17233
34626.1 1.94974
34633.8 3.17531
34641.6 5.11537
34649.4 8.21385
34657.1 13.2014
34664.9 21.1919
34671.4 31.1852
34678.0 44.3913
34691.0 70.3761
34697.5 73.8716
34704.1 69.6431
34717.1 52.7708
34725.0 43.5873
34732.9 36.4117
34748.8 26.7688
34764.6 21.0042
34780.4 17.3303
34796.2 14.8374
34812.1 13.0601
34843.7 10.7235
34875.4 9.27496
34907.0 8.29816
34970.3 7.07319
35033.6 6.34026
35096.9 5.85389
35160.2 5.50757
35223.5 5.24829
35350.2 4.88488
35476.8 4.64101
35730.0 4.33028
35983.2 4.13608
36236.4 3.99942
36489.6 3.89514
36616.2 3.85066
36679.5 3.82943
36711.2 3.81875
36727.0 3.81498
36734.9 3.82478
36738.9 3.88524
36740.9 4.13751
36741.9 5.02966
36742.4 7.56238
36742.6 13.0828
36742.7 20.6084
36742.8 39.8889
36742.9 60.9979
36743.0 76.5594
36743.1 61.6703
36743.2 40.4815
36743.3 22.2882
36743.4 14.5354
36743.6 8.59053
36744.0 5.52260
36744.9 4.34602
36746.7 3.97306
36750.3 3.86020
36757.3 3.82439
36771.5 3.80930
36799.9 3.79734
36828.3 3.79200
36842.4 3.80928
36849.5 3.90043
36851.3 3.99532
36853.1 4.25023
36854.0 4.57817
36854.8 5.37090
36855.3 6.29973
36855.7 8.22011
36856.0 10.0608
36856.2 13.2010
36856.4 18.9773
36856.6 30.1110
36856.8 46.5511
36857.0 56.9497
36857.2 46.0836
36857.4 30.6176
36857.5 22.2466
36857.7 16.8703
36858.0 11.2233
36858.3 8.50409
36858.6 7.02681
36859.2 5.56260
36859.7 4.91402
36860.9 4.35596
36862.1 4.13052
36864.4 3.95180
36866.7 3.88301
36876.1 3.80749
36894.8 3.78050
36932.1 3.76317
36969.5 3.75100
36988.2 3.74548
36997.5 3.74570
37002.2 3.76219
37004.5 3.84052
37005.7 4.13440
37006.3 5.02583
37006.6 7.07215
37006.7 10.4509
37006.8 19.8763
37007.0 36.4674
37007.2 20.3327
37007.3 12.5235
37007.4 8.79012
37007.6 6.03696
37008.0 4.56303
37008.9 4.00223
37010.6 3.82144
37014.0 3.76598
37020.9 3.74730
37034.6 3.73809
37062.1 3.72893
37117.0 3.71434
37226.8 3.68784
37446.4 3.63947
37666.0 3.59513
37775.8 3.57395
37830.8 3.56389
37858.2 3.56249
37871.9 3.58052
37878.8 3.66884
37880.5 3.76061
37882.2 4.00800
37883.1 4.32817
37883.9 5.12377
37884.4 6.04925
37884.8 8.04686
37885.0 10.0792
37885.2 13.4980
37885.4 19.9936
37885.6 25.7203
37885.7 33.4554
37885.8 51.9091
37886.0 63.8168
37886.2 52.3408
37886.3 33.9147
37886.5 22.8400
37886.7 16.1971
37886.9 12.3326
37887.0 9.95571
37887.4 7.35864
37887.7 6.09315
37888.4 4.89387
37889.0 4.38873
37890.4 3.97012
37891.7 3.80640
37897.1 3.62840
37907.9 3.57475
37929.4 3.55535
37972.5 3.54269
38058.7 3.52588
38231.1 3.49606
38575.8 3.44060
38748.1 3.41454
38920.5 3.39125
39006.6 3.38360
39049.7 3.38320
39092.8 3.38884
39135.9 3.41037
39157.5 3.43630
39179.0 3.48749
39189.8 3.53222
39200.5 3.60137
39211.3 3.71492
39222.1 3.91758
39232.9 4.32678
39238.2 4.70549
39243.6 5.33443
39249.0 6.48841
39251.7 7.45442
39254.4 8.91034
39257.1 11.2394
39259.8 15.1919
39262.5 22.4311
39265.2 36.2984
39267.6 56.5252
39270.0 70.3729
39272.4 57.3803
39274.8 37.3734
39277.3 24.2891
39279.8 16.9893
39282.2 12.7918
39284.7 10.2281
39287.1 8.56907
39289.6 7.44117
39294.5 6.05904
39299.4 5.27629
39304.3 4.79282
39314.2 4.24926
39324.0 3.96589
39333.8 3.79910
39343.7 3.69202
39353.5 3.61881
39373.2 3.52699
39392.8 3.47292
39412.5 3.43765
39432.2 3.41291
39471.5 3.38016
39510.8 3.35889
39589.5 3.33103
39668.1 3.31152
39746.8 3.29561
39904.1 3.26848
40218.7 3.22099
40533.4 3.17616
41162.6 3.08646
41477.3 3.03898
41634.6 3.01354
41713.2 2.99994
41752.6 2.99252
41772.2 2.98826
41782.0 2.98637
41787.0 2.99067
41789.4 3.02055
41790.7 3.14756
41791.3 3.57412
41791.6 4.72058
41791.7 6.75136
41791.9 13.8641
41792.0 25.1973
41792.1 14.3199
41792.3 6.29197
41792.5 4.50403
41792.9 3.55014
41793.6 3.17097
41795.1 3.04586
41798.0 3.00611
41803.8 2.99232
41815.5 2.98567
41838.8 2.97957
41885.5 2.96989
41978.8 2.95039
42072.2 2.92852
42165.5 2.90225
42258.9 2.86721
42305.5 2.84318
42352.2 2.81058
42398.9 2.76108
42422.2 2.72384
42445.5 2.67031
42468.9 2.58496
42480.6 2.51918
42492.2 2.42389
42503.9 2.27247
42509.7 2.15732
42515.6 1.99432
42521.4 1.74570
42527.2 1.32917
42530.1 1.00590
42533.1 0.591109
42534.5 0.411373
42536.0 0.513140
42536.7 0.961417
42537.4 2.22530
42537.8 3.54888
42538.2 5.69581
42538.5 9.28821
42538.9 15.3661
42539.2 22.3532
42539.4 31.7357
42540.0 50.2466
42540.3 52.7430
42540.6 49.7299
42541.1 37.7957
42541.6 28.7989
42542.1 22.6518
42542.6 18.4242
42543.1 15.5563
42544.1 11.9281
42545.1 9.83608
42546.1 8.48026
42547.0 7.54896
42549.0 6.36998
42551.0 5.65493
42553.0 5.18216
42556.9 4.59434
42560.9 4.24583
42564.8 4.01578
42572.7 3.73145
42580.6 3.56222
42588.5 3.44999
42604.3 3.31011
42620.1 3.22586
42635.9 3.16925
42667.5 3.09705
42699.1 3.05205
42730.7 3.02057
42793.8 2.97774
42857.0 2.94827
42920.2 2.92541
43046.6 2.88947
43299.3 2.83317
43552.0 2.78358
44057.4 2.68658
44310.2 2.63597
44436.5 2.60957
44499.7 2.59581
44531.3 2.58845
44547.1 2.58449
44555.0 2.58402
44558.9 2.59450
44560.9 2.64784
44561.9 2.85308
44562.4 3.47654
44562.6 4.94976
44562.7 7.14586
44562.9 13.5187
44563.0 24.8690
44563.1 13.9332
44563.3 7.48488
44563.4 5.21118
44563.6 3.64616
44564.1 2.95111
44565.1 2.70075
44567.1 2.62029
44571.0 2.59454
44578.9 2.58462
44594.6 2.57821
44626.1 2.57007
44689.0 2.55539
44751.9 2.54042
44783.4 2.53228
44799.1 2.52809
44807.0 2.53014
44810.9 2.55535
44812.9 2.67077
44813.9 3.08279
44814.3 4.24766
44814.6 6.70951
44814.7 9.92379
44814.8 17.1937
44815.0 32.4441
44815.2 17.7775
44815.4 7.96331
44815.6 5.21374
44816.0 3.55652
44816.7 2.86977
44818.3 2.63622
44821.4 2.56233
44827.6 2.53756
44840.1 2.52670
44865.0 2.51784
44914.9 2.50475
45014.5 2.47991
45114.2 2.45449
45164.0 2.44117
45189.0 2.43401
45201.4 2.43029
45207.7 2.43095
45210.8 2.44659
45212.3 2.52047
45213.1 2.79151
45213.5 3.58474
45213.7 5.19608
45213.9 12.4911
45214.0 22.9578
45214.1 12.8955
45214.3 6.45039
45214.4 4.50893
45214.7 3.24922
45215.2 2.71007
45216.3 2.51854
45218.4 2.45762
45222.7 2.43733
45231.2 2.42860
45248.2 2.42162
45282.3 2.41140
45350.5 2.39212
45487.0 2.35253
45623.4 2.31028
45691.6 2.28745
45725.7 2.27495
45742.7 2.26922
45751.3 2.27593
45755.5 2.32871
45757.6 2.55147
45758.7 3.30699
45759.2 5.24848
45759.5 8.85117
45759.6 12.9741
45759.8 21.0720
45759.9 33.1523
45760.0 40.6496
45760.1 33.7549
45760.2 21.8441
45760.4 14.1262
45760.5 9.68327
45760.7 5.83923
45761.3 3.62967
45762.3 2.72264
45764.4 2.41207
45768.5 2.31295
45776.7 2.27904
45793.2 2.26277
45826.2 2.24733
45892.1 2.22217
46023.9 2.17168
46287.7 2.05821
46551.4 1.91992
46815.1 1.74307
47078.8 1.50180
47210.6 1.34188
47342.5 1.14133
47474.4 0.882607
47540.3 0.724931
47606.2 0.546975
47672.1 0.356388
47738.1 0.192779
47771.0 0.162428
47787.5 0.178510
47804.0 0.229895
47820.5 0.334734
47836.9 0.521444
47853.4 0.835708
47861.7 1.06331
47865.8 1.20369
47867.8 1.29498
47868.9 1.39398
47869.4 1.61062
47869.7 2.15078
47869.8 3.20014
47869.9 7.24852
47870.0 13.1497
47870.1 7.25625
47870.3 2.85357
47870.4 2.00117
47870.7 1.59140
47871.3 1.46925
47872.6 1.47774
47875.1 1.57635
47880.0 1.82054
47889.9 2.43962
47909.8 4.41989
47929.6 8.12757
47949.4 15.1105
47973.7 30.8485
47998.0 47.9824
48011.9 49.7845
48018.9 48.0856
48022.3 46.8279
48024.1 46.2830
48025.0 46.5311
48025.4 47.9432
48025.6 50.8075
48025.8 60.3887
48026.0 76.0428
48026.2 60.8420
48026.4 52.3135
48026.5 48.9193
48026.8 46.4777
48027.5 45.0912
48028.8 44.0826
48031.3 42.7036
48036.4 40.0941
48046.6 35.0527
48069.5 25.9090
48092.4 19.8660
48115.3 15.9072
48138.3 13.2202
48161.2 11.3184
48184.1 9.92134
48207.0 8.86051
48218.5 8.42271
48224.2 8.22570
48227.0 8.14382
48228.5 8.14872
48229.2 8.30464
48229.6 8.82730
48229.7 10.0483
48229.9 16.3707
48230.0 24.7099
48230.1 16.3668
48230.2 11.1059
48230.3 9.50286
48230.5 8.56462
48231.0 8.17307
48231.8 8.01994
48233.6 7.92922
48237.0 7.81378
48243.9 7.61028
48257.8 7.24347
48285.4 6.62921
48340.7 5.72880
48396.0 5.10143
48451.3 4.63844
48562.0 3.99549
48672.6 3.56127
48893.8 2.97978
49115.1 2.56186
49336.3 2.19389
49557.5 1.81310
49778.8 1.36229
49889.4 1.08918
50000.0 0.772827
50117.2 0.397118
50175.8 0.217524
50205.2 0.144314
50234.5 0.0957254
50263.8 0.0906492
50278.4 0.113808
50293.1 0.161552
50307.7 0.241926
50322.4 0.365552
50337.0 0.547025
50351.7 0.806274
50366.3 1.17113
50381.0 1.67953
50395.6 2.38563
50410.3 3.36555
50425.0 4.72772
50439.6 6.62010
50454.3 9.24586
50468.9 12.8595
50487.7 19.3573
50506.5 28.1111
50544.0 46.0267
50562.8 48.9520
50581.6 46.6881
50619.1 36.0786
50649.5 28.3825
50664.7 25.3605
50672.3 24.0400
50676.1 23.4320
50678.0 23.1735
50679.0 23.1704
50679.4 23.5380
50679.7 24.6164
50679.8 26.5824
50679.9 32.9037
50680.0 42.9691
50680.1 32.8746
50680.2 26.2529
50680.4 24.4223
50680.6 23.3188
50681.1 22.8311
50682.1 22.5490
50684.1 22.2220
50688.0 21.6515
50695.9 20.6030
50711.7 18.7699
50743.3 15.9226
50806.4 12.2870
50869.6 10.1266
50885.4 9.72113
50901.2 9.35536
50916.9 9.03093
50924.8 8.92283
50928.8 9.05306
50930.8 9.76763
50931.3 10.4488
50931.7 12.0341
50932.0 13.8016
50932.2 17.1337
50932.5 25.1323
50932.6 32.9019
50932.7 45.9009
50932.9 68.5656
50933.0 84.1949
50933.1 69.4606
50933.3 47.0136
50933.4 33.9412
50933.5 25.5503
50933.8 17.4284
50934.1 13.9575
50934.3 12.2506
50934.8 10.5887
50935.3 9.87780
50936.4 9.26930
50937.4 9.01790
50941.5 8.68800
50949.7 8.46986
50966.1 8.18353
50982.5 7.93765
50998.9 7.71427
51031.7 7.31924
51064.5 6.97965
51195.8 5.99037
51327.1 5.35312
51458.3 4.90642
51720.9 4.31480
51983.4 3.93231
52508.4 3.44370
52639.7 3.35226
52771.0 3.26821
52902.2 3.18968
52967.9 3.15215
53000.7 3.13835
53017.1 3.15946
53025.3 3.29242
53027.3 3.43251
53029.4 3.81027
53030.4 4.29232
53031.4 5.44166
53032.0 6.75518
53032.5 9.39776
53033.0 15.8798
53033.2 23.1033
53033.5 35.7922
53033.8 56.0468
53034.0 69.3665
53034.3 56.8123
53034.5 36.6927
53034.7 25.9775
53034.9 18.9832
53035.3 11.7492
53035.8 8.46139
53036.2 6.76836
53037.0 5.10777
53037.8 4.38050
53039.5 3.76237
53041.2 3.51324
53044.5 3.31449
53047.9 3.23642
53061.2 3.14633
53087.9 3.10621
53141.4 3.06968
53248.2 3.01269
53461.9 2.90952
53568.8 2.86077
53675.6 2.81502
53729.1 2.79602
53782.5 2.78959
53809.2 2.80507
53822.6 2.82789
53835.9 2.87578
53849.3 2.98564
53856.0 3.09608
53862.6 3.29240
53869.3 3.68486
53872.7 4.04201
53876.0 4.62512
53879.3 5.66144
53882.7 7.73339
53884.4 9.60954
53886.0 12.6159
53887.7 17.6728
53889.4 26.2823
53891.2 40.9382
53893.0 51.0250
53894.8 41.7584
53896.7 27.4143
53897.9 20.7090
53899.0 16.1258
53901.4 10.7489
53903.8 7.99220
53906.2 6.43783
53908.6 5.47829
53911.0 4.84963
53915.8 4.10575
53920.5 3.69718
53925.3 3.44905
53934.8 3.17300
53944.4 3.02884
53953.9 2.94282
53973.0 2.84650
53992.1 2.79384
54011.2 2.75984
54049.4 2.71585
54125.8 2.66136
54202.1 2.62055
54354.9 2.54995
54507.6 2.48373
54813.1 2.35240
54965.8 2.28476
55042.2 2.25029
55080.3 2.23701
55099.4 2.25400
55109.0 2.36572
55111.4 2.48499
55113.8 2.81006
55115.0 3.23501
55116.1 4.28570
55116.7 5.52156
55117.3 8.14054
55117.6 10.7657
55117.9 15.4154
55118.2 24.4493
55118.4 32.1302
55118.5 42.6669
55118.8 67.0173
55119.0 83.8873
55119.2 67.7039
55119.5 43.4361
55119.7 27.9740
55119.9 19.2574
55120.2 14.1344
55120.4 10.9562
55120.9 7.40069
55121.3 5.66284
55122.3 4.04674
55123.2 3.35952
55125.0 2.78872
55126.9 2.56295
55130.6 2.38535
55134.3 2.31644
55149.1 2.23764
55178.7 2.20187
55208.3 2.18295
55223.1 2.17517
55230.5 2.17311
55234.2 2.17860
55236.1 2.20569
55237.0 2.30554
55237.4 2.61654
55237.7 3.39103
55237.8 4.85791
55237.9 9.44779
55238.0 16.7317
55238.1 9.44993
55238.3 4.17607
55238.4 3.06537
55238.7 2.48392
55239.2 2.26174
55240.4 2.19176
55242.6 2.17112
55247.1 2.16361
55256.1 2.15764
55274.0 2.14812
55309.9 2.12990
55381.8 2.09363
55525.4 2.01908
55669.0 1.94008
55740.9 1.89877
55776.8 1.87990
55794.7 1.88230
55803.7 1.93460
55808.2 2.15774
55809.3 2.37627
55810.4 2.94266
55811.0 3.63685
55811.6 5.24932
55811.8 6.98481
55812.1 10.3811
55812.4 18.1562
55812.5 25.9995
55812.7 39.7702
55812.8 62.3016
55813.0 78.1153
55813.2 62.6486
55813.3 40.2000
55813.4 29.5151
55813.5 21.9504
55813.7 13.7088
55814.0 9.39520
55814.2 7.11728
55814.6 4.78202
55815.0 3.73064
55815.9 2.80221
55816.7 2.42978
55820.2 2.01823
55827.0 1.89576
55840.7 1.85371
55868.0 1.82675
55922.7 1.78857
56032.0 1.71364
56141.4 1.63410
56250.7 1.54919
56360.0 1.46081
56414.7 1.41834
56469.4 1.38302
56524.1 1.37127
56551.4 1.38984
56578.7 1.45046
56606.1 1.61660
56619.7 1.79515
56633.4 2.12293
56647.1 2.79390
56653.9 3.41454
56660.7 4.43851
56667.6 6.28848
56671.0 7.81324
56674.4 10.0624
56677.8 13.5618
56681.2 19.2812
56684.7 29.2358
56688.1 46.9427
56691.5 75.2474
56695.0 94.7723
56698.5 76.8113
56701.9 48.9001
56705.0 32.6163
56708.0 22.7191
56711.0 16.6242
56714.0 12.7090
56720.1 8.23995
56726.1 5.91467
56732.1 4.56019
56738.2 3.70293
56750.3 2.71670
56762.3 2.18610
56774.4 1.86348
56798.6 1.49641
56822.7 1.29123
56846.9 1.15524
56895.2 0.970282
56943.5 0.832228
56991.8 0.711477
57088.4 0.488317
57185.0 0.292315
57233.4 0.227232
57281.7 0.220969
57305.8 0.259039
57330.0 0.342724
57354.1 0.494839
57378.3 0.750664
57402.4 1.16676
57426.6 1.83429
57450.7 2.90505
57462.8 3.66649
57468.9 4.12545
57471.9 4.39126
57473.4 4.58478
57474.1 4.86447
57474.5 5.53037
57474.7 6.97371
57474.9 14.3957
57475.0 24.1738
57475.1 14.4187
57475.3 7.02840
57475.5 5.65583
57475.8 5.03315
57476.6 4.87694
57478.0 4.94838
57481.0 5.21887
57486.8 5.84606
57498.5 7.35450
57521.9 11.6472
57542.2 17.1744
57562.5 24.5208
57603.0 39.1104
57623.3 41.1730
57643.6 38.9245
57684.1 29.6480
57727.7 21.3904
57771.2 16.1782
57814.8 12.8958
57858.3 10.7273
57901.9 9.21903
57945.4 8.12302
58032.6 6.65325
58119.7 5.72184
58206.8 5.08157
58381.0 4.25704
58555.2 3.74330
58729.5 3.38594
58903.7 3.11738
58990.8 3.00507
59034.3 2.95318
59056.1 2.92846
59067.0 2.91749
59072.5 2.91666
59075.2 2.93380
59076.5 3.00582
59077.2 3.24916
59077.6 3.92873
59077.7 5.34322
59077.9 12.4021
59078.0 21.9058
59078.1 12.4063
59078.3 5.34558
59078.5 3.92975
59078.8 3.24015
59079.5 3.00050
59080.9 2.92685
59083.7 2.90411
59089.2 2.89285
59100.3 2.87940
59122.5 2.85520
59167.0 2.80895
59255.8 2.72207
59433.6 2.56603
59789.1 2.30182
60500.0 1.86672
61211.0 1.46882
61566.4 1.26727
61744.2 1.16402
61833.0 1.11157
61877.5 1.08517
61899.7 1.07218
61910.8 1.06673
61916.3 1.06822
61919.1 1.08514
61920.5 1.15279
61921.2 1.37974
61921.6 2.03624
61921.7 3.38579
61921.9 10.1205
61922.0 19.1880
61922.1 10.1252
61922.3 3.12257
61922.5 1.86001
61922.9 1.31339
61923.7 1.13071
61925.3 1.07600
61928.5 1.05960
61934.8 1.05199
61947.5 1.04335
61972.8 1.02774
62023.6 0.996752
62125.0 0.934041
62226.5 0.873006
62251.8 0.862397
62277.2 0.866753
62289.9 0.891385
62302.5 0.981806
62308.9 1.11434
62315.2 1.47204
62318.4 1.91517
62320.0 2.31005
62321.6 2.93445
62323.2 4.01092
62324.7 6.02972
62325.5 7.77454
62326.3 10.3766
62327.1 14.4142
62327.9 20.7064
62329.0 33.0907
62330.0 41.7302
62331.1 34.0330
62332.1 21.8852
62333.0 14.9059
62333.9 10.5948
62334.8 7.90471
62335.7 6.17523
62337.4 4.15455
62339.2 3.09813
62341.0 2.47507
62342.8 2.08145
62346.3 1.62599
62349.9 1.38199
62353.4 1.23508
62360.5 1.07227
62374.7 0.934655
62388.9 0.874245
62417.3 0.814520
62445.7 0.779605
62502.5 0.729464
62559.3 0.687353
62672.9 0.608537
62729.7 0.568952
62758.1 0.554670
62772.3 0.589357
62779.4 0.797632
62781.1 1.01685
62782.9 1.59656
62783.8 2.31933
62784.7 3.97489
62785.1 5.78403
62785.6 9.19442
62786.0 16.6873
62786.2 23.8932
62786.5 35.5029
62786.7 57.4808
62787.0 72.0276
62787.3 57.9500
62787.6 37.0646
62787.8 25.0175
62788.0 17.5507
62788.5 9.94672
62788.9 6.38272
62789.4 4.54485
62790.3 2.75615
62791.2 1.95732
62793.0 1.27784
62794.8 1.00047
62798.5 0.775641
62802.1 0.685374
62816.7 0.577284
62845.8 0.525772
62904.0 0.477208
63020.5 0.401005
63253.5 0.265118
63486.4 0.152118
63602.9 0.108697
63661.2 0.0910342
63690.3 0.0904358
63704.8 0.138268
63708.5 0.198098
63712.1 0.374715
63713.9 0.615985
63715.8 1.24755
63716.7 2.01817
63717.6 3.77379
63718.0 5.63474
63718.5 9.05158
63718.9 16.4897
63719.2 23.4564
63719.4 34.0538
63719.7 55.2367
63720.0 69.5725
63720.3 56.5177
63720.6 35.6069
63720.8 24.6115
63721.1 17.6330
63721.5 10.0492
63722.0 6.42565
63722.5 4.46423
63723.4 2.52938
63724.3 1.66256
63726.2 0.913094
63728.0 0.606864
63731.7 0.357410
63735.4 0.258706
63750.2 0.146710
63779.7 0.108056
63838.8 0.0959381
63898.0 0.101140
63957.1 0.117291
64075.3 0.184998
64193.5 0.312970
64311.8 0.524646
64430.0 0.853990
64548.2 1.35103
64607.4 1.69747
64622.1 1.81249
64636.9 1.98161
64644.3 2.13812
64651.7 2.49172
64655.4 2.91963
64657.2 3.31093
64659.1 3.95903
64660.9 5.16386
64661.9 6.18184
64662.8 7.73579
64663.7 10.2897
64664.6 14.7140
64665.5 23.1281
64666.5 40.1456
64667.2 63.7772
64668.0 80.2829
64668.8 65.4545
64669.5 42.2508
64670.3 26.9570
64671.1 18.4093
64671.9 13.4746
64672.7 10.4513
64673.4 8.49029
64674.2 7.15488
64675.8 5.51417
64677.3 4.58784
64678.9 4.01668
64682.0 3.38265
64685.1 3.06210
64688.3 2.88263
64694.5 2.71157
64707.0 2.63764
64719.5 2.67581
64769.4 3.07896
64869.3 4.28482
65069.0 8.23246
65216.8 12.9908
65364.5 19.6184
65660.0 34.0561
65807.8 37.0339
65955.5 36.0085
66251.0 28.7344
66470.7 23.4849
66690.3 19.4666
66910.0 16.4991
67019.8 15.3153
67074.7 14.7827
67102.2 14.5287
67115.9 14.4079
67122.8 14.3743
67126.2 14.4765
67127.9 14.9408
67128.8 16.2486
67129.2 18.7620
67129.4 21.8116
67129.7 28.4240
67130.0 43.4796
67130.2 38.0641
67130.3 29.3450
67130.6 22.6266
67130.8 19.3306
67131.2 16.6467
67132.1 15.1805
67133.8 14.5695
67137.3 14.3331
67144.3 14.2053
67158.3 14.0637
67186.2 13.8245
67242.0 13.3829
67353.6 12.5874
67576.9 11.2677
68023.5 9.36856
68470.1 8.06609
68693.4 7.55187
68805.0 7.31849
68860.9 7.20553
68888.8 7.14865
68902.7 7.12243
68909.7 7.13203
68913.2 7.24486
68914.9 7.68437
68915.8 8.92530
68916.2 11.4184
68916.5 14.6778
68916.7 21.3949
68917.0 36.6125
68917.2 30.8034
68917.3 22.3191
68917.7 13.2321
68918.0 10.2247
68918.7 8.36157
68920.1 7.54008
68922.8 7.24201
68928.2 7.13451
68939.1 7.08105
68960.8 7.02822
69004.3 6.94305
69091.3 6.78499
69178.2 6.64053
69200.0 6.61514
69221.7 6.61902
69232.6 6.66343
69243.5 6.82999
69248.9 7.07427
69251.6 7.31375
69254.3 7.72953
69257.1 8.53980
69258.4 9.25805
69259.8 10.4001
69261.1 12.3551
69262.5 16.0452
69263.2 19.1929
69263.9 23.9439
69264.5 31.3331
69265.2 42.7941
69266.1 65.2130
69267.0 80.9012
69267.9 66.6801
69268.8 44.6032
69269.6 31.4860
69270.4 23.6148
69271.2 18.7375
69272.0 15.6600
69273.6 12.1376
69275.2 10.3139
69276.7 9.25532
69278.3 8.58747
69281.5 7.82247
69284.7 7.41507
69287.9 7.17055
69294.2 6.89982
69307.0 6.66944
69319.7 6.56592
69345.1 6.45843
69370.5 6.39143
69421.4 6.29017
69472.3 6.20330
69675.7 5.89216
70082.7 5.31097
70489.6 4.68664
70591.3 4.50477
70693.1 4.30444
70743.9 4.19819
70794.8 4.09963
70820.2 4.07261
70832.9 4.07977
70845.7 4.12296
70858.4 4.25743
70864.7 4.40760
70871.1 4.68716
70877.4 5.26407
70880.6 5.79743
70883.8 6.67564
70887.0 8.24676
70890.2 11.4035
70891.8 14.2690
70893.3 18.8658
70894.9 26.6024
70896.5 39.7721
70898.3 62.3504
70900.0 78.0597
70901.8 64.0401
70903.5 42.0488
70904.6 31.9312
70905.7 24.9396
70908.0 16.6186
70910.2 12.2874
70912.4 9.81033
70914.6 8.27559
70916.9 7.26218
70921.3 6.04879
70925.8 5.37417
70930.3 4.95693
70939.2 4.47986
70948.1 4.21794
70957.0 4.05077
70974.9 3.83996
70992.7 3.69910
71010.5 3.58643
71046.2 3.39117
71117.6 3.00376
71188.9 2.53707
71260.3 1.91759
71295.9 1.52313
71331.6 1.05994
71367.3 0.543807
71385.1 0.296970
71403.0 0.112776
71411.9 0.0748010
71420.8 0.103329
71429.7 0.237187
71438.6 0.537257
71443.1 0.777765
71447.6 1.09958
71456.5 2.07546
71465.4 3.69912
71474.3 6.31014
71484.0 10.7732
71493.7 17.3279
71513.0 33.1724
71522.7 37.4987
71532.4 37.6914
71551.7 31.7382
71563.7 27.5647
71575.6 24.0593
71599.5 19.0480
71623.4 15.8695
71647.3 13.7555
71671.2 12.2720
71695.1 11.1836
71742.9 9.70244
71790.8 8.74558
71838.6 8.07631
71934.2 7.19664
72029.8 6.63648
72125.4 6.24117
72316.7 5.70279
72699.1 5.05107
73081.6 4.60666
73846.6 3.85357
74229.0 3.42283
74420.3 3.15827
74515.9 3.00365
74563.7 2.91704
74587.6 2.87422
74599.6 2.88616
74605.5 3.05918
74607.0 3.25111
74608.5 3.76286
74609.3 4.40072
74610.0 5.84389
74610.4 7.40440
74610.8 10.2756
74611.1 16.3585
74611.3 22.1767
74611.5 30.6986
74611.8 48.0899
74612.0 60.2588
74612.3 49.4968
74612.5 32.4004
74612.7 21.6783
74613.0 15.6291
74613.4 9.65339
74613.9 6.99689
74614.4 5.66521
74615.3 4.39536
74616.2 3.83966
74618.1 3.36145
74619.9 3.16520
74627.3 2.93034
74642.2 2.82800
74671.8 2.74225
74731.1 2.60488
74790.4 2.46240
74849.6 2.30677
74968.2 1.94052
75027.5 1.72089
75057.1 1.59816
75071.9 1.53313
75079.3 1.51250
75083.0 1.57681
75084.9 1.90768
75085.8 3.00059
75086.3 5.54296
75086.5 9.52184
75086.7 21.4343
75087.0 42.6368
75087.3 22.6805
75087.5 11.5079
75087.7 6.99603
75088.1 3.84517
75088.9 2.32727
75090.6 1.75451
75093.9 1.54928
75100.6 1.45538
75114.0 1.37084
75140.8 1.23271
75194.3 0.948674
75301.3 0.331828
75328.1 0.192555
75354.9 0.0854270
75381.6 0.0429661
75395.0 0.0628954
75408.4 0.124307
75421.8 0.242595
75435.1 0.438859
75448.5 0.742101
75461.9 1.19221
75475.3 1.84380
75488.7 2.77084
75502.0 4.07093
75515.4 5.86512
75536.1 9.92890
75556.7 15.8644
75598.0 30.0490
75618.7 33.8347
75639.3 33.9026
75680.6 28.4077
75724.3 22.2808
75767.9 17.9992
75811.6 15.1290
75855.3 13.1467
75899.0 11.7214
75942.6 10.6575
76030.0 9.18798
76117.3 8.22694
76204.6 7.55008
76248.3 7.28075
76292.0 7.04470
76335.7 6.83591
76357.5 6.75664
76368.4 6.81850
76371.1 6.92877
76373.9 7.25855
76375.2 7.69906
76376.6 8.78128
76377.3 10.0072
76378.0 12.5328
76378.3 14.8896
76378.6 18.7830
76379.0 25.6066
76379.3 37.9338
76379.7 57.4806
76380.0 71.1685
76380.3 59.0546
76380.7 39.8997
76381.0 26.8820
76381.4 19.8947
76381.8 15.7863
76382.1 13.3572
76382.8 10.6743
76383.5 9.35407
76384.9 8.12359
76386.3 7.58695
76389.2 7.12989
76392.0 6.93873
76397.6 6.77041
76403.3 6.69023
76425.9 6.53971
76471.0 6.36443
76516.2 6.22191
76561.4 6.09554
76742.0 5.69157
76832.4 5.53174
76922.7 5.39108
77013.0 5.26371
77058.2 5.20253
77080.8 5.18133
77092.1 5.23484
77097.7 5.54111
77099.1 5.84831
77100.5 6.62264
77101.3 7.53007
77102.0 9.42937
77102.7 14.4743
77103.0 20.2676
77103.4 31.7584
77103.7 48.2101
77104.0 60.1612
77104.3 49.6660
77104.6 33.5644
77104.9 23.1199
77105.2 17.2332
77105.9 11.4611
77106.5 9.00058
77107.1 7.75199
77108.3 6.58647
77109.5 6.07791
77111.9 5.64258
77114.4 5.46384
77124.1 5.25045
77143.6 5.16037
77182.6 5.09304
77260.5 5.00238
77338.4 4.92535
77377.3 4.90836
77387.1 4.92600
77396.8 4.99930
77401.7 5.11017
77406.5 5.41209
77409.0 5.78682
77411.4 6.63802
77412.6 7.52552
77413.8 9.15632
77415.1 12.5683
77415.7 15.6653
77416.3 20.3702
77417.1 30.1487
77418.0 37.0489
77418.9 31.0865
77419.7 21.5422
77420.6 15.1552
77421.5 11.5936
77422.4 9.54788
77423.3 8.29775
77425.1 6.93480
77426.8 6.25347
77430.4 5.62305
77434.0 5.34701
77441.1 5.11099
77448.2 5.01091
77462.4 4.92193
77476.7 4.87887
77505.2 4.82987
77533.6 4.79666
77590.6 4.74433
77647.5 4.69929
77761.4 4.61885
77875.3 4.54629
78103.1 4.41714
78217.0 4.35876
78273.9 4.33091
78302.4 4.31759
78316.6 4.31224
78323.8 4.31451
78327.3 4.33460
78329.1 4.41440
78330.0 4.68934
78330.4 5.47405
78330.7 7.17458
78330.9 16.1506
78331.0 28.0061
78331.1 16.1581
78331.3 8.76687
78331.4 6.56989
78331.7 5.18991
78332.2 4.58809
78333.2 4.38326
78335.3 4.32314
78339.5 4.30521
78347.9 4.29712
78364.7 4.28824
78398.3 4.27253
78465.5 4.24228
78532.7 4.21296
78566.3 4.19864
78583.1 4.19169
78591.5 4.18880
78595.7 4.18960
78597.8 4.19858
78598.9 4.23398
78599.4 4.34864
78599.6 4.65089
78599.9 7.77333
78600.0 11.3675
78600.1 7.77853
78600.4 4.65319
78600.6 4.34971
78601.2 4.23304
78602.2 4.19708
78604.3 4.18622
78608.5 4.18181
78616.9 4.17760
78633.7 4.17045
78667.4 4.15659
78734.6 4.12949
78869.2 4.07724
79138.3 3.97935
79676.4 3.80336
79945.5 3.72219
80214.6 3.64389
80349.2 3.60605
80483.7 3.57263
80551.0 3.56414
80584.6 3.56747
80618.2 3.58451
80651.9 3.63792
80668.7 3.69924
80685.5 3.81739
80702.3 4.07320
80710.7 4.32145
80719.2 4.75085
80727.6 5.57520
80731.8 6.29732
80736.0 7.42647
80740.2 9.32341
80744.4 12.7792
80746.5 15.6266
80748.6 19.7824
80750.7 25.9798
80752.8 35.2138
80755.9 55.1047
80759.0 69.0960
80762.1 56.8756
80765.2 37.4311
80768.2 25.0708
80771.2 17.9192
80774.2 13.6871
80777.2 11.0529
80780.2 9.31274
80783.2 8.11404
80789.2 6.62278
80795.2 5.76428
80801.2 5.22651
80813.2 4.61244
80825.2 4.28554
80837.1 4.08939
80849.1 3.96106
80861.1 3.87182
80885.1 3.75705
80909.1 3.68693
80957.0 3.60503
81004.9 3.55696
81052.9 3.52358
81148.8 3.47622
81244.7 3.44036
81340.5 3.40970
81532.3 3.35560
81915.8 3.25832
82107.6 3.20989
82203.5 3.18186
82251.4 3.16273
82275.4 3.15500
82287.4 3.19903
82293.4 3.46041
82294.9 3.73303
82296.4 4.43923
82297.1 5.27907
82297.9 7.10946
82298.3 8.95050
82298.6 12.0960
82299.0 18.0477
82299.4 30.3683
82299.7 47.3465
82300.0 59.8911
82300.3 49.2587
82300.6 32.6949
82300.9 23.8715
82301.1 18.0608
82301.6 11.8024
82302.1 8.75546
82302.5 7.08290
82303.5 5.40822
82304.4 4.64441
82306.3 3.97110
82308.2 3.68912
82312.0 3.45278
82315.7 3.35568
82330.8 3.23826
82361.0 3.18966
82421.4 3.15926
82542.2 3.12470
82663.0 3.09492
82723.4 3.07965
82753.6 3.07062
82768.7 3.06473
82776.2 3.06497
82780.0 3.09261
82781.9 3.22890
82782.8 3.69758
82783.3 4.87661
82783.5 6.95231
82783.8 13.2892
82784.0 24.3175
82784.2 14.0968
82784.4 8.08216
82784.6 5.79763
82785.0 4.21614
82785.9 3.48182
82787.5 3.21047
82790.8 3.11845
82797.3 3.08566
82810.4 3.07118
82836.6 3.06061
82889.0 3.04682
82993.7 3.02257
83203.1 2.97600
83622.1 2.88449
84041.0 2.79329
84250.4 2.74746
84355.2 2.72445
84407.5 2.71293
84433.7 2.70727
84446.8 2.70484
84453.4 2.70528
84456.6 2.71186
84458.3 2.73889
84459.1 2.83389
84459.5 3.12138
84459.7 3.76837
84459.9 8.11989
84460.0 13.5436
84460.1 8.12490
84460.4 3.37050
84460.7 2.92947
84461.3 2.76945
84462.5 2.71961
84464.8 2.70523
84469.6 2.70050
84479.0 2.69745
84497.9 2.69301
84535.7 2.68457
84611.2 2.66775
84762.4 2.63390
85064.6 2.56502
85366.8 2.49331
85518.0 2.45456
85593.5 2.43357
85631.3 2.43110
85650.2 2.48557
85654.9 2.55435
85659.6 2.75519
85662.0 3.02577
85664.4 3.71927
85665.5 4.54381
85666.7 6.35658
85667.3 8.17466
85667.9 11.4276
85668.5 17.8336
85668.8 23.4645
85669.1 31.4252
85669.5 49.4155
85670.0 61.9593
85670.5 50.6679
85670.9 32.9581
85671.4 20.7269
85671.9 14.1414
85672.4 10.4550
85672.9 8.27886
85673.9 5.89320
85674.9 4.73311
85676.9 3.67077
85678.9 3.21520
85682.9 2.83646
85686.8 2.68376
85694.8 2.55923
85702.7 2.50831
85734.5 2.44401
85798.2 2.40828
85925.4 2.36862
86179.9 2.29950
86434.3 2.22989
86561.6 2.19686
86625.2 2.18700
86657.0 2.20428
86672.9 2.29669
86676.9 2.38964
86680.9 2.63111
86682.8 2.92748
86684.8 3.61215
86685.8 4.34712
86686.8 5.75115
86687.8 8.86744
86688.3 11.9407
86688.8 16.8450
86689.4 25.7672
86690.0 31.8543
86690.6 26.0368
86691.2 17.1820
86691.7 12.1033
86692.2 8.96127
86693.3 5.79451
86694.3 4.38895
86695.4 3.66232
86697.4 2.97818
86699.5 2.67948
86703.7 2.42874
86707.8 2.32901
86724.4 2.22070
86757.7 2.19381
86790.9 2.20303
86824.1 2.23792
86857.3 2.32132
86873.9 2.40023
86890.6 2.52852
86907.2 2.75131
86923.8 3.18499
86932.1 3.58556
86940.4 4.30397
86944.6 4.95588
86948.7 6.13970
86950.8 7.20818
86952.9 9.01541
86954.9 12.5244
86956.0 15.5796
86957.0 20.0668
86958.5 29.5290
86960.0 36.2978
86961.5 30.9400
86963.0 22.2785
86964.6 16.5069
86966.2 13.6228
86967.8 12.2495
86969.4 11.7086
86972.6 11.9602
86975.8 13.3358
86982.3 19.2715
86988.7 31.7433
86994.3 50.2315
87000.0 63.4601
87005.7 52.2610
87011.3 34.1633
87015.7 24.5624
87020.0 18.2973
87024.3 14.1993
87028.6 11.4400
87037.2 8.13261
87045.8 6.32703
87054.4 5.23782
87063.1 4.53141
87080.3 3.69859
87097.5 3.24049
87114.8 2.95884
87149.2 2.63794
87183.7 2.46319
87218.2 2.35783
87235.4 2.32927
87252.6 2.34427
87261.3 2.40820
87269.9 2.62306
87274.2 2.91294
87278.5 3.60979
87280.7 4.36305
87282.8 5.79877
87283.9 7.03892
87285.0 8.89948
87286.0 11.8276
87287.1 16.3715
87288.6 25.6324
87290.0 32.4630
87291.5 27.1893
87292.9 18.3142
87294.1 13.3293
87295.2 10.1677
87296.4 8.13115
87297.6 6.77518
87299.9 5.16151
87302.2 4.29136
87306.9 3.42794
87311.5 3.02625
87320.8 2.66566
87330.1 2.50605
87348.7 2.35981
87367.3 2.28882
87404.5 2.21201
87441.7 2.16528
87516.0 2.10155
87590.4 2.05352
87739.2 1.97355
87887.9 1.89785
88036.7 1.81351
88111.0 1.76243
88185.4 1.69895
88259.8 1.61118
88297.0 1.54987
88334.2 1.46677
88371.4 1.34376
88390.0 1.25553
88408.5 1.13673
88427.1 0.968615
88445.7 0.723031
88464.3 0.466145
88469.0 0.525665
88473.6 0.873005
88476.0 1.31587
88478.3 2.14470
88480.6 3.70680
88482.9 6.63820
88484.4 9.74791
88486.0 13.8996
88489.0 22.3420
88490.5 23.6986
88492.1 22.5920
88495.1 17.5346
88498.5 12.7850
88501.9 9.80182
88505.2 7.93505
88508.6 6.70730
88512.0 5.85669
88515.4 5.24032
88522.1 4.41835
88528.9 3.90014
88535.6 3.54690
88549.2 3.09952
88562.7 2.82874
88576.2 2.64759
88603.2 2.41950
88630.2 2.28056
88657.3 2.18584
88711.3 2.06212
88765.4 1.98174
88819.4 1.92284
88927.5 1.83683
89143.8 1.71681
89360.0 1.62155
89792.4 1.45159
90008.6 1.36902
90116.8 1.32763
90170.8 1.30694
90197.8 1.29688
90211.4 1.29313
90218.1 1.29631
90221.5 1.31730
90223.2 1.39839
90224.0 1.66777
90224.4 2.41406
90224.7 3.95461
90224.9 11.9372
90225.0 22.5972
90225.1 11.9453
90225.4 3.83080
90225.6 2.31060
90226.1 1.62056
90227.0 1.38266
90228.8 1.31076
90232.5 1.28993
90239.8 1.28201
90254.4 1.27504
90283.6 1.26336
90342.1 1.24053
90459.1 1.19471
90693.0 1.10167
90926.9 1.00665
91043.9 0.958477
91102.4 0.934337
91131.6 0.922599
91146.2 0.918204
91153.5 0.921873
91157.2 0.946284
91159.0 1.04080
91159.9 1.35555
91160.4 2.25017
91160.6 4.14623
91160.9 13.0755
91161.0 25.2562
91161.1 13.0896
91161.4 3.50668
91161.7 1.94204
91162.2 1.24468
91163.3 1.00533
91165.5 0.933924
91169.8 0.913012
91178.5 0.904367
91195.8 0.895835
91230.5 0.881033
91299.8 0.852002
91438.5 0.794153
91715.8 0.680761
92270.5 0.500927
92547.8 0.492246
92686.5 0.541211
92825.2 0.656666
92963.8 0.884310
93102.5 1.30855
93241.2 2.09292
93310.5 2.71256
93345.2 3.10540
93362.5 3.32849
93371.2 3.45385
93375.5 3.54453
93377.7 3.68657
93378.8 4.07291
93379.3 5.12379
93379.6 7.32911
93379.8 18.6960
93380.0 33.8446
93380.2 18.7151
93380.3 9.40605
93380.5 6.37956
93380.9 4.62366
93381.6 3.91513
93383.0 3.70302
93385.9 3.67875
93391.7 3.74705
93403.1 3.92205
93426.1 4.31059
93472.1 5.22742
93564.0 7.75379
93875.0 21.0124
93887.4 21.2008
93893.7 21.2744
93896.8 21.3249
93898.3 21.4219
93899.1 21.7128
93899.5 22.5160
93899.7 24.1099
93899.9 31.1936
93900.0 41.0899
93900.1 31.2131
93900.4 23.1313
93900.7 22.0028
93901.3 21.5387
93902.4 21.3921
93904.6 21.3593
93909.1 21.3632
93918.0 21.3652
93935.9 21.2714
93971.6 20.7088
94043.1 18.5116
94186.0 13.0738
94322.9 9.07587
94391.4 7.60905
94425.6 6.98299
94442.8 6.69385
94451.3 6.55746
94455.6 6.50143
94457.7 6.51463
94458.8 6.66370
94459.3 7.15595
94459.6 8.38084
94459.9 16.2346
94460.0 26.0708
94460.1 16.2510
94460.4 8.57567
94460.6 7.29152
94461.1 6.69251
94462.0 6.46912
94463.8 6.37868
94467.5 6.30458
94474.9 6.18767
94489.7 5.96877
94519.3 5.55960
94578.6 4.83640
94608.2 4.51847
94637.8 4.23695
94652.6 4.12450
94667.4 4.07789
94674.8 4.13679
94682.2 4.39980
94685.9 4.76188
94689.6 5.59818
94691.4 6.44937
94693.3 7.97125
94695.1 10.9333
94696.1 13.4617
94697.0 17.0570
94698.5 25.5888
94700.0 31.6434
94701.5 26.5348
94703.0 18.2960
94704.5 12.8935
94706.0 9.79218
94707.5 7.96553
94709.0 6.83245
94712.0 5.55985
94715.0 4.90152
94721.0 4.25874
94727.0 3.94933
94738.9 3.63256
94750.9 3.44927
94774.9 3.19820
94798.8 3.00113
94846.7 2.66703
94894.5 2.37590
95086.0 1.45271
95277.5 0.782532
95469.0 0.307755
95564.8 0.150665
95612.7 0.0973858
95660.5 0.0644979
95708.4 0.0556677
95756.3 0.0756422
95804.1 0.130494
95852.0 0.227981
95899.9 0.378017
95947.8 0.593078
95995.6 0.889115
96043.5 1.28593
96139.3 2.48682
96235.0 4.46009
96332.5 7.59855
96430.0 12.0823
96625.0 22.1860
96713.9 24.3510
96736.1 24.5077
96758.4 24.5443
96769.5 24.5506
96780.6 24.6337
96786.1 24.7985
96791.7 25.2661
96794.5 25.8186
96797.3 26.9517
96798.6 27.9838
96800.0 29.6315
96801.4 32.3731
96802.8 36.9563
96804.4 45.1637
96806.0 51.0767
96807.6 46.2104
96809.2 38.2318
96810.8 32.9384
96812.4 29.9165
96814.0 28.1409
96815.6 27.0321
96818.9 25.7835
96822.1 25.1249
96828.5 24.4433
96834.9 24.0711
96847.8 23.5945
96860.7 23.2207
96912.1 21.8144
97015.0 18.8652
97231.4 13.5071
97447.7 9.84748
97664.1 7.33581
97772.3 6.34501
97826.4 5.89464
97853.4 5.69675
97867.0 5.70724
97870.3 5.80625
97873.7 6.10801
97875.4 6.48531
97877.1 7.31688
97878.8 9.55379
97879.6 12.2198
97880.5 17.3790
97881.2 25.0769
97882.0 30.7146
97882.8 26.2444
97883.5 18.8209
97884.1 14.6137
97884.8 11.9158
97886.0 9.07850
97887.3 7.75774
97888.5 7.05229
97891.1 6.34979
97893.6 6.01808
97898.6 5.70602
97903.6 5.55269
97913.7 5.38066
97923.7 5.26645
97963.9 4.93120
98004.1 4.64305
98044.3 4.37124
98205.0 3.37108
98365.8 2.45904
98526.6 1.61134
98687.3 0.854689
98767.7 0.548019
98848.1 0.339799
98888.3 0.295452
98928.5 0.310008
98968.7 0.404257
99008.8 0.606356
99049.0 0.954203
99089.2 1.49819
99129.4 2.30386
99169.6 3.45313
99219.7 5.51074
99269.8 8.42854
99319.8 12.2886
99344.9 14.5310
99357.4 15.7089
99363.6 16.3098
99366.8 16.6201
99368.3 16.8045
99369.1 16.9953
99369.5 17.3691
99369.7 18.1741
99369.9 22.5547
99370.0 28.2170
99370.1 22.5818
99370.4 17.6564
99370.7 17.2309
99371.4 17.1219
99372.6 17.1908
99375.1 17.4187
99380.1 17.8994
99390.1 18.8682
99410.1 20.7811
99450.0 24.2922
99520.0 28.3773
99589.9 29.2501
99659.9 27.8390
99694.9 26.7064
99712.4 26.0934
99721.1 25.7828
99725.5 25.6366
99727.7 25.6002
99728.8 25.7101
99729.3 26.1552
99729.6 27.2466
99729.9 34.7630
99730.0 44.0755
99730.1 34.7708
99730.4 27.2278
99731.5 25.5538
99732.5 25.4185
99734.6 25.3065
99738.8 25.1427
99747.3 24.8336
99764.1 24.2221
99797.8 23.0239
99865.2 20.8003
100000 17.2154
100109 15.0520
100219 13.3791
100438 11.0009
100656 9.40207
100875 8.24948
101312 6.67115
101531 6.09321
101641 5.83798
101695 5.71740
101723 5.65928
101736 5.63255
101743 5.62753
101746 5.65568
101748 5.77645
101749 6.21561
101749 7.23619
101750 9.00115
101750 17.9433
101750 30.3101
101750 17.9663
101750 9.01577
101751 7.24545
101751 6.21879
101752 5.77244
101754 5.64269
101757 5.59870
101764 5.57450
101778 5.54302
101806 5.48513
101862 5.37321
101974 5.15966
102198 4.76436
102310 4.57887
102422 4.40043
102478 4.31585
102534 4.24552
102562 4.23257
102590 4.28886
102604 4.41254
102611 4.54613
102618 4.79107
102625 5.28734
102628 5.73926
102632 6.47214
102635 7.75429
102639 10.2392
102641 12.4844
102642 15.7479
102644 20.8728
102646 28.9627
102648 44.5577
102650 55.5786
102652 46.2410
102654 31.0729
102656 22.8750
102658 17.5500
102660 14.0846
102661 11.7618
102665 8.99234
102668 7.52161
102671 6.60661
102675 6.03032
102681 5.33728
102688 4.95534
102695 4.71932
102708 4.44768
102722 4.29596
102735 4.19700
102762 4.06775
102815 3.89557
102842 3.81095
102856 3.80318
102862 4.06442
102864 4.37504
102866 5.19218
102867 6.22565
102867 8.13210
102868 12.5486
102869 17.0028
102869 25.7173
102870 39.6791
102870 51.8485
102871 43.1934
102871 29.9798
102871 20.9621
102872 16.0643
102873 10.8734
102874 8.21541
102874 6.97441
102876 5.67185
102878 5.07421
102881 4.54173
102884 4.31282
102891 4.10006
102898 4.00257
102911 3.90284
102925 3.84621
102979 3.71545
103087 3.53628
103303 3.22278
103735 2.59528
103951 2.24718
104167 1.84853
104383 1.36187
104437 1.21925
104491 1.06476
104545 0.894640
104572 0.813870
104585 0.864278
104589 0.971142
104592 1.29983
104594 1.73710
104596 2.79814
104597 4.05662
104597 6.24693
104598 10.9364
104599 15.3144
104599 22.5832
104600 37.8726
104600 47.0407
104601 39.8318
104601 25.1480
104601 19.2321
104602 14.1104
104603 8.45235
104603 5.71742
104604 4.22501
104606 2.74631
104607 2.09289
104610 1.47872
104614 1.21008
104620 0.968605
104626 0.857875
104651 0.665079
104701 0.459279
104751 0.293944
104801 0.173033
104826 0.144845
104851 0.155039
104876 0.225351
104901 0.389246
104926 0.702581
104951 1.24948
104976 2.17191
105001 3.66941
105007 4.18872
105033 6.92538
105059 10.8610
105110 20.0529
105136 22.3353
105162 22.1466
105213 18.2102
105273 13.7046
105332 10.7277
105392 8.80426
105452 7.50341
105571 5.87896
105690 4.90565
105810 4.24654
105929 3.75883
106048 3.37227
106108 3.21162
106138 3.19253
106145 3.24396
106153 3.42025
106156 3.66702
106160 4.24713
106162 4.89181
106164 6.05530
106166 8.71406
106167 11.0881
106168 14.9143
106169 22.7604
106170 28.0332
106171 23.8022
106172 16.1866
106174 11.3937
106175 8.50039
106176 6.84569
106178 5.89970
106180 4.76744
106183 4.21868
106188 3.68855
106193 3.44869
106203 3.23015
106213 3.12538
106234 3.01097
106254 2.93757
106335 2.73157
106498 2.41269
106824 1.88861
107476 1.02719
108128 0.323467
108291 0.190554
108454 0.0910529
108535 0.0583579
108617 0.0402151
108698 0.0390285
108739 0.0449343
108759 0.0510107
108769 0.0704277
108775 0.159984
108777 0.487048
108778 1.49183
108779 3.39886
108779 5.90004
108780 14.6170
108780 30.4213
108780 15.5346
108781 5.53177
108781 3.01838
108782 1.32828
108784 0.505673
108787 0.219519
108794 0.125418
108807 0.0991692
108834 0.103139
108887 0.140014
108993 0.268345
109046 0.364492
109099 0.500246
109125 0.607430
109152 0.815434
109165 1.05112
109172 1.26248
109178 1.61511
109185 2.28754
109188 2.86041
109192 3.74759
109195 5.21208
109198 7.82967
109201 12.9651
109203 17.5293
109205 23.7640
109207 38.9899
109210 49.5633
109213 40.5778
109215 26.4984
109218 15.9059
109222 10.4066
109225 7.40862
109228 5.68598
109234 3.79838
109240 2.90070
109246 2.39613
109252 2.09702
109264 1.77818
109289 1.56853
109313 1.55164
109412 1.94825
109608 3.55258
109804 6.17242
110000 9.94546
110000 6.90998
120000 6.79517
130000 6.69124
140000 6.59117
150000 6.49936
160000 6.41463
170000 6.33605
180000 6.26284
190000 6.19437
200000 6.13010
225000 5.96933
250000 5.82909
255515 5.80046
275000 5.70507
300000 5.59415
350000 5.37859
382057 5.25977
400000 5.19859
500000 4.87687
516423 4.82661
600000 4.60000
662054 4.44273
700000 4.35606
800000 4.13836
802509 4.13307
841074 4.05451
900000 3.94381
1.00000E+06 3.77184
1.02172E+06 3.73814
1.09337E+06 3.63380
1.10000E+06 3.62464
1.15000E+06 3.55796
1.20000E+06 3.49527
1.30000E+06 3.39287
1.30000E+06 3.39287
1.30000E+06 3.39287
1.34907E+06 3.34649
1.40000E+06 3.30073
1.40000E+06 3.30073
1.40000E+06 3.30073
1.45000E+06 3.25633
1.50000E+06 3.21721
1.55000E+06 3.19403
1.60000E+06 3.17373
1.60000E+06 3.17373
1.60000E+06 3.17373
1.64027E+06 3.15663
1.68053E+06 3.14104
1.68053E+06 3.14104
1.70000E+06 3.13342
1.75000E+06 3.11335
1.80000E+06 3.09589
1.85000E+06 3.07740
1.90000E+06 3.06080
1.91110E+06 3.05704
1.91111E+06 3.05703
1.95555E+06 3.04119
2.00000E+06 3.02788
2.00000E+06 3.02788
2.00000E+06 3.02788
2.06250E+06 3.02422
2.12500E+06 3.02211
2.18750E+06 3.02142
2.25000E+06 3.02206
2.31151E+06 3.02039
2.37301E+06 3.01943
2.37301E+06 3.01943
2.40550E+06 3.01876
2.45334E+06 3.01779
2.50000E+06 3.01686
2.54748E+06 3.03003
2.64874E+06 3.05638
2.75000E+06 3.08416
2.79122E+06 3.09480
2.79122E+06 3.09480
2.86348E+06 3.11316
2.86348E+06 3.11316
2.93164E+06 3.12987
2.99979E+06 3.14686
2.99980E+06 3.14684
3.00000E+06 3.14691
3.00410E+06 3.14873
3.05389E+06 3.17080
3.12695E+06 3.20281
3.12696E+06 3.20281
3.12696E+06 3.20281
3.14852E+06 3.21217
3.14852E+06 3.21217
3.20043E+06 3.23456
3.20043E+06 3.23456
3.20703E+06 3.23739
3.21098E+06 3.23909
3.21099E+06 3.23909
3.23143E+06 3.24783
3.23144E+06 3.24783
3.23392E+06 3.24890
3.23392E+06 3.24890
3.33017E+06 3.28962
3.33590E+06 3.29203
3.33590E+06 3.29203
3.39578E+06 3.31700
3.43527E+06 3.33333
3.45140E+06 3.33997
3.45140E+06 3.33997
3.47590E+06 3.35002
3.47590E+06 3.35002
3.48035E+06 3.35184
3.50000E+06 3.35987
3.51010E+06 3.36408
3.51010E+06 3.36408
3.53908E+06 3.37614
3.53909E+06 3.37614
3.71216E+06 3.44697
3.79801E+06 3.48141
3.89901E+06 3.52121
4.00000E+06 3.56074
4.16586E+06 3.60914
4.33172E+06 3.65682
4.44447E+06 3.68837
4.50000E+06 3.70371
4.75000E+06 3.75043
5.00000E+06 3.79583
5.24404E+06 3.82404
5.41205E+06 3.84281
5.41205E+06 3.84281
5.50000E+06 3.85245
5.74456E+06 3.86743
6.00000E+06 3.88246
6.24500E+06 3.88674
6.50000E+06 3.89102
7.00000E+06 3.88252
7.50000E+06 3.86107
7.86797E+06 3.83781
8.00000E+06 3.82974
8.50000E+06 3.79067
8.99994E+06 3.74509
9.00000E+06 3.74508
9.05535E+06 3.73922
9.24662E+06 3.71931
9.50000E+06 3.69372
9.53233E+06 3.68995
9.57292E+06 3.68523
9.74679E+06 3.66531
9.83384E+06 3.65551
1.00000E+07 3.63711
1.01256E+07 3.62056
1.01737E+07 3.61430
1.02427E+07 3.60538
1.03495E+07 3.59172
1.03496E+07 3.59171
1.04153E+07 3.58340
1.05000E+07 3.57279
1.07852E+07 3.53797
1.07852E+07 3.53797
1.09740E+07 3.51558
1.10000E+07 3.51253
1.10221E+07 3.50949
1.10266E+07 3.50887
1.10644E+07 3.50369
1.11768E+07 3.48842
1.12573E+07 3.47761
1.13848E+07 3.46071
1.14743E+07 3.44900
1.15000E+07 3.44566
1.15259E+07 3.44232
1.16202E+07 3.43022
1.16824E+07 3.42232
1.17148E+07 3.41823
1.18087E+07 3.40645
1.18175E+07 3.40535
1.18529E+07 3.40094
1.19566E+07 3.38814
1.19605E+07 3.38767
1.20000E+07 3.38283
1.20158E+07 3.38075
1.20509E+07 3.37613
1.21492E+07 3.36330
1.22387E+07 3.35174
1.22460E+07 3.35081
1.23055E+07 3.34319
1.23556E+07 3.33682
1.23686E+07 3.33518
1.23860E+07 3.33298
1.24394E+07 3.32625
1.24681E+07 3.32265
1.24882E+07 3.32013
1.25000E+07 3.31866
1.25045E+07 3.31810
1.29608E+07 3.26279
1.29609E+07 3.26278
1.30000E+07 3.25816
1.35000E+07 3.19912
1.35034E+07 3.19873
1.37257E+07 3.17354
1.37326E+07 3.17277
1.39814E+07 3.14528
1.40000E+07 3.14325
1.40311E+07 3.13985
1.42483E+07 3.11638
1.42889E+07 3.11206
1.44361E+07 3.09651
1.44625E+07 3.09375
1.45000E+07 3.08984
1.46066E+07 3.07881
1.46806E+07 3.07122
1.47223E+07 3.06697
1.50000E+07 3.03911
1.55000E+07 2.99106
1.60000E+07 2.94527
1.65000E+07 2.90228
1.70000E+07 2.86118
1.71354E+07 2.85063
1.71354E+07 2.85063
1.75000E+07 2.82283
1.75066E+07 2.82234
1.80000E+07 2.78605
1.85000E+07 2.75216
1.90000E+07 2.71956
1.95000E+07 2.69032
2.00000E+07 2.66212