Zn-64(n,tot) ENDF/B-VII.1
Energy(eV) XS(b)
1.00000E-05 43.4888
1.30872E-05 38.5054
1.50000E-05 36.2235
1.61743E-05 35.0279
2.00000E-05 31.8925
2.23486E-05 30.3806
2.75000E-05 27.7716
2.85230E-05 27.3395
3.16102E-05 26.1654
3.46973E-05 25.1516
3.50000E-05 25.0595
3.57529E-05 24.8355
3.65057E-05 24.6185
3.80115E-05 24.2039
4.10230E-05 23.4443
4.70459E-05 22.1502
5.00000E-05 21.6028
5.93945E-05 20.1422
7.17432E-05 18.6781
7.50000E-05 18.3536
8.40918E-05 17.5498
0.000100000 16.4168
0.000108789 15.9004
0.000133486 14.7332
0.000150000 14.1193
0.000158184 13.8513
0.000179092 13.2522
0.000200000 12.7497
0.000207578 12.5866
0.000232276 12.1116
0.000256973 11.7069
0.000275000 11.4466
0.000306367 11.0496
0.000350000 10.5889
0.000405156 10.1167
0.000500000 9.49580
0.000503945 9.47385
0.000516294 9.40674
0.000528642 9.34201
0.000553340 9.21910
0.000602734 8.99635
0.000750000 8.46834
0.000800313 8.32230
0.000997891 7.86003
0.00100000 7.85585
0.00100611 7.84381
0.00101222 7.83188
0.00102443 7.80834
0.00104887 7.76251
0.00109774 7.67549
0.00119547 7.51772
0.00150000 7.12931
0.00159063 7.03587
0.00178821 6.85737
0.00198578 6.70622
0.00200000 6.69622
0.00204762 6.66347
0.00209524 6.63185
0.00219047 6.57173
0.00238094 6.46250
0.00275000 6.28413
0.00317125 6.11991
0.00350000 6.01292
0.00396156 5.88582
0.00475188 5.71288
0.00500000 5.66724
0.00566625 5.55989
0.00633250 5.46996
0.00750000 5.34232
0.00791313 5.30408
0.00949375 5.18158
0.0100000 5.14864
0.0113275 5.07299
0.0126550 5.00957
0.0150000 4.91888
0.0158163 4.89215
0.0189775 4.80545
0.0200000 4.78192
0.0226500 4.72851
0.0253000 4.68374
0.0338720 4.57687
0.0376500 4.54184
0.0424441 4.50430
0.0500000 4.45649
0.0510161 4.45088
0.0531591 4.43959
0.0553021 4.42897
0.0595881 4.40946
0.0750000 4.35371
0.0767322 4.34852
0.0810182 4.33640
0.0853043 4.32520
0.0938763 4.30515
0.100000 4.29243
0.114082 4.26717
0.128164 4.24620
0.150000 4.21971
0.162452 4.20706
0.196741 4.17865
0.200000 4.17634
0.207757 4.17105
0.215515 4.16605
0.231029 4.15682
0.275000 4.13503
0.299605 4.12499
0.350000 4.10781
0.368181 4.10250
0.436758 4.08552
0.500000 4.07305
0.573910 4.06115
0.711063 4.04418
0.750000 4.04022
0.848215 4.03147
1.00000 4.02052
1.12252 4.01333
1.39682 4.00073
1.50000 3.99688
1.67113 3.99128
2.00000 3.98252
2.21974 3.97773
2.75000 3.96848
2.76835 3.96821
2.83693 3.96720
2.90550 3.96622
3.04266 3.96437
3.31696 3.96097
3.50000 3.95890
3.95709 3.95430
4.41418 3.95034
5.00000 3.94595
5.51140 3.94261
6.60862 3.93650
7.50000 3.93232
8.80306 3.92705
10.0000 3.92283
10.9975 3.91965
13.1919 3.91341
15.0000 3.90883
17.5808 3.90288
20.0000 3.89776
21.9697 3.89382
26.3586 3.88557
27.5000 3.88352
31.2500 3.87698
35.0000 3.87068
35.1363 3.87045
35.6849 3.86955
36.2335 3.86865
37.3308 3.86686
39.5252 3.86332
43.9141 3.85637
50.0000 3.84695
52.6918 3.84285
61.4696 3.82970
70.2473 3.81679
75.0000 3.80987
78.8930 3.80424
78.8930 3.80424
78.8931 3.80424
78.8931 3.80424
78.8932 3.80424
78.8933 3.80424
78.8937 3.80424
78.8943 3.80424
78.8956 3.80424
78.8982 3.80423
78.9033 3.80422
78.9136 3.80421
78.9342 3.80418
78.9755 3.80412
79.0579 3.80400
79.2228 3.80376
79.5526 3.80329
80.2122 3.80234
81.5314 3.80043
84.1698 3.79664
89.4465 3.78908
100.000 3.77405
101.300 3.77221
101.300 3.77221
101.301 3.77221
101.301 3.77221
101.302 3.77220
101.304 3.77220
101.307 3.77220
101.314 3.77219
101.328 3.77217
101.356 3.77213
101.413 3.77205
101.525 3.77189
101.750 3.77157
102.199 3.77093
103.098 3.76966
104.896 3.76711
108.493 3.76203
115.685 3.75188
130.070 3.73168
130.070 3.73168
130.071 3.73168
130.071 3.73168
130.073 3.73168
130.075 3.73167
130.080 3.73167
130.090 3.73165
130.109 3.73162
130.148 3.73157
130.226 3.73146
130.382 3.73124
130.693 3.73081
131.316 3.72993
132.561 3.72819
135.053 3.72470
140.035 3.71773
150.000 3.70382
167.020 3.68013
167.020 3.68013
167.021 3.68013
167.021 3.68013
167.022 3.68013
167.024 3.68012
167.028 3.68012
167.036 3.68011
167.052 3.68008
167.085 3.68004
167.149 3.67995
167.278 3.67977
167.536 3.67941
168.051 3.67870
169.081 3.67726
171.143 3.67440
175.265 3.66868
183.510 3.65724
200.000 3.63445
214.450 3.61461
214.450 3.61464
214.451 3.61464
214.451 3.61464
214.452 3.61464
214.454 3.61464
214.458 3.61463
214.465 3.61462
214.480 3.61460
214.510 3.61456
214.569 3.61448
214.688 3.61432
214.926 3.61399
215.402 3.61334
216.354 3.61204
218.257 3.60945
222.064 3.60428
229.678 3.59404
244.905 3.57440
252.519 3.56571
260.133 3.55954
263.939 3.55903
267.746 3.56326
269.650 3.56939
271.553 3.58137
273.457 3.60584
274.408 3.62771
275.360 3.66232
275.360 3.66609
275.361 3.66612
275.362 3.66615
275.363 3.66621
275.366 3.66634
275.371 3.66659
275.382 3.66709
275.403 3.66809
275.446 3.67015
275.532 3.67440
275.703 3.68356
276.046 3.70490
276.733 3.76440
277.419 3.86190
278.105 4.03733
278.448 4.18281
278.791 4.40108
279.135 4.74996
279.478 5.35803
279.821 6.56072
279.992 7.65903
280.164 9.47172
280.335 12.7736
280.421 15.5353
280.507 19.6913
280.593 26.3250
280.679 37.6602
280.764 58.5830
280.850 99.0624
280.925 156.454
281.000 194.751
281.075 156.494
281.150 99.1146
281.221 63.8918
281.292 43.5482
281.362 31.5012
281.433 24.0118
281.575 15.7298
281.716 11.5689
281.857 9.20617
281.999 7.74414
282.282 6.10999
282.565 5.26713
282.848 4.77729
283.131 4.46774
283.414 4.25976
283.979 4.00625
284.545 3.86340
285.111 3.77489
285.677 3.71618
286.809 3.64525
287.940 3.60532
289.072 3.58032
290.204 3.56339
292.467 3.54199
294.731 3.52882
299.258 3.51242
303.784 3.50136
308.311 3.49243
317.365 3.47712
335.473 3.44976
353.580 3.42353
353.580 3.41974
353.581 3.41974
353.581 3.41974
353.582 3.41974
353.585 3.41973
353.589 3.41973
353.598 3.41971
353.616 3.41969
353.652 3.41963
353.725 3.41953
353.869 3.41932
354.158 3.41891
354.736 3.41808
355.892 3.41642
358.205 3.41310
362.829 3.40647
372.078 3.39324
390.575 3.36681
454.000 3.27583
454.000 3.27583
454.001 3.27583
454.002 3.27583
454.003 3.27583
454.006 3.27582
454.011 3.27581
454.023 3.27580
454.045 3.27577
454.090 3.27570
454.180 3.27557
454.360 3.27531
454.719 3.27479
455.438 3.27376
456.875 3.27169
459.750 3.26754
465.500 3.25923
477.000 3.24259
500.000 3.20919
582.950 3.08717
582.950 3.08716
582.951 3.08716
582.951 3.08716
582.953 3.08716
582.955 3.08716
582.960 3.08715
582.970 3.08713
582.991 3.08710
583.031 3.08704
583.112 3.08692
583.274 3.08668
583.597 3.08620
584.244 3.08524
585.537 3.08331
588.124 3.07946
593.298 3.07175
603.646 3.05629
624.343 3.02523
665.735 2.96251
748.520 2.83446
748.520 2.83445
748.521 2.83445
748.522 2.83445
748.523 2.83445
748.526 2.83445
748.532 2.83444
748.543 2.83442
748.566 2.83438
748.613 2.83431
748.705 2.83416
748.890 2.83387
749.260 2.83329
750.000 2.83213
751.649 2.82954
753.299 2.82695
756.598 2.82176
763.195 2.81136
776.390 2.79048
802.780 2.74841
855.560 2.66291
961.120 2.48596
961.120 2.48596
961.121 2.48596
961.121 2.48595
961.123 2.48595
961.125 2.48595
961.130 2.48594
961.139 2.48592
961.158 2.48589
961.196 2.48583
961.272 2.48569
961.424 2.48543
961.728 2.48491
962.335 2.48387
963.550 2.48178
965.980 2.47760
970.840 2.46922
980.560 2.45241
1000.00 2.41855
1058.53 2.31458
1117.05 2.20736
1234.10 1.98200
1234.10 1.98200
1234.11 1.98199
1234.11 1.98198
1234.12 1.98197
1234.13 1.98193
1234.17 1.98187
1234.23 1.98174
1234.36 1.98148
1234.62 1.98096
1235.14 1.97993
1236.18 1.97786
1238.26 1.97371
1242.41 1.96540
1250.72 1.94872
1267.34 1.91510
1300.58 1.84681
1367.05 1.70584
1500.00 1.40501
1584.60 1.19971
1584.60 1.19971
1584.61 1.19969
1584.61 1.19967
1584.63 1.19964
1584.65 1.19958
1584.70 1.19945
1584.80 1.19920
1585.01 1.19870
1585.41 1.19768
1586.22 1.19566
1587.85 1.19161
1591.09 1.18351
1597.58 1.16725
1610.56 1.13454
1636.53 1.06841
1688.45 0.933419
1792.30 0.655489
1896.15 0.379156
2000.00 0.140630
2034.70 0.0830994
2034.70 0.0830976
2034.71 0.0830906
2034.71 0.0830850
2034.72 0.0830724
2034.74 0.0830486
2034.77 0.0830010
2034.84 0.0829059
2034.97 0.0827158
2035.25 0.0823353
2035.79 0.0815793
2036.88 0.0800826
2039.06 0.0771506
2043.42 0.0715389
2052.14 0.0613827
2069.58 0.0458399
2078.30 0.0407719
2087.02 0.0377450
2095.74 0.0369592
2104.46 0.0386356
2113.19 0.0430181
2121.91 0.0503740
2130.63 0.0609998
2139.35 0.0752229
2156.79 0.115952
2174.23 0.175955
2191.67 0.259437
2209.11 0.371614
2243.99 0.709886
2278.87 1.26690
2313.75 2.16855
2348.63 3.63231
2383.51 6.05418
2418.40 10.2058
2453.28 17.7261
2470.72 23.7983
2488.16 32.5151
2505.60 45.4444
2523.04 65.4023
2540.48 97.7594
2557.92 153.365
2575.36 255.084
2592.80 447.803
2612.60 817.125
2612.60 817.165
2612.61 817.324
2612.62 817.463
2612.63 817.741
2612.66 818.297
2612.71 819.408
2612.83 821.626
2613.05 826.069
2613.50 834.889
2614.40 852.236
2616.20 885.458
2619.80 943.553
2627.00 1008.49
2644.15 852.050
2661.30 563.321
2672.13 427.491
2682.97 330.315
2704.63 211.699
2726.30 147.656
2747.96 109.885
2769.63 85.8463
2791.29 69.5902
2834.63 49.5418
2877.96 37.9947
2921.29 30.6510
3007.95 22.0229
3094.61 17.2004
3181.28 14.1384
3267.94 12.0098
3354.60 10.4209
3354.60 10.4209
3354.61 10.4208
3354.62 10.4207
3354.63 10.4204
3354.66 10.4200
3354.71 10.4191
3354.82 10.4174
3355.04 10.4138
3355.48 10.4068
3356.35 10.3927
3358.10 10.3646
3361.61 10.3089
3368.61 10.1989
3382.62 9.98458
3410.63 9.57700
3504.30 8.37188
3597.96 7.32095
3691.63 6.32780
3785.30 5.29369
3878.96 4.07929
3925.80 3.33398
3972.63 2.43950
3996.05 1.92317
4019.46 1.36392
4042.88 0.793962
4054.59 0.536217
4066.29 0.337955
4072.15 0.280404
4075.08 0.267307
4078.00 0.267474
4080.93 0.283546
4083.86 0.318707
4086.78 0.376803
4089.71 0.462509
4092.64 0.581531
4095.57 0.740867
4098.49 0.949157
4101.42 1.21713
4107.27 1.98921
4113.13 3.21287
4118.98 5.14489
4124.84 8.22406
4130.69 13.2413
4136.54 21.7050
4142.40 36.6997
4148.25 65.0529
4151.18 88.6563
4154.11 123.021
4157.03 173.774
4159.96 248.566
4164.98 445.749
4170.00 620.216
4175.02 549.160
4180.04 378.228
4182.46 311.521
4183.68 283.565
4184.28 271.026
4184.59 265.562
4184.74 263.809
4184.81 263.901
4184.89 265.817
4185.00 270.806
4185.11 261.553
4185.17 257.581
4185.23 254.907
4185.35 251.328
4185.59 246.178
4186.07 237.506
4187.02 221.939
4188.93 195.171
4192.76 154.737
4200.40 105.836
4208.04 78.8029
4215.68 62.2809
4223.33 51.3814
4230.97 43.7601
4246.26 33.9568
4261.54 28.0171
4276.83 24.0779
4307.40 19.2243
4307.40 19.2247
4307.41 19.2240
4307.41 19.2234
4307.42 19.2221
4307.44 19.2197
4307.49 19.2147
4307.57 19.2049
4307.74 19.1852
4308.08 19.1458
4308.75 19.0678
4310.10 18.9146
4312.79 18.6180
4318.18 18.0624
4328.96 17.0806
4350.52 15.5132
4393.64 13.3738
4436.75 11.9767
4458.31 11.4450
4463.70 11.3266
4469.09 11.2173
4471.79 11.1705
4474.48 11.1425
4475.83 11.1530
4477.18 11.2305
4477.85 11.3571
4478.19 11.4856
4478.52 11.7152
4478.86 12.1820
4479.03 12.6177
4479.20 13.3444
4479.37 14.7048
4479.45 15.8606
4479.53 17.6367
4479.62 20.5464
4479.70 25.7154
4479.79 35.8274
4479.83 44.4978
4479.87 57.0837
4479.94 84.7687
4480.00 103.246
4480.07 84.8147
4480.13 57.1396
4480.19 39.5960
4480.26 29.7980
4480.32 23.9963
4480.38 20.4795
4480.45 18.1547
4480.51 16.5947
4480.64 14.6593
4480.77 13.5666
4480.89 12.8922
4481.15 12.1386
4481.40 11.7490
4481.65 11.5210
4482.16 11.2763
4483.18 11.0770
4484.19 10.9913
4486.22 10.9036
4488.25 10.8478
4492.32 10.7600
4496.38 10.6825
4512.62 10.4034
4545.11 9.92386
4610.10 9.17252
4740.07 8.15171
4870.03 7.46810
5000.00 6.96285
5099.40 6.65209
5124.25 6.58295
5149.10 6.51900
5161.52 6.49161
5173.95 6.47550
5180.16 6.48247
5183.27 6.49760
5186.37 6.53203
5189.48 6.61483
5191.03 6.70107
5192.59 6.86078
5193.36 6.99599
5194.14 7.20186
5194.92 7.53769
5195.69 8.13717
5196.08 8.63256
5196.47 9.37024
5196.86 10.5404
5197.25 12.5581
5197.63 16.4967
5197.83 20.0226
5198.02 25.7347
5198.22 35.8379
5198.31 44.0405
5198.41 56.0416
5198.51 74.4252
5198.60 104.114
5198.70 154.682
5198.80 242.854
5198.90 384.324
5199.00 478.501
5199.10 383.024
5199.20 241.937
5199.28 165.588
5199.37 117.573
5199.45 87.1444
5199.53 67.1869
5199.69 43.9768
5199.85 31.7302
5200.01 24.5650
5200.18 20.0366
5200.50 14.8721
5200.82 12.1594
5201.15 10.5634
5201.47 9.54648
5201.79 8.86097
5202.44 8.01760
5203.09 7.53978
5203.74 7.24286
5204.39 7.04583
5205.68 6.80745
5206.98 6.67380
5209.57 6.53504
5212.16 6.46616
5214.75 6.42540
5219.93 6.37806
5230.29 6.32774
5240.65 6.29398
5261.38 6.23889
5282.10 6.18925
5323.55 6.09639
5365.00 6.00888
5530.80 5.69577
5530.80 5.69514
5530.81 5.69513
5530.82 5.69512
5530.83 5.69510
5530.86 5.69505
5530.91 5.69496
5531.01 5.69477
5531.23 5.69440
5531.65 5.69366
5532.51 5.69218
5534.21 5.68922
5537.62 5.68332
5544.43 5.67157
5558.05 5.64828
5585.31 5.60252
5639.81 5.51408
5748.82 5.34814
5857.84 5.19464
5912.34 5.12222
5939.59 5.08852
5953.22 5.07866
5956.63 5.08234
5960.03 5.10084
5961.74 5.13022
5963.44 5.21559
5964.29 5.33221
5965.14 5.64515
5965.57 6.04753
5965.78 6.42154
5966.00 7.05112
5966.21 8.23057
5966.32 9.25245
5966.42 10.8243
5966.53 13.4636
5966.63 18.2119
5966.69 22.1099
5966.74 27.7911
5966.79 36.2576
5966.85 48.8615
5966.92 75.1854
5967.00 92.7649
5967.08 75.2559
5967.15 48.9499
5967.20 37.5357
5967.25 29.6415
5967.34 20.0877
5967.43 15.0084
5967.52 12.0723
5967.62 10.2305
5967.71 9.03083
5967.89 7.60346
5968.08 6.81954
5968.26 6.34910
5968.63 5.83334
5969.00 5.57285
5969.37 5.42325
5970.11 5.26665
5971.58 5.14724
5973.06 5.10233
5976.01 5.06682
5978.96 5.05162
5990.76 5.02532
6014.37 4.99282
6061.59 4.93417
6156.02 4.82236
6250.46 4.71556
6297.67 4.66379
6321.28 4.63837
6333.08 4.62615
6338.99 4.62170
6341.94 4.62586
6343.41 4.65134
6344.15 4.74185
6344.52 5.00166
6344.70 5.55698
6344.80 6.36032
6344.89 8.38889
6344.94 10.6582
6345.00 12.1743
6345.06 10.6657
6345.11 8.39820
6345.20 6.42186
6345.29 5.60908
6345.46 5.03083
6345.82 4.75341
6346.52 4.65286
6347.92 4.62118
6350.73 4.60981
6356.36 4.60159
6367.60 4.58908
6390.08 4.56525
6435.06 4.51842
6525.00 4.42696
6614.94 4.33803
6659.92 4.29443
6682.40 4.27294
6693.65 4.26277
6699.27 4.25984
6702.08 4.26669
6703.48 4.30041
6704.19 4.41689
6704.54 4.74338
6704.71 5.42640
6704.80 6.38671
6704.89 8.69780
6704.94 11.3829
6705.00 13.1557
6705.06 11.3920
6705.11 8.70906
6705.21 6.25617
6705.31 5.31486
6705.50 4.68222
6705.89 4.39273
6706.66 4.29097
6708.21 4.25943
6711.31 4.24820
6717.51 4.24009
6729.90 4.22774
6754.69 4.20415
6804.26 4.15765
6903.41 4.06613
7101.70 3.88768
7101.70 3.88811
7101.71 3.88811
7101.71 3.88810
7101.72 3.88809
7101.74 3.88808
7101.78 3.88804
7101.86 3.88797
7102.02 3.88783
7102.34 3.88754
7102.98 3.88698
7104.26 3.88584
7106.82 3.88357
7111.93 3.87904
7122.16 3.86998
7142.61 3.85189
7183.52 3.81582
7265.34 3.74409
7428.97 3.60176
7756.24 3.31786
8083.51 3.02800
8247.15 2.87834
8328.97 2.80315
8369.88 2.77114
8380.10 2.76870
8390.33 2.78003
8395.44 2.80473
8400.56 2.88369
8403.11 2.99682
8404.39 3.11004
8405.67 3.31524
8406.95 3.74605
8407.59 4.16403
8408.23 4.90211
8408.55 5.50467
8408.87 6.39179
8409.19 7.78426
8409.51 10.1313
8409.83 14.5749
8409.99 18.4368
8410.14 24.4411
8410.30 34.6027
8410.46 53.4201
8410.54 69.2127
8410.62 92.7175
8410.70 128.667
8410.78 182.912
8410.89 291.670
8411.00 363.370
8411.11 290.781
8411.22 183.135
8411.31 121.410
8411.40 84.1768
8411.50 60.9303
8411.59 46.1474
8411.77 29.1839
8411.96 20.4033
8412.14 15.3288
8412.33 12.1487
8412.70 8.55765
8413.07 6.67903
8413.44 5.57942
8413.81 4.88133
8414.18 4.41183
8414.92 3.83608
8415.65 3.51120
8417.13 3.17600
8418.61 3.01488
8420.09 2.92489
8423.05 2.83226
8428.96 2.76083
8434.88 2.73157
8446.71 2.70291
8458.54 2.68521
8505.85 2.63253
8600.49 2.53596
8695.12 2.43866
8742.44 2.39331
8754.27 2.38621
8766.10 2.39020
8772.01 2.40786
8777.93 2.47097
8780.89 2.56486
8782.37 2.66003
8783.84 2.83392
8785.32 3.20158
8786.06 3.56010
8786.80 4.19561
8787.17 4.71587
8787.54 5.48656
8787.91 6.69679
8788.28 8.74534
8788.65 12.6427
8788.83 16.0471
8789.02 21.3725
8789.20 30.4433
8789.39 47.4205
8789.48 61.9180
8789.57 83.4868
8789.67 116.842
8789.76 168.986
8789.88 269.489
8790.00 336.354
8790.12 270.026
8790.24 169.662
8790.32 123.048
8790.40 91.4130
8790.56 54.8441
8790.72 36.2268
8790.88 25.8811
8791.05 19.5501
8791.21 15.4656
8791.53 10.6664
8791.85 8.08204
8792.17 6.53648
8792.81 4.86283
8793.45 4.02182
8794.09 3.54097
8795.38 3.03998
8796.66 2.79672
8797.94 2.66014
8800.51 2.51897
8805.64 2.41073
8810.78 2.36777
8821.05 2.32877
8831.31 2.30728
8851.85 2.27685
8872.38 2.25103
8954.52 2.15432
9118.80 1.95581
9118.80 1.95529
9118.81 1.95528
9118.82 1.95527
9118.83 1.95525
9118.86 1.95522
9118.91 1.95515
9119.02 1.95502
9119.23 1.95475
9119.66 1.95421
9120.52 1.95313
9122.24 1.95097
9125.69 1.94666
9132.57 1.93800
9146.34 1.92060
9173.88 1.88544
9228.95 1.81363
9339.10 1.66354
9559.40 1.33271
9779.70 0.952050
10000.0 0.519103
10021.9 0.474306
10032.9 0.452203
10038.4 0.442324
10041.1 0.441955
10042.5 0.458343
10043.2 0.521320
10043.5 0.695237
10043.7 1.04654
10043.8 1.56585
10043.9 2.81295
10044.0 5.20589
10044.1 2.82211
10044.3 1.17979
10044.4 0.762490
10044.7 0.545196
10045.3 0.461996
10046.5 0.433993
10048.9 0.421922
10053.7 0.410216
10063.3 0.390273
10082.4 0.351552
10120.7 0.276130
10197.3 0.140410
10235.6 0.0872808
10273.9 0.0519276
10293.1 0.0438606
10312.2 0.0443725
10331.4 0.0556236
10350.5 0.0803346
10369.7 0.122026
10388.8 0.185187
10408.0 0.275666
10427.1 0.401135
10446.3 0.571772
10465.4 0.801256
10503.7 1.51818
10542.0 2.80901
10561.1 3.81803
10580.3 5.20962
10599.4 7.16108
10618.6 9.95518
10637.7 14.0589
10647.3 16.8311
10652.1 18.4590
10654.5 19.3459
10655.7 19.8300
10656.3 20.1413
10656.6 20.4625
10656.7 20.9132
10656.9 22.5174
10657.0 24.8181
10657.1 22.6169
10657.3 21.1729
10657.4 20.8190
10657.7 20.7108
10658.2 20.8480
10659.3 21.2761
10661.5 22.2163
10665.9 24.2709
10674.6 29.1078
10692.1 42.7136
10709.5 64.4748
10727.0 99.4687
10751.0 175.386
10775.0 240.111
10799.0 210.065
10823.0 143.214
10851.4 89.2350
10865.7 72.3302
10872.8 65.6139
10876.3 62.6063
10878.1 61.1916
10879.0 60.5363
10879.4 60.3120
10879.7 60.4049
10879.8 60.7337
10879.9 62.0026
10880.0 64.1273
10880.1 61.8424
10880.3 60.1644
10880.4 59.6757
10880.7 59.2612
10881.4 58.7315
10882.6 57.7990
10885.1 56.0373
10890.1 52.7750
10900.1 47.0961
10920.1 38.3514
10960.0 27.3018
10999.9 20.8247
11019.9 18.5375
11029.9 17.5588
11034.9 17.1089
11037.4 16.9084
11038.6 16.8710
11039.3 17.0453
11039.6 17.6159
11039.7 18.8015
11039.8 20.3710
11039.9 23.4713
11039.9 27.3828
11040.0 30.2369
11040.1 27.3979
11040.1 23.4243
11040.2 20.0952
11040.3 18.6497
11040.4 17.5187
11040.8 16.9021
11041.4 16.6324
11042.7 16.4562
11045.3 16.2241
11050.6 15.8067
11061.0 15.0369
11081.9 13.6904
11123.7 11.5767
11207.3 8.77380
11290.9 6.99752
11374.6 5.75825
11541.8 4.09066
11709.0 2.94562
11709.0 2.94564
11709.1 2.94528
11709.1 2.94493
11709.2 2.94427
11709.5 2.94296
11709.9 2.94033
11710.8 2.93503
11712.6 2.92451
11716.1 2.90347
11723.2 2.86176
11737.4 2.77946
11765.7 2.61909
11822.5 2.31307
11935.9 1.74678
12049.4 1.22629
12106.1 0.981832
12134.4 0.866133
12148.6 0.819696
12155.7 0.838746
12157.5 0.880920
12159.3 1.01002
12160.2 1.18981
12161.0 1.66395
12161.5 2.27944
12161.9 3.74554
12162.1 5.40219
12162.4 8.85545
12162.5 12.1436
12162.6 17.7224
12162.7 27.9260
12162.8 48.7580
12162.9 76.8774
12163.0 97.0343
12163.1 77.0895
12163.2 49.0193
12163.3 35.5340
12163.3 26.9345
12163.4 16.6493
12163.6 11.2390
12163.7 8.13062
12163.9 4.93695
12164.2 3.43218
12164.7 2.09812
12165.1 1.56346
12166.1 1.13142
12167.1 0.964703
12169.0 0.833705
12170.9 0.780788
12178.7 0.703980
12194.2 0.631337
12225.2 0.512097
12287.1 0.301526
12349.1 0.134721
12380.1 0.0754115
12395.6 0.0537856
12411.0 0.0385214
12426.5 0.0305255
12442.0 0.0308489
12457.5 0.0407121
12473.0 0.0615362
12488.5 0.0949794
12504.0 0.142982
12519.5 0.207821
12535.0 0.292177
12565.9 0.532692
12596.9 0.897687
12627.9 1.43458
12643.4 1.78807
12651.1 1.99158
12655.0 2.10356
12657.0 2.17390
12657.9 2.25294
12658.4 2.42015
12658.6 2.79072
12658.8 3.39666
12658.9 5.48867
12659.0 8.76065
12659.1 5.48793
12659.2 3.42752
12659.4 2.79586
12659.6 2.44431
12660.2 2.31585
12661.2 2.30096
12663.3 2.35193
12667.4 2.48208
12675.7 2.76925
12692.2 3.43721
12725.3 5.24250
12758.5 7.94740
12791.6 12.0679
12824.7 18.4826
12857.8 28.7184
12890.9 45.4105
12924.0 72.7081
12971.5 137.316
13019.0 199.252
13066.5 183.338
13114.0 130.728
13165.8 88.1183
13217.6 62.7831
13269.4 47.4640
13321.2 37.6449
13372.9 30.9752
13424.7 26.2177
13528.3 19.9621
13631.9 16.0650
13735.4 13.3996
13839.0 11.4418
13864.9 11.0290
13890.8 10.6443
13903.7 10.4666
13916.7 10.3133
13923.2 10.2653
13929.6 10.2953
13932.9 10.4144
13934.5 10.5530
13936.1 10.8164
13937.7 11.3841
13938.5 11.9345
13939.3 12.8935
13940.2 14.7732
13940.6 16.4920
13941.0 19.2147
13941.4 24.1690
13941.8 33.8496
13942.0 42.6071
13942.2 56.6669
13942.4 80.4412
13942.6 123.494
13942.8 192.273
13943.0 237.407
13943.2 192.725
13943.4 123.792
13943.6 80.9624
13943.8 57.1164
13944.0 42.9899
13944.2 34.1762
13944.6 24.4101
13945.0 19.4828
13945.4 16.6781
13945.8 14.9367
13946.6 12.9802
13947.4 11.9634
13948.2 11.3664
13949.8 10.7240
13951.4 10.3978
13953.0 10.2045
13956.2 9.98522
13959.4 9.85859
13962.6 9.76999
13969.0 9.64007
13981.8 9.44398
13994.6 9.27445
14020.3 8.96153
14045.9 8.66664
14148.3 7.59241
14353.2 5.71522
14558.0 3.89480
14660.5 2.90829
14711.7 2.38174
14737.3 2.10974
14750.1 1.97204
14756.5 1.90365
14759.7 1.87282
14761.3 1.87002
14762.1 1.91055
14762.5 2.04734
14762.7 2.35334
14762.8 2.81351
14762.9 4.24733
14763.0 6.66215
14763.1 4.24499
14763.3 2.62377
14763.4 2.20676
14763.6 1.96529
14764.2 1.86156
14765.2 1.81884
14767.4 1.78687
14771.6 1.73823
14780.0 1.64478
14797.0 1.45814
14830.8 1.08626
14898.6 0.407693
14915.5 0.276090
14932.4 0.175424
14940.9 0.140751
14949.3 0.119378
14957.8 0.113886
14966.3 0.127440
14974.7 0.163875
14983.2 0.227687
14991.7 0.324594
15000.1 0.461133
15008.6 0.645913
15017.1 0.888661
15034.0 1.60230
15034.0 1.60334
15034.1 1.60706
15034.1 1.61026
15034.3 1.61667
15034.5 1.62954
15035.0 1.65555
15035.9 1.70862
15037.9 1.81905
15041.7 2.05806
15049.4 2.61814
15064.8 4.14776
15080.1 6.44604
15095.5 9.90485
15110.9 15.1581
15126.3 23.2053
15141.6 35.6257
15157.0 54.6877
15184.5 111.606
15212.0 172.996
15225.8 180.065
15239.5 168.623
15267.0 126.339
15293.9 92.2792
15320.8 70.0544
15347.8 55.6656
15374.7 45.9857
15401.6 39.1751
15428.5 34.1926
15482.3 27.4792
15536.2 23.2210
15590.0 20.3026
15697.7 16.5794
15805.3 14.3044
15913.0 12.7637
16128.3 10.7872
16343.6 9.54798
16559.0 8.67861
16774.3 8.02181
16828.1 7.88080
16881.9 7.74775
16935.8 7.62622
16949.2 7.60191
16962.7 7.59102
16969.4 7.60402
16976.1 7.66976
16979.5 7.77438
16982.9 8.07610
16984.6 8.48341
16985.4 8.87475
16986.2 9.55555
16987.1 10.8940
16987.5 12.1059
16987.9 14.0876
16988.3 17.6384
16988.5 20.5583
16988.8 24.8835
16989.0 31.6186
16989.2 42.7440
16989.4 62.3022
16989.6 98.2856
16989.8 154.029
16990.0 189.440
16990.2 154.482
16990.4 98.6376
16990.6 69.5017
16990.7 50.2303
16990.9 38.2228
16991.1 30.8306
16991.4 21.7368
16991.7 17.1263
16992.1 14.3594
16992.4 12.6692
16993.1 10.7323
16993.7 9.69740
16994.4 9.09669
16995.7 8.44685
16997.1 8.12159
16998.4 7.93734
17001.1 7.74343
17006.4 7.59004
17011.7 7.52647
17022.4 7.46464
17033.0 7.42763
17054.3 7.37205
17075.6 7.32405
17118.2 7.23527
17160.8 7.15122
17331.3 6.84305
17672.2 6.31891
18013.0 5.87546
18183.5 5.67374
18268.7 5.57671
18311.3 5.52935
18332.6 5.50629
18343.2 5.49542
18348.6 5.49163
18351.2 5.49570
18352.6 5.51888
18353.2 5.59950
18353.6 5.81653
18353.7 6.27064
18353.9 8.37161
18354.0 11.2360
18354.1 8.37150
18354.3 6.32088
18354.4 5.84534
18354.8 5.60716
18355.4 5.51896
18356.7 5.49101
18359.2 5.48101
18364.3 5.47404
18374.5 5.46412
18394.8 5.45093
18405.0 5.45363
18415.2 5.48350
18420.3 5.53600
18425.4 5.69466
18427.9 5.91601
18429.2 6.13227
18430.5 6.51571
18431.7 7.29104
18432.4 8.02102
18433.0 9.23291
18433.6 11.5467
18434.0 13.5532
18434.3 16.5652
18434.6 21.7294
18434.9 31.1839
18435.1 39.0236
18435.2 50.5548
18435.4 67.9290
18435.5 93.7044
18435.8 145.874
18436.0 182.524
18436.2 146.428
18436.5 94.1962
18436.6 68.5876
18436.8 51.1562
18436.9 39.5651
18437.1 31.6710
18437.4 22.1288
18437.7 16.9001
18438.1 13.7635
18438.4 11.7460
18439.0 9.40464
18439.7 8.15341
18440.3 7.40838
18441.6 6.60739
18442.8 6.20202
18444.1 5.97007
18446.7 5.72781
18451.8 5.54036
18456.9 5.46762
18467.1 5.40598
18477.3 5.37622
18497.7 5.33995
18518.2 5.31259
18559.0 5.26464
18579.5 5.24199
18589.7 5.23150
18594.8 5.22931
18597.3 5.24045
18598.6 5.29138
18599.3 5.46472
18599.6 5.93813
18599.7 6.87435
18599.9 10.3964
18600.0 15.5805
18600.1 10.4036
18600.2 7.93386
18600.3 6.71951
18600.5 5.87609
18600.8 5.44844
18601.5 5.28699
18602.9 5.23606
18605.6 5.21901
18611.1 5.20907
18622.1 5.19603
18644.2 5.17200
18688.2 5.12494
18776.3 5.03198
18952.6 4.84771
19305.0 4.47467
19305.0 4.47467
19305.1 4.47461
19305.1 4.47457
19305.2 4.47448
19305.4 4.47430
19305.7 4.47393
19306.4 4.47319
19307.7 4.47172
19310.4 4.46878
19315.9 4.46289
19326.7 4.45108
19348.5 4.42739
19391.9 4.37967
19478.8 4.28265
19652.5 4.08052
19826.3 3.86342
19913.1 3.74730
20000.0 3.62495
20079.3 3.50879
20118.9 3.45966
20128.8 3.45839
20138.7 3.48527
20143.7 3.53776
20148.6 3.69965
20151.1 3.92600
20152.3 4.14752
20153.6 4.53505
20154.8 5.31830
20155.4 6.04315
20156.0 7.25570
20156.7 9.50282
20157.0 11.4153
20157.3 14.3467
20157.6 19.1309
20157.9 27.5793
20158.2 43.9484
20158.4 57.3146
20158.5 77.7099
20158.8 121.681
20159.0 152.669
20159.3 122.180
20159.5 78.3282
20159.8 46.8112
20160.0 30.8255
20160.3 21.9690
20160.6 16.6994
20160.9 13.3538
20161.1 11.1125
20161.7 8.40504
20162.2 6.88027
20162.8 5.96980
20163.8 4.96142
20164.9 4.44128
20166.0 4.14269
20168.2 3.82479
20172.5 3.57709
20176.8 3.48046
20185.5 3.39844
20194.2 3.35882
20211.5 3.31017
20228.9 3.27282
20298.3 3.13871
20367.7 3.00062
20437.0 2.85173
20575.8 2.50873
20714.6 2.07894
20853.3 1.51336
20922.7 1.15795
20992.1 0.746042
21061.5 0.304251
21096.2 0.117478
21113.5 0.0571018
21122.2 0.0418821
21130.9 0.0406927
21139.6 0.0577468
21148.2 0.0984639
21156.9 0.170126
21165.6 0.282088
21174.3 0.447382
21182.9 0.682902
21191.6 1.01247
21200.3 1.46893
21209.0 2.09944
21217.6 2.96890
21226.3 4.17441
21235.0 5.85900
21243.6 8.24236
21252.3 11.6576
21256.7 13.9224
21261.0 16.7192
21263.2 18.4324
21264.2 19.4335
21265.3 20.5971
21266.4 22.1293
21267.0 23.1760
21267.5 24.6395
21268.0 27.0037
21268.3 28.8942
21268.6 31.7386
21268.8 36.4100
21269.1 44.9931
21269.3 52.5690
21269.4 63.1677
21269.5 81.0282
21269.7 109.160
21269.8 161.129
21270.0 195.486
21270.2 162.042
21270.3 110.317
21270.5 75.3774
21270.7 56.6528
21270.9 46.4438
21271.1 40.7343
21271.3 36.9578
21271.5 34.5128
21271.8 31.7972
21272.2 30.4390
21272.6 29.7989
21273.3 29.4756
21274.1 29.7564
21274.8 30.3239
21276.3 31.8728
21279.3 35.8266
21282.3 40.5246
21290.7 57.3758
21299.2 79.0492
21316.0 118.466
21324.4 121.288
21332.9 111.733
21349.7 81.2487
21363.0 61.7057
21376.3 48.0677
21389.6 38.6801
21402.9 32.0768
21429.4 23.6930
21456.0 18.7658
21482.6 15.5909
21509.2 13.4003
21562.3 10.5946
21615.4 8.87495
21668.6 7.70273
21721.7 6.83864
21748.3 6.48188
21761.6 6.31793
21768.2 6.24036
21771.6 6.20699
21773.2 6.20767
21774.1 6.26541
21774.5 6.46074
21774.7 6.91585
21774.8 7.58099
21774.9 9.60566
21775.0 13.0441
21775.1 9.60328
21775.2 7.68387
21775.3 6.95236
21775.5 6.47138
21775.9 6.25250
21776.7 6.16995
21778.3 6.13037
21781.5 6.08855
21787.9 6.01645
21800.6 5.87927
21826.1 5.62142
21877.1 5.15618
21979.1 4.35112
22030.1 3.98126
22081.1 3.62118
22106.6 3.44681
22132.1 3.29130
22144.8 3.24240
22151.2 3.24148
22157.6 3.27997
22163.9 3.41736
22167.1 3.57672
22170.3 3.88043
22171.9 4.14048
22173.5 4.53211
22175.1 5.15869
22176.7 6.24139
22178.3 8.35264
22179.1 10.2316
22179.9 13.1943
22180.7 18.3824
22181.5 28.2341
22181.9 36.9286
22182.3 50.4013
22182.7 72.0908
22183.0 106.255
22183.5 168.996
22184.0 211.334
22184.5 170.044
22185.0 107.565
22185.4 69.3339
22185.9 47.4888
22186.3 34.3785
22186.7 26.1196
22187.6 16.8801
22188.5 12.1737
22189.4 9.45289
22190.3 7.77775
22192.0 5.88248
22193.8 4.88466
22195.6 4.29813
22197.3 3.91789
22199.1 3.65792
22202.6 3.32683
22206.1 3.12634
22213.2 2.89027
22220.3 2.74580
22227.3 2.63876
22241.4 2.47014
22269.7 2.18782
22297.9 1.91757
22354.4 1.35520
22410.9 0.756227
22467.4 0.204168
22481.5 0.108476
22495.6 0.0529119
22502.7 0.0469100
22509.7 0.0603843
22516.8 0.0982414
22523.8 0.166667
22530.9 0.273504
22538.0 0.428756
22545.0 0.645269
22552.1 0.939653
22559.1 1.33354
22566.2 1.85534
22580.3 3.44553
22594.4 6.19147
22608.6 10.9747
22622.7 19.4180
22636.8 34.3153
22646.6 50.3417
22656.4 71.4684
22676.0 112.619
22685.8 117.883
22695.6 110.849
22715.2 83.5866
22728.1 67.7760
22740.9 55.7270
22766.7 40.0638
22792.4 31.0031
22818.1 25.3411
22843.9 21.5489
22869.6 18.8634
22921.0 15.3512
22972.5 13.1755
23024.0 11.7017
23075.4 10.6378
23101.2 10.2092
23114.0 10.0150
23120.5 9.92261
23123.7 9.87842
23125.3 9.86049
23126.1 9.86495
23126.5 9.90462
23126.9 10.6122
23127.0 11.3937
23127.1 10.6124
23127.5 9.89452
23127.9 9.84146
23128.7 9.81408
23130.4 9.78709
23133.6 9.74211
23140.1 9.65642
23153.1 9.49303
23179.0 9.19290
23230.9 8.67940
23334.7 7.89737
23542.3 6.88162
23749.9 6.22941
23957.6 5.75824
24372.8 5.08617
24788.0 4.59106
24788.0 4.59108
24788.1 4.59101
24788.1 4.59095
24788.3 4.59082
24788.5 4.59057
24789.0 4.59007
24789.9 4.58907
24791.8 4.58706
24795.5 4.58305
24803.0 4.57505
24818.1 4.55913
24848.1 4.52760
24908.2 4.46562
25028.4 4.34557
25268.9 4.11774
25509.3 3.90102
25629.5 3.79512
25689.6 3.74264
25719.7 3.71834
25734.7 3.71671
25742.2 3.76217
25746.0 3.96534
25746.9 4.16602
25747.9 4.68719
25748.3 5.32578
25748.8 6.80499
25749.0 8.43461
25749.3 11.4641
25749.5 18.1577
25749.6 25.0067
25749.7 35.1211
25749.9 54.1739
25750.0 67.0377
25750.1 54.5615
25750.3 35.6057
25750.4 25.4659
25750.5 19.4921
25750.7 12.5949
25750.9 9.30514
25751.1 7.53047
25751.5 5.80224
25752.0 5.03738
25752.8 4.36858
25753.6 4.10204
25755.3 3.88914
25757.0 3.80695
25763.6 3.71596
25777.0 3.67960
25803.7 3.64889
25857.1 3.60016
25963.9 3.50686
26070.8 3.41424
26124.2 3.37128
26150.9 3.36996
26157.6 3.38973
26164.2 3.46008
26167.6 3.56510
26170.9 3.86511
26172.6 4.27001
26173.4 4.66244
26174.2 5.33732
26175.1 6.68112
26175.5 7.90133
26175.9 9.83906
26176.3 13.3723
26176.7 20.3079
26177.0 26.8012
26177.2 37.4109
26177.4 55.7493
26177.6 86.8464
26177.8 138.231
26178.0 171.372
26178.2 139.170
26178.4 87.8382
26178.6 65.7666
26178.7 49.4990
26179.0 30.6222
26179.3 21.0309
26179.5 15.6513
26179.8 12.3732
26180.1 10.2409
26180.7 7.73870
26181.2 6.38666
26181.8 5.57539
26182.9 4.69181
26184.0 4.24563
26185.1 3.98866
26187.4 3.71871
26191.8 3.50847
26196.3 3.42700
26205.3 3.35991
26214.2 3.32962
26232.1 3.29646
26250.0 3.27398
26321.5 3.20349
26464.6 3.07425
26750.7 2.81279
27323.1 2.24128
27895.4 1.55208
28181.5 1.13489
28324.6 0.901814
28396.1 0.779992
28431.9 0.724292
28449.8 0.724761
28454.3 0.750531
28458.7 0.837519
28461.0 0.963167
28463.2 1.30942
28464.3 1.76671
28465.4 2.94250
28466.0 4.37446
28466.3 5.64521
28466.6 7.68003
28466.8 11.2161
28467.1 18.0859
28467.3 24.1427
28467.4 33.6030
28467.5 48.9875
28467.7 72.6917
28467.8 116.995
28468.0 144.959
28468.2 117.167
28468.3 72.9103
28468.5 49.1940
28468.6 33.7863
28468.7 24.3034
28468.9 18.2271
28469.2 11.3275
28469.4 7.77042
28469.7 5.72022
28470.0 4.43771
28470.6 3.00689
28471.7 1.79854
28472.8 1.32762
28475.0 0.959914
28477.2 0.820539
28481.7 0.711505
28486.2 0.666683
28504.0 0.598296
28521.8 0.574764
28530.8 0.650378
28533.0 0.750325
28535.2 1.04426
28536.3 1.44728
28537.4 2.49582
28538.0 3.79880
28538.6 6.75009
28538.8 9.94320
28539.1 16.1212
28539.3 21.5322
28539.4 29.9155
28539.5 43.3864
28539.7 63.2669
28539.8 101.667
28540.0 127.897
28540.2 103.178
28540.3 65.1561
28540.5 41.6792
28540.7 28.6665
28540.8 20.6945
28541.0 15.5896
28541.3 9.78045
28541.6 6.77003
28542.2 3.89611
28542.8 2.65852
28544.0 1.61103
28545.2 1.19058
28547.6 0.854944
28550.0 0.722191
28554.9 0.612560
28559.7 0.564411
28579.0 0.484840
28617.7 0.401220
28695.1 0.271728
28772.5 0.190635
28811.2 0.190788
28830.5 0.210115
28840.2 0.227002
28845.1 0.239223
28847.5 0.252417
28848.7 0.282414
28849.3 0.369657
28849.6 0.592897
28849.7 1.01159
28849.9 2.84803
28850.0 5.44445
28850.1 2.84883
28850.3 0.786930
28850.6 0.457274
28851.0 0.318314
28851.9 0.272574
28853.6 0.263501
28857.0 0.270108
28864.0 0.292871
28877.8 0.353876
28905.5 0.552226
28933.3 0.916350
28961.0 1.59640
28974.8 2.14949
28988.7 2.94163
29002.5 4.11026
29016.4 5.89441
29030.2 8.74609
29044.1 13.5450
29058.0 22.0968
29071.8 37.7571
29085.9 63.7151
29100.0 83.5145
29114.1 69.7391
29128.2 45.2542
29141.1 29.8453
29153.9 20.4719
29166.8 14.6834
29179.7 10.9404
29205.4 6.60002
29231.1 4.26986
29256.8 2.85828
29282.5 1.92518
29308.3 1.26934
29334.0 0.791014
29359.7 0.440114
29385.4 0.195525
29398.3 0.112570
29411.1 0.0583497
29424.0 0.0368536
29436.9 0.0542959
29449.7 0.119878
29462.6 0.246976
29475.4 0.454999
29488.3 0.772325
29501.2 1.24110
29514.0 1.92552
29526.9 2.93182
29533.3 3.64336
29536.5 4.23091
29538.1 5.14586
29538.5 5.80807
29538.9 7.23247
29539.3 11.3548
29539.5 16.9756
29539.6 22.1709
29539.7 30.7343
29539.9 47.0837
29540.0 57.6143
29540.1 47.5068
29540.3 31.2974
29540.4 22.1063
29540.5 16.3563
29540.7 10.8715
29541.0 8.37385
29541.2 7.16447
29541.7 6.03825
29542.1 5.58808
29543.1 5.29890
29544.0 5.27391
29547.8 5.71506
29555.3 7.15988
29570.3 11.5297
29585.3 18.8888
29600.3 31.3250
29620.2 58.6245
29640.0 83.9963
29649.9 84.1015
29659.9 75.7757
29679.7 52.6785
29693.9 39.6683
29708.1 30.4526
29722.4 23.9975
29736.6 19.3928
29765.0 13.4674
29793.4 9.93866
29821.9 7.64459
29850.3 6.04738
29907.2 3.97403
29964.0 2.67675
30020.9 1.77735
30077.7 1.11426
30134.6 0.615847
30191.5 0.258182
30219.9 0.134749
30234.1 0.0887583
30248.3 0.0545057
30262.6 0.0331425
30276.8 0.0261729
30291.0 0.0353865
30305.2 0.0629534
30319.4 0.111559
30333.6 0.184339
30347.8 0.285277
30362.1 0.418945
30390.5 0.809009
30418.9 1.41760
30447.3 2.34036
30475.8 3.72493
30504.2 5.80311
30532.6 8.94396
30561.1 13.7456
30568.2 15.3194
30575.3 17.1183
30578.8 18.1610
30582.4 19.4474
30584.2 20.3672
30585.1 21.0180
30585.9 21.9433
30586.8 23.5110
30587.3 24.8245
30587.7 26.8105
30588.2 30.2642
30588.6 36.7477
30588.8 42.4213
30589.1 51.2603
30589.3 65.6377
30589.5 89.3707
30589.8 131.758
30590.0 158.950
30590.3 131.040
30590.5 90.7557
30590.8 63.9229
30591.0 49.0582
30591.3 40.5800
30591.6 35.4523
30591.8 32.1742
30592.1 29.9794
30592.6 27.3987
30593.1 25.9881
30593.6 25.2000
30594.6 24.4631
30595.7 24.2550
30596.7 24.2851
30598.8 24.6669
30602.9 25.9199
30607.0 27.4296
30619.6 32.8604
30632.3 39.2763
30657.5 54.6076
30708.0 82.3169
30741.4 82.6061
30758.1 77.2877
30766.4 73.9173
30770.6 72.2612
30772.7 71.9108
30773.2 72.2145
30773.7 73.2955
30774.0 74.6814
30774.3 77.7333
30774.5 85.8855
30774.6 95.4875
30774.8 114.823
30774.9 142.802
30775.0 160.311
30775.1 143.644
30775.2 115.620
30775.4 96.2490
30775.5 86.3639
30775.8 77.7295
30776.0 74.2055
30776.3 72.5289
30776.8 70.8739
30777.3 70.0448
30778.4 69.0898
30779.5 68.4309
30783.7 66.3224
30792.1 62.4721
30809.0 55.2149
30863.0 37.2788
30916.9 26.3177
30970.9 19.5149
30997.8 17.0613
31011.3 16.0060
31018.1 15.5288
31021.4 15.3576
31023.1 15.4922
31024.0 16.2337
31024.4 18.1916
31024.6 21.6275
31024.7 25.8328
31024.8 33.0910
31024.9 44.6735
31025.0 51.4880
31025.1 43.7200
31025.2 33.4241
31025.3 26.1224
31025.4 22.1359
31025.6 18.6276
31026.0 16.4049
31026.7 15.3895
31028.2 14.9547
31031.3 14.6520
31037.4 14.2311
31049.6 13.4842
31073.9 12.1610
31122.6 10.0063
31220.0 6.96519
31317.4 4.89454
31366.1 4.07954
31390.5 3.71314
31402.7 3.54024
31408.8 3.46345
31411.8 3.45820
31413.3 3.57750
31414.1 4.02387
31414.5 5.19667
31414.7 7.34755
31414.8 10.1488
31414.8 15.6539
31415.0 28.1971
31415.2 15.9120
31415.3 9.99100
31415.4 7.34219
31415.6 5.19560
31416.0 4.02807
31416.8 3.55676
31418.4 3.38737
31421.6 3.29969
31428.1 3.20103
31441.0 3.03023
31466.8 2.71207
31518.4 2.13973
31621.6 1.22725
31673.2 0.892522
31724.8 0.654837
31776.4 0.537980
31828.0 0.579542
31828.0 0.579556
31828.1 0.579689
31828.1 0.579823
31828.2 0.580065
31828.4 0.580550
31828.8 0.581555
31829.5 0.583569
31831.0 0.587758
31833.9 0.596664
31839.8 0.616608
31851.5 0.665568
31875.0 0.803025
31922.0 1.26831
31969.0 2.06691
32016.0 3.33078
32063.0 5.24955
32110.0 8.09271
32157.0 12.2328
32204.0 18.1527
32265.5 29.4909
32327.0 45.5114
32450.0 81.2844
32554.9 88.6757
32607.4 83.3866
32633.7 79.7050
32646.8 77.7447
32653.3 76.7505
32656.6 76.2602
32658.3 76.0496
32659.1 76.0622
32659.5 76.4049
32659.7 77.2432
32659.8 78.5100
32659.9 82.0672
32660.0 88.3801
32660.1 82.0323
32660.3 77.7853
32660.4 76.6456
32660.7 75.9793
32661.2 75.6455
32662.4 75.3944
32664.6 75.0278
32669.1 74.3315
32678.1 72.9515
32696.0 70.2148
32734.5 64.5680
32773.0 59.3776
32850.0 50.5777
33003.9 38.3676
33157.9 30.8185
33311.8 25.8692
33465.8 22.4291
33619.8 19.9185
33927.7 16.5185
34235.6 14.3279
34543.5 12.7959
34851.4 11.6588
35005.4 11.1915
35082.4 10.9803
35120.9 10.8953
35130.5 10.8906
35140.1 10.9264
35144.9 10.9998
35149.7 11.2277
35152.2 11.5436
35153.4 11.8476
35154.6 12.3765
35155.8 13.4239
35156.4 14.3612
35157.0 15.8819
35157.6 18.5723
35158.2 23.9430
35158.5 28.8152
35158.8 36.6547
35159.1 49.9409
35159.4 73.4894
35159.7 111.165
35160.0 137.121
35160.3 111.896
35160.6 74.3996
35161.0 47.4901
35161.4 33.4626
35161.7 25.9141
35162.1 21.6076
35162.5 18.8224
35162.8 17.0199
35163.6 14.8207
35164.3 13.5936
35165.0 12.8588
35166.5 12.0462
35168.0 11.6273
35169.4 11.3851
35172.4 11.1249
35178.2 10.9156
35184.1 10.8280
35195.8 10.7438
35207.5 10.6960
35230.9 10.6480
35236.8 10.6610
35242.6 10.7302
35245.6 10.8394
35248.5 11.1470
35250.0 11.5476
35251.4 12.5253
35252.2 13.6387
35252.9 15.9699
35253.3 18.2326
35253.6 21.9661
35254.0 28.9742
35254.3 41.9523
35254.7 61.0737
35255.0 74.0570
35255.3 61.6370
35255.7 42.6559
35255.9 34.0879
35256.1 28.3687
35256.5 21.4682
35256.9 17.8059
35257.3 15.6884
35258.1 13.4979
35258.9 12.4572
35260.5 11.5332
35262.1 11.1497
35265.3 10.8345
35268.5 10.7070
35274.9 10.5982
35281.3 10.5470
35294.2 10.4883
35307.0 10.4470
35358.3 10.3163
35409.7 10.1994
35461.0 10.0882
35512.3 9.98111
35563.7 9.87794
35615.0 9.78412
35627.9 9.76882
35640.7 9.77481
35647.1 9.80828
35653.5 9.92966
35656.7 10.1090
35659.9 10.6075
35661.5 11.2585
35662.3 11.8606
35663.1 12.8687
35663.9 14.7344
35664.3 16.3174
35664.7 18.7340
35665.1 22.6520
35665.5 29.4982
35665.9 42.5420
35666.1 53.4395
35666.3 69.0237
35666.7 105.103
35667.0 129.696
35667.3 106.164
35667.7 70.3492
35667.9 49.8511
35668.2 36.9988
35668.5 29.1534
35668.8 24.2931
35669.4 18.6347
35669.9 15.7028
35670.5 14.0043
35671.1 12.9365
35672.2 11.7218
35673.4 11.0787
35674.5 10.7025
35676.8 10.2960
35681.4 9.97021
35685.9 9.84039
35695.1 9.72940
35704.2 9.67658
35722.5 9.61501
35740.7 9.57102
35777.2 9.49728
35813.8 9.43020
35886.8 9.30383
35923.3 9.24299
35941.6 9.21320
35950.7 9.20016
35955.3 9.20254
35957.6 9.24027
35958.7 9.38958
35959.3 9.85075
35959.6 10.9677
35959.7 12.7143
35959.9 18.1049
35960.0 27.2169
35960.1 18.2957
35960.3 12.6731
35960.5 10.8677
35960.8 9.83483
35961.4 9.39533
35962.6 9.24463
35965.1 9.19540
35970.1 9.17398
35980.0 9.15393
35989.9 9.13821
35994.9 9.13740
35997.4 9.16682
35998.6 9.29203
35999.2 9.69427
35999.5 10.6786
35999.7 12.4351
35999.9 18.0031
36000.0 27.1350
36000.1 18.2537
36000.3 12.2842
36000.5 10.5856
36000.9 9.65952
36001.6 9.29465
36003.0 9.17145
36005.8 9.12983
36011.5 9.10948
36022.9 9.08791
36045.7 9.05124
36091.3 8.98137
36182.4 8.84701
36364.7 8.59409
36547.0 8.35819
36638.2 8.24552
36683.7 8.19484
36706.5 8.19668
36712.2 8.22327
36717.9 8.31319
36720.8 8.44248
36723.6 8.79417
36725.0 9.24385
36726.5 10.3232
36727.2 11.5309
36727.9 14.0051
36728.2 16.3516
36728.6 20.1241
36729.0 26.9642
36729.3 39.4351
36729.7 58.3075
36730.0 71.5625
36730.4 58.9781
36730.7 40.2685
36731.0 29.3499
36731.3 22.6624
36731.6 18.5488
36731.9 15.9819
36732.5 12.9420
36733.1 11.3909
36734.3 9.90935
36735.5 9.25933
36737.8 8.72097
36740.2 8.51936
36742.6 8.45056
36745.0 8.51006
36746.2 8.65804
36747.4 9.09801
36748.0 9.67984
36748.5 11.0827
36748.8 12.7035
36749.1 15.9450
36749.3 19.1019
36749.4 24.4440
36749.6 34.1425
36749.7 51.6424
36749.9 77.5316
36750.0 95.9444
36750.1 78.2448
36750.3 52.5226
36750.4 34.9461
36750.6 25.6108
36750.7 19.9566
36750.9 16.7851
36751.1 13.2371
36751.4 11.5452
36752.0 9.96801
36752.6 9.29441
36753.7 8.73888
36754.8 8.51665
36759.4 8.26190
36768.5 8.16373
36786.8 8.10588
36823.3 8.04717
36896.4 7.95707
37042.5 7.79326
37188.6 7.63655
37261.6 7.55936
37298.2 7.52108
37316.4 7.50661
37325.5 7.52614
37330.1 7.65073
37332.4 8.12341
37333.0 8.54964
37333.5 9.54743
37333.8 10.6511
37334.1 12.7380
37334.4 17.6992
37334.5 22.5329
37334.7 30.9111
37334.8 45.5036
37335.0 55.0877
37335.2 46.0985
37335.3 31.6617
37335.5 21.9668
37335.7 16.6291
37336.0 11.9339
37336.4 10.0842
37336.8 9.18810
37337.5 8.38407
37338.2 8.04437
37341.1 7.65609
37346.8 7.53070
37358.3 7.48202
37381.3 7.44646
37427.2 7.39536
37519.0 7.30072
37702.7 7.11508
38070.1 6.73493
38437.5 6.29571
38621.2 6.01340
38713.0 5.83815
38759.0 5.73691
38781.9 5.68198
38793.4 5.65391
38799.1 5.64222
38802.0 5.64654
38803.5 5.68600
38804.2 5.82863
38804.5 6.23468
38804.7 7.09090
38804.9 10.9496
38805.0 16.2729
38805.1 10.9498
38805.3 6.92911
38805.5 6.16503
38805.9 5.80223
38806.6 5.67141
38808.2 5.62869
38811.2 5.60994
38817.3 5.59063
38829.5 5.55594
38853.8 5.48369
38902.6 5.31965
38951.3 5.11998
39000.0 4.86751
39048.7 4.53188
39097.4 4.05494
39121.8 3.72885
39146.1 3.31033
39170.5 2.75465
39182.7 2.40546
39188.8 2.21353
39191.8 2.13611
39193.3 2.19072
39194.1 2.52323
39194.5 3.44492
39194.7 5.15501
39194.8 11.7962
39195.0 21.8875
39195.2 12.0799
39195.3 6.52217
39195.4 4.35528
39195.7 2.92928
39196.3 2.26929
39197.4 2.00319
39199.6 1.84720
39204.0 1.64766
39212.9 1.25697
39230.7 0.454520
39235.1 0.303906
39239.6 0.228664
39244.0 0.298413
39248.4 0.642799
39250.7 0.988335
39252.9 1.51046
39255.1 2.27882
39257.3 3.39222
39259.5 4.99064
39261.8 7.27045
39264.0 10.4998
39266.2 15.0226
39269.2 23.6843
39272.1 35.7992
39278.0 62.5784
39281.0 68.3962
39283.9 66.8420
39289.8 53.8416
39294.3 44.0100
39298.9 36.5636
39303.4 31.1163
39307.9 27.1186
39317.0 21.8019
39326.1 18.5333
39335.2 16.3723
39344.2 14.8670
39362.4 12.9973
39380.5 12.0905
39389.6 11.9723
39398.6 12.1893
39407.7 13.0484
39412.2 13.9713
39416.8 15.5607
39421.3 18.4720
39425.8 24.3254
39428.1 29.6146
39430.4 37.9745
39432.6 51.8991
39434.9 75.2343
39437.5 115.357
39440.0 142.592
39442.6 116.333
39445.1 76.4631
39447.9 48.8613
39450.7 34.1725
39453.5 26.0127
39456.4 21.1387
39459.2 18.0268
39462.0 15.9263
39467.6 13.3524
39473.2 11.8847
39478.8 10.9575
39490.1 9.86951
39501.3 9.25134
39512.5 8.84760
39535.0 8.33365
39557.5 8.00276
39579.9 7.76019
39624.9 7.40944
39669.8 7.15332
39714.8 6.94784
39759.7 6.76851
39782.2 6.67977
39793.4 6.64991
39799.0 6.76197
39800.5 6.92070
39801.9 7.38891
39802.6 8.01415
39803.3 9.57258
39803.6 11.3519
39804.0 15.0428
39804.1 18.6320
39804.3 24.2557
39804.5 34.7850
39804.7 53.3015
39804.8 83.5316
39805.0 103.933
39805.2 86.6716
39805.3 57.2749
39805.5 42.8646
39805.6 33.3837
39805.8 22.2273
39806.1 16.7436
39806.3 13.7201
39806.8 10.7051
39807.3 9.30864
39808.3 8.08291
39809.3 7.56979
39811.3 7.13639
39813.3 6.95542
39817.3 6.79807
39821.3 6.72557
39829.2 6.65004
39837.2 6.60438
39869.1 6.48618
39900.9 6.39350
39932.8 6.30897
40060.2 6.00119
40187.6 5.70145
40315.0 5.37427
40442.4 4.97872
40569.8 4.44445
40633.5 4.08319
40697.2 3.61557
40760.9 2.97906
40792.8 2.56742
40808.7 2.34011
40816.7 2.26534
40820.7 2.41373
40821.7 2.60569
40822.6 3.11191
40823.1 3.72887
40823.6 5.10591
40824.1 9.06038
40824.4 14.2174
40824.6 24.8593
40824.8 39.1973
40825.0 48.3030
40825.2 38.9182
40825.4 25.5056
40825.5 17.1337
40825.7 12.1962
40826.0 7.44817
40826.4 5.30500
40826.7 4.23759
40827.4 3.21283
40828.0 2.76403
40829.4 2.37101
40830.7 2.19939
40836.0 1.93984
40846.7 1.68741
40868.0 1.22906
40868.0 1.22858
40868.1 1.22681
40868.2 1.22526
40868.3 1.22216
40868.6 1.21575
40869.2 1.20289
40870.3 1.17735
40872.6 1.12601
40877.2 1.02245
40886.4 0.813090
40895.6 0.606609
40900.2 0.514988
40902.5 0.509154
40903.7 0.650780
40904.3 1.16214
40904.6 2.39267
40904.7 4.26293
40904.8 9.73772
40905.0 19.4771
40905.2 10.1490
40905.3 4.38397
40905.5 2.47101
40905.8 1.21767
40906.4 0.666201
40907.6 0.450246
40910.1 0.343593
40915.0 0.241964
40924.8 0.128344
40929.7 0.118570
40934.6 0.154875
40939.5 0.254540
40944.4 0.441661
40949.3 0.749910
40954.3 1.22662
40959.2 1.93871
40964.1 2.98109
40969.0 4.48828
40973.9 6.64900
40978.8 9.72099
40983.7 14.0253
40990.3 22.3920
40996.9 34.1473
41010.0 60.4521
41016.6 66.3759
41023.2 65.1123
41036.3 52.7491
41049.5 40.8039
41062.7 32.5711
41075.9 27.0628
41089.1 23.2652
41102.3 20.5405
41115.5 18.5157
41141.8 15.7368
41168.2 13.9375
41194.6 12.6864
41247.4 11.0672
41300.1 10.0661
41352.9 9.38462
41458.4 8.51046
41564.0 7.96568
41669.5 7.58685
41880.6 7.07919
42091.6 6.73886
42302.7 6.48246
42513.8 6.27386
42619.3 6.18128
42672.1 6.13706
42698.5 6.11530
42711.7 6.10505
42718.3 6.10405
42721.6 6.12300
42723.2 6.20894
42724.0 6.50193
42724.4 7.28784
42724.6 8.85754
42724.8 15.0950
42725.0 24.3491
42725.2 15.3489
42725.4 9.18175
42725.5 7.55134
42725.9 6.62871
42726.7 6.26513
42728.3 6.14552
42731.4 6.10681
42737.6 6.09081
42750.0 6.07750
42762.5 6.06758
42768.7 6.06544
42771.8 6.07431
42773.3 6.11465
42774.1 6.25526
42774.5 6.66247
42774.7 7.51120
42774.9 11.8719
42775.0 17.6852
42775.1 11.8728
42775.2 8.45474
42775.4 7.22946
42775.6 6.49779
42776.1 6.19357
42777.0 6.09385
42778.9 6.06360
42782.8 6.05287
42790.4 6.04484
42805.7 6.03241
42836.2 6.00877
42897.3 5.96262
42958.4 5.91749
42989.0 5.89877
43004.2 5.91211
43011.9 6.01944
43013.8 6.13421
43015.7 6.44378
43016.6 6.83748
43017.6 7.76788
43018.1 8.80640
43018.5 10.8426
43018.8 12.7311
43019.0 15.7902
43019.3 21.0126
43019.5 29.8861
43019.8 44.7780
43020.0 54.7196
43020.3 45.4325
43020.5 30.7093
43020.8 20.4188
43021.1 14.9555
43021.4 11.9863
43021.7 10.2901
43022.2 8.45710
43022.8 7.56931
43023.9 6.77225
43025.1 6.43501
43027.4 6.15747
43029.6 6.04745
43038.8 5.92187
43057.0 5.87206
43093.6 5.83465
43166.6 5.78082
43312.7 5.68311
43458.8 5.58925
43531.8 5.54284
43568.3 5.51938
43586.6 5.50749
43595.7 5.50328
43600.3 5.51248
43602.6 5.56669
43603.7 5.77253
43604.3 6.39080
43604.6 7.80999
43604.7 9.87512
43604.8 15.5773
43605.0 26.0329
43605.2 15.9532
43605.3 10.9550
43605.4 8.61611
43605.6 6.86806
43606.1 5.99563
43607.1 5.65722
43609.0 5.54665
43612.7 5.51020
43620.3 5.49454
43635.4 5.48127
43665.7 5.46087
43726.1 5.42268
43786.6 5.39106
43801.7 5.39147
43816.9 5.41551
43824.4 5.46188
43832.0 5.60817
43835.8 5.81531
43837.6 6.01888
43839.5 6.37865
43841.4 7.09726
43842.4 7.75969
43843.3 8.84047
43844.3 10.8170
43844.7 12.4382
43845.2 14.8485
43845.7 18.7184
43846.2 25.0424
43846.6 36.2334
43847.1 56.7192
43847.6 88.5589
43848.0 109.707
43848.5 89.1173
43848.9 58.3358
43849.3 39.7251
43849.7 28.6343
43850.1 21.9149
43850.6 17.6529
43851.4 12.8516
43852.2 10.4106
43853.0 8.98270
43853.8 8.09751
43855.4 7.08368
43857.1 6.54785
43858.7 6.23308
43862.0 5.89252
43868.5 5.61960
43875.0 5.51129
43888.1 5.42129
43901.1 5.38126
43927.3 5.33954
43953.4 5.31322
44005.6 5.27280
44057.8 5.23745
44266.7 5.10561
44475.7 4.97420
44580.1 4.90609
44632.3 4.87088
44658.5 4.85946
44671.5 4.89568
44674.8 4.94678
44678.0 5.10111
44679.7 5.31572
44681.3 5.89090
44682.1 6.62011
44682.9 8.33203
44683.3 10.2366
44683.8 14.0665
44684.0 17.6676
44684.2 23.2066
44684.4 32.5083
44684.6 48.9830
44684.8 75.7522
44685.0 94.6730
44685.2 76.9989
44685.4 50.5311
44685.7 32.7583
44685.9 22.7749
44686.1 17.1397
44686.3 13.8613
44686.8 10.1527
44687.3 8.36735
44688.2 6.72135
44689.1 6.02451
44690.9 5.44268
44692.7 5.21244
44696.3 5.02811
44700.0 4.95487
44714.5 4.86684
44743.5 4.82188
44801.5 4.77409
44917.6 4.69204
45033.7 4.61017
45091.8 4.56825
45120.8 4.54674
45135.3 4.53607
45142.6 4.53378
45146.2 4.54907
45148.0 4.62398
45148.9 4.89416
45149.4 5.64504
45149.6 7.21185
45149.8 13.6625
45150.0 23.1193
45150.2 13.9834
45150.4 7.20157
45150.6 5.69540
45151.1 4.94261
45152.1 4.65902
45154.0 4.56639
45157.8 4.53525
45165.5 4.52055
45180.8 4.50609
45211.4 4.48208
45272.6 4.43527
45394.9 4.33923
45517.3 4.23817
45578.5 4.18498
45609.1 4.15766
45624.4 4.14798
45632.1 4.16795
45635.9 4.28438
45637.8 4.71908
45638.8 6.01012
45639.2 8.81631
45639.5 12.8870
45639.7 22.4312
45639.9 33.6822
45640.0 41.4099
45640.2 34.2266
45640.3 23.1116
45640.6 12.4995
45640.8 8.65756
45641.4 6.00516
45642.4 4.78360
45644.5 4.33876
45648.7 4.19315
45657.1 4.14150
45674.0 4.11191
45707.6 4.07605
45741.2 4.04353
45758.1 4.02791
45766.5 4.02212
45770.7 4.02706
45772.8 4.05856
45773.8 4.17385
45774.4 4.53295
45774.6 5.37914
45774.7 6.78603
45774.9 11.8365
45775.0 19.6603
45775.1 11.8378
45775.2 7.39148
45775.3 5.85816
45775.5 4.75551
45776.0 4.25365
45776.8 4.07920
45778.5 4.02625
45781.8 4.00903
45788.6 3.99887
45802.0 3.98484
45828.8 3.95818
45882.6 3.90424
45990.0 3.79147
46097.4 3.67094
46151.2 3.60736
46178.0 3.57471
46191.5 3.55838
46198.2 3.55103
46201.5 3.55075
46203.2 3.56318
46204.1 3.61197
46204.5 3.75876
46204.7 4.09372
46204.9 5.96338
46205.0 8.38669
46205.1 5.96361
46205.4 3.90940
46205.7 3.67460
46206.3 3.58012
46207.4 3.54941
46209.6 3.53828
46214.2 3.53036
46223.2 3.51831
46241.3 3.49499
46277.6 3.44763
46350.0 3.34887
46422.4 3.24411
46458.7 3.18930
46476.8 3.16137
46485.8 3.14770
46490.4 3.14268
46492.6 3.14708
46493.8 3.17355
46494.3 3.26320
46494.6 3.48973
46494.9 5.54113
46495.0 7.94813
46495.1 5.54125
46495.5 3.40657
46495.8 3.22570
46496.5 3.15814
46497.9 3.13554
46500.6 3.12558
46506.1 3.11536
46517.0 3.09737
46538.8 3.06155
46582.6 2.98799
46670.0 2.83277
46757.4 2.67303
46801.2 2.60732
46823.0 2.59420
46834.0 2.60203
46839.4 2.61617
46842.2 2.64097
46843.5 2.71047
46844.2 2.92544
46844.5 3.50049
46844.7 4.63693
46844.9 9.54741
46845.0 16.4697
46845.1 9.55050
46845.2 5.38233
46845.4 4.00427
46845.6 3.14107
46846.1 2.79190
46847.1 2.67957
46849.0 2.65484
46853.0 2.66795
46860.8 2.73492
46868.7 2.86018
46876.5 3.10049
46884.4 3.61172
46888.3 4.10009
46892.2 4.92946
46896.1 6.49466
46898.1 7.83707
46900.1 9.90782
46902.0 13.3310
46904.0 19.3943
46906.0 31.2327
46906.9 41.3493
46907.9 55.9937
46909.5 89.0770
46911.0 111.589
46912.6 90.4284
46914.1 57.9664
46915.0 43.6246
46916.0 33.5966
46917.9 21.4973
46919.8 15.0541
46921.6 11.3533
46923.5 9.03641
46925.4 7.51197
46929.2 5.68302
46932.9 4.67245
46936.7 4.05390
46944.3 3.36126
46951.8 2.99585
46959.3 2.77418
46974.4 2.51810
46989.5 2.36894
47004.6 2.26476
47019.7 2.18526
47027.2 2.16833
47031.0 2.24074
47032.9 2.57063
47033.8 3.58914
47034.3 5.88772
47034.5 9.48955
47034.7 18.7170
47034.9 29.3391
47035.0 35.9587
47035.1 29.0490
47035.3 19.3565
47035.4 11.9724
47035.6 8.21568
47035.9 5.02448
47036.5 3.22693
47037.8 2.47374
47040.4 2.21055
47045.4 2.11055
47055.6 2.04492
47075.9 1.95932
47116.4 1.80966
47197.6 1.51647
47278.7 1.20610
47319.3 1.04212
47339.6 0.958097
47349.7 0.915833
47354.8 0.895344
47357.4 0.887894
47358.6 0.894351
47359.3 0.929623
47359.6 1.03189
47359.9 2.10636
47360.0 3.33885
47360.1 2.10572
47360.6 0.943478
47361.2 0.889927
47362.2 0.869206
47364.3 0.855608
47368.5 0.836502
47377.0 0.800339
47393.8 0.728197
47427.5 0.583662
47494.9 0.305322
47528.6 0.183492
47562.3 0.0872049
47596.0 0.0344349
47612.9 0.0361303
47621.3 0.0761107
47625.5 0.252591
47627.6 0.932130
47628.1 1.56272
47628.7 3.02686
47628.9 4.69444
47629.2 7.88640
47629.4 15.2043
47629.6 22.5609
47629.7 34.8332
47629.9 56.4578
47630.0 71.5145
47630.2 57.9949
47630.3 36.7555
47630.5 19.2804
47630.7 11.3267
47631.1 5.17762
47631.6 2.98310
47632.0 1.96797
47632.8 1.08408
47633.7 0.718118
47637.0 0.307503
47643.7 0.196336
47657.2 0.219633
47670.6 0.307732
47684.0 0.440054
47710.9 0.860434
47737.8 1.57051
47764.6 2.72521
47791.5 4.56811
47818.3 7.47619
47845.2 11.9928
47872.7 18.9464
47900.1 28.6407
47955.0 49.8891
47982.5 54.3714
48009.9 52.9688
48064.8 42.3856
48116.1 33.0216
48167.3 26.4237
48218.6 21.9125
48244.3 20.1977
48257.1 19.4438
48263.5 19.0908
48266.7 18.9250
48268.3 18.8620
48269.1 18.8925
48269.5 19.0787
48269.7 19.5180
48269.9 22.0872
48270.0 25.4220
48270.1 22.0763
48270.3 19.6298
48270.5 19.1091
48270.8 18.8354
48271.5 18.7058
48272.9 18.6064
48275.6 18.4600
48281.1 18.1874
48292.0 17.6725
48313.9 16.7368
48357.6 15.1737
48445.1 12.9047
48532.5 11.3438
48620.0 10.2034
48794.9 8.63248
48882.4 8.05820
48926.2 7.80540
48948.0 7.68614
48959.0 7.62845
48964.4 7.60118
48967.2 7.59226
48968.5 7.60450
48969.2 7.66403
48969.5 7.83337
48969.9 9.85753
48970.0 12.1426
48970.1 9.85707
48970.5 7.81851
48970.8 7.65160
48971.5 7.58772
48972.9 7.56204
48975.7 7.54256
48981.4 7.51256
48992.6 7.45554
49015.1 7.34497
49060.1 7.13419
49150.1 6.74678
49330.0 6.06517
49509.9 5.44734
49599.9 5.14419
49644.9 4.99115
49667.4 4.91413
49678.6 4.87629
49684.3 4.86099
49687.1 4.86722
49688.5 4.92085
49689.2 5.10988
49689.5 5.63047
49689.7 6.73332
49689.9 11.3615
49690.0 17.8867
49690.1 11.3630
49690.3 6.97681
49690.4 5.81384
49690.7 5.18386
49691.3 4.93572
49692.5 4.85555
49695.0 4.82576
49699.8 4.80318
49709.5 4.76777
49728.9 4.69898
49767.6 4.55976
49845.1 4.26985
50000.0 3.61897
50159.3 2.78135
50239.0 2.25917
50318.7 1.64001
50478.0 0.195127
50497.9 0.0766143
50517.8 0.0325454
50527.8 0.0550171
50537.7 0.120427
50547.7 0.242825
50557.6 0.440720
50567.6 0.739643
50577.6 1.17332
50587.5 1.78751
50597.5 2.64301
50607.4 3.82449
50617.4 5.44128
50637.3 10.5766
50653.0 17.1815
50668.7 26.5477
50700.0 47.7725
50715.7 52.6957
50731.4 51.8468
50762.7 42.1195
50792.8 32.9376
50822.9 26.4343
50853.0 21.9811
50883.1 18.8518
50943.2 14.8409
51003.4 12.4111
51063.6 10.7747
51123.8 9.58007
51153.8 9.08924
51183.9 8.65112
51214.0 8.26841
51221.5 8.19476
51229.1 8.16555
51232.8 8.20944
51236.6 8.40895
51238.5 8.70026
51240.3 9.44219
51241.3 10.2936
51242.2 12.0632
51242.7 13.7282
51243.2 16.5023
51243.6 21.4238
51244.1 30.4552
51244.6 44.5339
51245.0 53.9604
51245.5 44.9579
51245.9 31.3830
51246.2 24.7926
51246.5 20.3200
51247.1 15.2531
51247.8 12.6483
51248.4 11.2114
51249.6 9.74294
51250.8 9.05328
51253.3 8.43605
51255.7 8.16482
51260.7 7.91091
51265.6 7.77784
51275.4 7.60733
51285.2 7.47667
51304.9 7.25053
51324.5 7.04321
51363.9 6.65444
51403.2 6.28562
51560.4 4.85903
51639.0 4.09557
51717.6 3.23705
51796.3 2.23421
51835.6 1.67062
51855.2 1.37683
51865.1 1.22923
51870.0 1.15823
51872.4 1.13306
51873.7 1.15749
51874.3 1.28503
51874.6 1.64832
51874.7 2.32214
51874.9 5.06415
51875.0 9.04512
51875.1 5.06220
51875.3 2.17239
51875.5 1.52857
51875.8 1.22232
51876.5 1.10089
51877.9 1.04657
51880.8 0.995220
51886.4 0.908885
51897.7 0.744195
51920.3 0.443997
51942.9 0.223422
51954.2 0.168561
51965.5 0.172686
51976.8 0.260944
51988.1 0.468518
51999.3 0.845474
52010.6 1.46285
52021.9 2.42231
52033.2 3.86353
52044.5 5.98075
52055.8 9.02619
52071.9 15.5312
52087.9 25.1371
52120.0 48.4899
52136.1 54.9472
52152.1 55.3357
52184.2 46.7061
52214.3 37.7921
52244.4 31.1832
52274.5 26.5252
52304.5 23.1907
52364.7 18.8528
52394.8 17.3846
52409.8 16.7655
52417.4 16.4821
52421.1 16.3551
52423.0 16.3272
52423.9 16.4290
52424.4 16.8079
52424.6 17.7248
52424.9 23.0400
52425.0 29.8695
52425.1 23.0332
52425.3 18.0490
52425.5 16.9814
52425.9 16.4369
52426.7 16.2206
52428.2 16.1098
52431.4 15.9877
52437.6 15.7771
52450.1 15.3864
52475.0 14.6898
52475.0 14.6892
52475.1 14.6879
52475.1 14.6869
52475.2 14.6848
52475.4 14.6804
52475.7 14.6719
52476.3 14.6548
52477.7 14.6210
52480.3 14.5537
52485.6 14.4221
52496.2 14.1702
52517.4 13.7065
52538.6 13.2893
52549.2 13.0988
52554.5 13.0263
52557.1 13.0751
52558.5 13.3944
52559.1 14.3573
52559.4 16.3497
52559.6 19.1881
52559.8 25.6831
52560.0 39.0321
52560.2 26.2611
52560.5 17.5215
52560.8 15.0616
52561.3 13.7016
52562.5 13.1408
52564.7 12.9214
52569.2 12.7906
52578.1 12.6294
52596.0 12.3539
52631.8 11.8685
52703.4 11.0728
52846.5 9.92152
52989.7 9.10133
53132.8 8.45773
53275.9 7.90900
53419.1 7.40277
53490.6 7.15404
53562.2 6.91082
53598.0 6.80462
53615.9 6.76682
53633.8 6.75659
53651.7 6.81781
53660.6 6.91472
53669.6 7.11764
53678.5 7.57126
53683.0 8.01155
53687.5 8.76594
53691.9 10.1921
53694.2 11.4169
53696.4 13.2915
53698.7 16.3665
53700.9 21.7553
53703.1 32.1605
53704.2 40.9260
53705.4 53.3329
53707.2 82.3820
53709.0 102.229
53710.8 83.6861
53712.7 55.1660
53714.1 39.8971
53715.5 30.1663
53716.9 23.8456
53718.3 19.6700
53721.1 14.7126
53724.0 12.0532
53726.8 10.4640
53729.6 9.44371
53735.3 8.25423
53740.9 7.60443
53746.6 7.20560
53757.9 6.74481
53769.2 6.48219
53780.5 6.30447
53803.1 6.05590
53825.8 5.86392
53848.4 5.69075
53893.6 5.34927
53938.8 4.97627
53984.1 4.54096
54029.3 4.00812
54051.9 3.69099
54063.3 3.54560
54068.9 3.64355
54070.3 3.83250
54071.7 4.38825
54072.4 5.11390
54073.1 6.80537
54073.5 8.68240
54073.9 12.2127
54074.2 19.9442
54074.4 27.6021
54074.6 39.3653
54074.8 62.5190
54075.0 78.3043
54075.2 64.9154
54075.4 42.3026
54075.6 29.9182
54075.8 21.8247
54076.2 13.4882
54076.6 9.69989
54077.0 7.74374
54077.7 5.81349
54078.5 4.93490
54080.0 4.16206
54081.5 3.82537
54084.5 3.51605
54087.5 3.35789
54099.5 3.01213
54123.5 2.47430
54147.5 1.89681
54171.5 1.25974
54195.5 0.620365
54207.6 0.365144
54213.6 0.281200
54219.6 0.246622
54225.6 0.284677
54231.6 0.428828
54237.6 0.728258
54243.6 1.25249
54249.6 2.10574
54255.6 3.43225
54261.6 5.44365
54267.6 8.40960
54275.7 14.5164
54283.8 23.5935
54300.0 45.9436
54308.1 52.3200
54316.2 52.9489
54332.4 45.1045
54345.8 37.6778
54359.1 31.8708
54372.5 27.5879
54385.8 24.4196
54412.5 20.1716
54439.3 17.5211
54466.0 15.7340
54492.7 14.4563
54546.1 12.7566
54599.5 11.6780
54653.0 10.9305
54706.4 10.3791
54733.1 10.1531
54746.4 10.0504
54753.1 10.0087
54756.5 10.0262
54758.1 10.1824
54759.0 10.7153
54759.4 12.0471
54759.6 14.2996
54759.8 21.0662
54760.0 32.6846
54760.2 21.5728
54760.5 13.7710
54760.7 11.7004
54761.3 10.6029
54762.3 10.1555
54764.5 9.99396
54768.8 9.91820
54777.3 9.84594
54794.4 9.73198
54828.6 9.53270
54897.0 9.20123
55033.9 8.71036
55170.7 8.35734
55307.6 8.08615
55581.2 7.68626
55854.9 7.39573
56402.3 6.98086
56675.9 6.82101
56812.8 6.74833
56881.2 6.71271
56915.4 6.69483
56932.5 6.69050
56941.1 6.71733
56945.3 6.85567
56947.5 7.35817
56948.6 8.77225
56949.1 11.5610
56949.4 15.3022
56949.6 23.2232
56949.8 33.7409
56950.0 40.5421
56950.2 33.8074
56950.4 24.0010
56950.6 16.1966
56950.9 12.4226
56951.4 9.38986
56952.4 7.69888
56954.3 7.02115
56958.3 6.79020
56966.2 6.71340
56981.9 6.68200
57013.5 6.65870
57076.5 6.62632
57202.6 6.56887
57328.8 6.51492
57391.8 6.48891
57423.4 6.47615
57439.1 6.46994
57447.0 6.46736
57450.9 6.46803
57452.9 6.47560
57453.9 6.50460
57454.4 6.59320
57454.6 6.81380
57454.9 8.41257
57455.0 10.3604
57455.1 8.41268
57455.4 6.78063
57455.6 6.58127
57456.2 6.49904
57457.2 6.47261
57459.3 6.46432
57463.5 6.46066
57472.0 6.45680
57488.8 6.45000
57522.5 6.43673
57556.2 6.42372
57573.0 6.41762
57581.5 6.41601
57585.7 6.42074
57587.8 6.44387
57588.8 6.52724
57589.4 6.79046
57589.6 7.42526
57589.8 8.50754
57589.9 12.0409
57590.0 17.6716
57590.1 12.0434
57590.3 8.37875
57590.4 7.29451
57590.7 6.73026
57591.3 6.50632
57592.5 6.43631
57594.8 6.41578
57599.5 6.40875
57608.9 6.40382
57627.6 6.39635
57665.1 6.38213
57740.1 6.35427
57890.0 6.30022
58039.9 6.24806
58114.9 6.22261
58152.4 6.21011
58171.1 6.20428
58180.5 6.20292
58185.2 6.20829
58187.5 6.23359
58188.7 6.32503
58189.3 6.61595
58189.6 7.33250
58189.7 8.66851
58189.9 13.4087
58190.0 20.6253
58190.1 13.4125
58190.3 7.86314
58190.6 6.88300
58191.0 6.42511
58191.8 6.26243
58193.5 6.21390
58196.9 6.19972
58203.7 6.19403
58217.3 6.18864
58244.4 6.17941
58298.7 6.16144
58407.3 6.12572
58515.9 6.08923
58570.2 6.07033
58597.3 6.06834
58610.9 6.11615
58614.3 6.17647
58617.7 6.35387
58619.4 6.59705
58621.1 7.23045
58621.9 8.01018
58622.8 9.80214
58623.2 11.7240
58623.6 15.2929
58624.0 22.9635
58624.2 30.1819
58624.5 41.8722
58624.7 64.1812
58625.0 79.1938
58625.3 65.3814
58625.5 43.3812
58625.8 29.1635
58626.1 21.0749
58626.4 16.4436
58626.7 13.7040
58627.2 10.6413
58627.8 9.11200
58628.9 7.70623
58630.0 7.09984
58632.2 6.59456
58634.4 6.39307
58638.8 6.23105
58643.2 6.16664
58660.8 6.09018
58696.1 6.05538
58766.6 6.02499
58907.6 5.97875
59048.6 5.93475
59119.2 5.91169
59154.4 5.89903
59172.1 5.89673
59180.9 5.92744
59185.3 6.08935
59187.5 6.70520
59188.6 8.56134
59189.1 12.6755
59189.4 18.9654
59189.5 25.2675
59189.7 35.2578
59189.8 53.6994
59190.0 65.9305
59190.2 54.7373
59190.3 36.5675
59190.5 22.8845
59190.7 16.0850
59191.2 10.6050
59192.0 7.66294
59193.7 6.47948
59197.0 6.08323
59203.7 5.95647
59217.0 5.91192
59243.7 5.88972
59297.1 5.86836
59403.9 5.83439
59617.5 5.76923
59831.1 5.70170
59937.9 5.66525
59991.3 5.64518
60018.0 5.63473
60031.4 5.63682
60038.0 5.68108
60041.4 5.88650
60043.1 6.62727
60043.9 8.71653
60044.3 13.0691
60044.5 19.0527
60044.7 32.5627
60044.9 49.4606
60045.0 60.5602
60045.1 50.3031
60045.3 33.6271
60045.5 19.9778
60045.7 14.0110
60046.1 9.34361
60046.9 6.98123
60048.5 6.06776
60051.8 5.76853
60058.3 5.67324
60071.3 5.63842
60097.4 5.61810
60149.5 5.59371
60253.7 5.54762
60357.9 5.49512
60462.1 5.42950
60566.2 5.33734
60618.3 5.27151
60670.4 5.17976
60722.5 5.03724
60748.6 4.92893
60774.6 4.77295
60787.7 4.66520
60800.7 4.52577
60813.7 4.33748
60826.7 4.06919
60833.2 3.88672
60839.8 3.65527
60846.3 3.35201
60852.8 2.93921
60859.3 2.35147
60862.5 1.95958
60865.8 1.48468
60872.3 0.414225
60873.9 0.347228
60875.6 0.746842
60876.4 1.34022
60877.2 2.41576
60878.0 4.28869
60878.8 7.43571
60879.6 12.4041
60880.4 19.6736
60882.0 36.9562
60882.8 41.6124
60883.6 41.7038
60885.2 35.0445
60886.9 27.6929
60888.5 22.5230
60890.2 19.0414
60891.8 16.6312
60893.5 14.8973
60895.2 13.6040
60898.5 11.8270
60901.8 10.6687
60905.1 9.86342
60911.7 8.81857
60918.4 8.17435
60925.0 7.73856
60931.6 7.42447
60938.2 7.18742
60951.5 6.85315
60964.8 6.62883
60978.0 6.46747
60991.3 6.34559
61017.8 6.17296
61044.3 6.05582
61097.4 5.90466
61150.4 5.80887
61203.5 5.74056
61256.5 5.68751
61283.1 5.66599
61296.3 5.66769
61303.0 5.72628
61306.3 5.97748
61307.9 6.79038
61308.8 8.76139
61309.2 11.9544
61309.4 15.4893
61309.6 21.4598
61309.8 31.2304
61310.0 37.9810
61310.2 31.7985
61310.4 22.1697
61310.6 15.7070
61310.9 12.1549
61311.3 8.91175
61312.2 6.93663
61313.9 6.08441
61317.5 5.78615
61324.5 5.68676
61338.5 5.64704
61366.6 5.61900
61422.8 5.58372
61535.1 5.53319
61591.3 5.51844
61647.5 5.52530
61675.6 5.55675
61689.6 5.59382
61703.7 5.66539
61717.7 5.82081
61724.7 5.97297
61731.8 6.24088
61738.8 6.77433
61742.3 7.26255
61745.8 8.06901
61749.3 9.53473
61751.1 10.7613
61752.8 12.5925
61754.6 15.5143
61756.3 20.4370
61758.1 29.4629
61759.8 46.5490
61761.4 71.3463
61763.0 87.9840
61764.6 71.6163
61766.2 46.8891
61767.6 32.1449
61769.0 23.4565
61770.4 18.1727
61771.9 14.8553
61774.7 11.1170
61777.6 9.20939
61780.4 8.11592
61783.3 7.43393
61789.0 6.66471
61794.7 6.26385
61800.4 6.02844
61811.8 5.77600
61823.2 5.64920
61834.6 5.57546
61857.4 5.49497
61880.2 5.45177
61902.9 5.42410
61948.5 5.38930
61994.1 5.37162
62016.9 5.37237
62039.7 5.38868
62062.5 5.44637
62073.9 5.51516
62085.3 5.65044
62096.7 5.94902
62102.4 6.24255
62108.1 6.75528
62113.8 7.75029
62116.7 8.62824
62119.5 10.0145
62122.4 12.3584
62125.2 16.6892
62126.6 20.3133
62128.1 25.6191
62129.5 33.6163
62130.9 45.6763
62133.0 71.3488
62135.0 89.5169
62137.1 74.0051
62139.1 49.1636
62141.5 30.7931
62143.9 21.3504
62146.4 16.2005
62148.8 13.1839
62151.2 11.2707
62153.6 9.99599
62158.4 8.45032
62163.3 7.58208
62168.1 7.04544
62177.7 6.44018
62187.4 6.12002
62197.0 5.92807
62206.7 5.80219
62216.4 5.71436
62235.7 5.60069
62255.0 5.53065
62293.6 5.44805
62332.2 5.39920
62370.8 5.36525
62448.1 5.31741
62525.3 5.28171
62602.5 5.25155
62757.0 5.19888
63065.9 5.10451
63220.4 5.05880
63297.6 5.03595
63336.3 5.02461
63355.6 5.01942
63365.2 5.01879
63370.1 5.02615
63372.5 5.05858
63373.7 5.17652
63374.3 5.54436
63374.6 6.46375
63374.7 8.09497
63374.9 13.9328
63375.0 22.8637
63375.1 13.9377
63375.3 7.61309
63375.5 6.15351
63375.9 5.39995
63376.6 5.12624
63378.1 5.04292
63381.0 5.01919
63387.0 5.01141
63398.8 5.00632
63422.4 4.99882
63469.7 4.98448
63564.3 4.95571
63753.5 4.89682
64131.9 4.77100
64321.1 4.70252
64510.3 4.62908
64699.4 4.54972
64794.0 4.50950
64841.3 4.50732
64853.2 4.52853
64865.0 4.60874
64870.9 4.73156
64876.8 5.08202
64879.8 5.54412
64881.2 5.97472
64882.7 6.68822
64884.2 8.00469
64884.9 9.10863
64885.7 10.7704
64886.4 13.4078
64887.2 17.8678
64887.9 25.9449
64888.6 40.9110
64889.3 63.6219
64890.0 79.5235
64890.7 65.3765
64891.4 43.1042
64891.9 31.7863
64892.4 24.1831
64892.9 19.1816
64893.4 15.8574
64894.4 11.7737
64895.4 9.56377
64896.5 8.22262
64897.5 7.36549
64899.5 6.36117
64901.5 5.81445
64903.5 5.48593
64907.6 5.12241
64915.7 4.82434
64923.8 4.70460
64940.0 4.60727
64956.2 4.56923
64988.6 4.54789
65021.1 4.56866
65053.5 4.65271
65069.7 4.74655
65085.9 4.91889
65102.1 5.26728
65110.2 5.58469
65118.3 6.10013
65126.4 7.00971
65134.5 8.79967
65138.6 10.3995
65142.6 12.9169
65146.7 17.0607
65150.7 23.9857
65155.4 36.0761
65160.0 44.3570
65164.6 36.6328
65169.3 24.7165
65172.8 18.4717
65176.3 14.4354
65179.8 11.8029
65183.3 10.0450
65190.4 7.94994
65197.4 6.81770
65204.4 6.14071
65211.4 5.70531
65225.5 5.19721
65239.6 4.92069
65253.6 4.75172
65281.7 4.55903
65309.8 4.45185
65337.9 4.38142
65394.1 4.28700
65450.4 4.21704
65506.6 4.15455
65562.8 4.09855
65576.9 4.09565
65590.9 4.12889
65597.9 4.19877
65605.0 4.41695
65608.5 4.71159
65612.0 5.43472
65613.7 6.24393
65615.5 7.85613
65616.4 9.31976
65617.3 11.6547
65618.1 15.5505
65619.0 22.1241
65620.0 33.6806
65621.0 42.0739
65622.0 35.1870
65623.0 23.9929
65623.8 17.6700
65624.6 13.6532
65625.5 11.1032
65626.3 9.42560
65627.9 7.46128
65629.5 6.41605
65631.2 5.79007
65632.8 5.38754
65636.1 4.91658
65642.6 4.49598
65649.2 4.30645
65662.3 4.10636
65668.8 4.06523
65672.1 4.31543
65673.8 5.37821
65674.6 7.81153
65675.0 11.2086
65675.4 18.8175
65675.7 29.5406
65676.0 37.8617
65676.3 33.0206
65676.6 23.2052
65676.9 17.3042
65677.1 13.4648
65677.7 9.52461
65678.2 7.68132
65678.7 6.68243
65679.8 5.68408
65680.9 5.21031
65683.0 4.77361
65685.1 4.57455
65689.3 4.38942
65693.6 4.30102
65710.6 4.16195
65744.5 4.06524
65778.5 4.00977
65812.4 3.96519
65948.2 3.80995
66084.1 3.65028
66152.0 3.56326
66185.9 3.51750
66202.9 3.49447
66211.4 3.48485
66215.6 3.48798
66217.8 3.51920
66218.8 3.63661
66219.3 3.99591
66219.6 4.88391
66219.7 6.31774
66219.9 11.0058
66220.0 18.5406
66220.1 11.0093
66220.3 5.99310
66220.4 4.60438
66220.8 3.86927
66221.4 3.58798
66222.7 3.49875
66225.2 3.47062
66230.4 3.45674
66240.6 3.44012
66261.1 3.40924
66302.0 3.34581
66383.8 3.20825
66547.5 2.87754
66711.2 2.44048
66793.0 2.16437
66833.9 2.00773
66854.4 1.92463
66864.6 1.88381
66869.8 1.87142
66872.3 1.89681
66873.6 2.02112
66874.2 2.42909
66874.6 3.47582
66874.7 5.38427
66874.9 12.0987
66875.0 22.3703
66875.1 12.1050
66875.3 6.34545
66875.4 4.17318
66875.6 2.79067
66876.1 2.14243
66877.0 1.91632
66878.9 1.84284
66882.6 1.80834
66890.1 1.77001
66905.1 1.69981
66935.1 1.55456
66995.1 1.23521
67055.1 0.877479
67115.1 0.496363
67175.1 0.155417
67205.1 0.0577776
67220.1 0.0497297
67235.1 0.0845423
67250.1 0.179985
67265.1 0.360983
67280.1 0.662749
67295.1 1.13513
67310.1 1.84856
67325.1 2.90154
67340.1 4.42856
67355.1 6.60219
67379.0 11.8986
67379.0 11.9041
67379.1 11.9208
67379.1 11.9374
67379.3 11.9708
67379.5 12.0377
67380.0 12.1723
67380.9 12.4421
67382.8 12.9980
67386.6 14.1599
67394.3 16.6899
67409.5 22.4352
67440.0 33.8348
67461.2 38.1001
67482.5 38.1801
67524.9 32.0076
67567.2 25.4855
67609.5 20.9073
67630.6 19.3277
67651.8 18.3643
67662.4 18.3624
67667.7 18.6430
67672.9 19.3011
67678.2 20.7043
67683.5 23.7737
67686.2 26.6575
67688.8 31.3093
67691.4 39.1405
67694.1 52.4982
67697.0 75.7264
67700.0 91.8984
67703.0 77.3008
67705.9 54.3826
67708.2 42.2717
67710.4 34.3657
67712.7 29.1812
67714.9 25.6735
67719.4 21.4224
67723.9 19.0424
67728.4 17.5571
67732.9 16.5484
67741.9 15.2562
67750.9 14.4366
67759.9 13.8465
67777.9 12.9987
67795.9 12.3732
67813.9 11.8664
67831.9 11.4354
67840.9 11.2425
67845.4 11.1566
67847.6 11.1374
67848.8 11.2070
67849.3 11.4787
67849.6 12.1633
67849.7 13.3493
67849.9 17.6566
67850.0 24.2540
67850.1 17.6519
67850.4 12.5162
67850.6 11.6191
67851.0 11.2192
67852.0 11.0690
67853.8 10.9950
67857.5 10.9146
67864.8 10.7768
67879.5 10.5223
67908.8 10.0701
67967.5 9.33140
68084.8 8.26260
68202.2 7.49219
68260.9 7.16657
68290.2 7.01185
68304.9 6.94238
68312.2 6.95194
68315.9 7.14373
68317.7 7.83905
68318.6 9.59001
68319.1 12.5379
68319.3 15.7744
68319.5 21.2996
68319.8 30.3757
68320.0 36.7772
68320.2 31.2161
68320.5 22.3484
68320.8 15.5117
68321.0 12.1491
68321.6 9.37133
68322.8 7.82410
68325.1 7.18272
68329.7 6.93994
68339.0 6.82081
68357.5 6.70473
68394.5 6.51552
68468.5 6.14782
68616.4 5.28523
68690.4 4.66274
68727.4 4.24192
68764.4 3.69283
68801.4 2.93395
68819.9 2.43482
68838.4 1.82762
68856.9 1.10320
68875.4 0.355408
68884.7 0.127252
68889.3 0.134512
68893.9 0.298387
68898.6 0.722137
68903.2 1.57009
68907.8 3.10810
68912.4 5.73942
68917.3 10.3230
68922.2 17.2859
68932.0 35.0058
68936.9 40.4139
68941.8 41.3486
68951.6 35.8147
68957.3 31.7642
68963.0 28.2414
68965.9 26.7386
68968.8 25.4473
68971.6 24.6556
68973.0 25.3644
68973.8 27.6150
68974.1 30.8112
68974.5 37.8683
68974.7 47.0648
68975.0 53.6910
68975.3 47.7620
68975.5 38.5904
68975.8 32.2133
68976.1 28.7260
68976.7 25.4141
68977.8 23.1039
68980.1 21.5492
68984.6 19.9853
68989.1 18.8294
68993.6 17.8627
69002.6 16.3046
69011.6 15.1021
69029.7 13.3697
69047.7 12.1880
69083.8 10.6862
69119.9 9.77165
69156.0 9.15383
69192.1 8.70596
69264.3 8.09358
69336.5 7.68705
69408.7 7.39096
69444.8 7.26892
69480.9 7.15906
69517.0 7.06446
69535.1 7.07331
69539.6 7.13251
69544.1 7.33244
69546.3 7.61679
69548.6 8.35815
69549.7 9.25084
69550.8 11.2201
69551.4 13.2168
69552.0 16.7146
69552.5 23.5130
69552.8 29.2946
69553.1 37.9244
69553.6 57.4659
69554.0 71.1974
69554.5 59.3381
69554.9 40.2669
69555.2 30.3247
69555.6 23.9378
69555.9 19.7085
69556.2 16.8333
69556.9 13.3179
69557.6 11.4194
69558.9 9.51611
69560.2 8.63762
69562.9 7.86771
69565.5 7.54330
69570.8 7.26776
69576.2 7.14905
69586.8 7.03809
69597.4 6.97969
69618.7 6.90649
69639.9 6.85303
69682.4 6.76634
69724.9 6.69246
69809.9 6.56576
69894.9 6.45787
70064.8 6.27956
70234.8 6.13518
70574.8 5.90860
70744.8 5.81514
70829.7 5.77063
70872.2 5.74683
70893.5 5.73288
70904.1 5.73085
70909.4 5.77358
70912.1 5.99384
70913.4 6.78997
70914.1 8.91520
70914.4 12.8506
70914.6 17.8275
70914.7 27.7072
70915.0 51.1712
70915.1 42.4218
70915.3 29.1982
70915.5 18.3542
70915.7 13.1674
70916.0 9.18771
70916.8 7.04397
70918.2 6.18363
70921.2 5.88644
70927.1 5.78594
70939.0 5.74646
70962.8 5.72272
71010.2 5.69614
71105.2 5.65284
71295.1 5.57511
71485.0 5.50367
71579.9 5.46964
71627.4 5.45298
71651.1 5.44492
71663.0 5.44170
71668.9 5.44326
71671.9 5.45611
71673.4 5.50572
71674.1 5.66918
71674.5 6.11182
71674.7 7.03494
71674.9 10.8755
71675.0 16.3194
71675.1 10.8783
71675.3 6.95200
71675.5 6.08815
71675.9 5.65441
71676.7 5.49942
71678.2 5.45244
71681.4 5.43861
71687.6 5.43310
71700.1 5.42792
71725.0 5.41905
71774.9 5.40162
71824.8 5.38364
71849.7 5.37426
71862.2 5.37383
71868.4 5.40071
71871.6 5.52905
71873.1 5.97875
71873.9 7.17795
71874.3 9.40556
71874.7 17.4022
71875.0 30.0846
71875.3 18.0524
71875.7 9.89745
71876.1 7.56571
71876.9 6.21206
71878.4 5.65445
71881.5 5.46260
71887.6 5.39906
71900.0 5.37461
71924.6 5.35918
71973.9 5.34010
72072.4 5.30645
72171.0 5.27276
72220.2 5.25537
72244.9 5.25237
72257.2 5.28804
72263.4 5.46857
72266.4 6.13943
72267.2 6.73735
72268.0 8.11654
72268.4 9.60464
72268.8 12.3761
72269.1 18.3796
72269.3 24.0760
72269.5 33.4004
72269.8 50.9457
72270.0 62.7053
72270.2 51.8589
72270.5 34.5491
72270.7 23.0371
72271.0 16.6379
72271.5 10.9525
72272.0 8.60683
72272.5 7.47719
72273.6 6.43844
72274.6 5.99807
72278.7 5.48456
72286.9 5.31976
72303.3 5.26309
72336.1 5.23496
72401.8 5.20678
72533.1 5.16010
72598.7 5.13930
72664.3 5.13036
72697.2 5.14710
72713.6 5.17395
72730.0 5.23286
72746.4 5.37316
72754.6 5.51787
72762.8 5.77982
72771.0 6.31306
72775.1 6.80408
72779.2 7.61346
72783.3 9.07191
72787.4 12.0201
72789.5 14.7192
72791.5 19.0872
72793.6 26.5261
72795.6 39.4848
72797.8 61.2255
72800.0 76.5008
72802.2 63.2070
72804.4 42.0938
72806.5 28.6165
72808.6 20.8470
72810.7 16.2216
72812.9 13.3460
72815.0 11.4429
72817.1 10.1370
72821.3 8.50668
72825.5 7.56577
72829.8 6.97585
72838.2 6.30002
72846.7 5.93911
72855.1 5.72187
72872.0 5.47932
72888.9 5.34938
72905.8 5.26813
72939.6 5.16733
73007.2 5.03510
73041.1 4.95887
73058.0 4.90658
73066.4 4.87601
73070.6 4.86966
73072.7 4.90858
73073.8 5.07365
73074.3 5.57517
73074.6 6.68089
73074.9 13.3439
73075.0 21.8670
73075.1 13.3481
73075.4 6.94633
73075.6 5.71603
73076.1 5.12298
73077.0 4.90531
73078.8 4.82993
73082.5 4.78760
73089.9 4.72289
73104.7 4.52249
73112.0 4.33427
73119.4 3.98386
73123.1 3.66235
73126.8 3.09852
73128.6 2.62244
73130.5 1.89716
73132.3 0.866683
73133.2 0.812111
73133.7 1.82852
73134.1 5.56756
73134.6 14.5463
73135.0 28.0437
73135.2 31.9377
73135.4 32.2467
73135.9 27.5851
73136.3 21.6964
73136.8 17.6999
73137.8 13.2248
73138.8 10.9807
73139.7 9.67520
73141.7 8.24592
73143.6 7.49162
73147.5 6.70993
73151.3 6.31107
73159.1 5.90712
73166.8 5.70269
73182.3 5.49492
73197.8 5.38832
73228.8 5.27659
73259.7 5.21601
73321.7 5.14691
73383.6 5.10509
73445.6 5.07654
73507.5 5.06216
73538.5 5.06831
73569.4 5.10912
73584.9 5.17473
73592.7 5.24086
73600.4 5.35880
73608.1 5.59544
73612.0 5.81250
73615.9 6.17079
73619.8 6.81975
73621.7 7.36001
73623.6 8.16257
73625.6 9.43183
73627.5 11.5455
73629.4 15.3489
73631.4 22.3797
73633.2 32.9455
73635.0 40.0971
73636.8 33.1931
73638.6 22.6896
73640.4 16.1516
73642.1 12.4024
73643.8 10.1862
73645.6 8.80596
73647.3 7.89606
73649.0 7.27555
73652.5 6.50656
73656.0 6.06731
73659.4 5.79502
73666.4 5.48794
73673.3 5.32714
73680.2 5.23209
73694.1 5.12872
73721.8 5.04285
73749.5 5.00502
73804.9 4.96599
73860.3 4.94154
73971.2 4.90484
74082.0 4.87553
74192.8 4.85567
74248.3 4.85421
74303.7 4.86740
74359.1 4.91842
74386.8 4.97903
74414.5 5.09563
74442.2 5.34247
74456.1 5.57490
74469.9 5.96244
74483.8 6.66667
74497.7 8.10666
74504.6 9.43633
74511.5 11.5988
74518.4 15.3154
74525.4 21.8387
74532.7 32.7000
74540.0 40.4155
74547.3 33.8494
74554.7 23.2908
74563.4 15.4195
74572.1 11.3871
74580.9 9.20230
74589.6 7.90836
74598.4 7.07025
74607.1 6.46402
74615.8 5.90315
74620.2 5.49241
74622.4 5.22380
74623.5 5.51329
74624.0 6.95110
74624.3 9.28782
74624.6 15.1402
74625.0 34.3817
74625.2 32.6119
74625.4 25.2725
74625.7 18.5016
74626.0 14.6419
74626.5 10.9641
74627.5 8.47853
74628.5 7.57017
74629.6 7.11423
74631.6 6.64549
74633.7 6.39886
74637.8 6.12180
74642.0 5.95514
74650.2 5.74115
74658.5 5.59755
74675.0 5.40383
74691.5 5.27497
74724.6 5.11129
74757.7 5.01089
74790.7 4.94218
74823.8 4.89135
74856.8 4.85137
74873.4 4.83439
74881.6 4.82750
74885.7 4.82829
74887.8 4.84409
74888.8 4.90448
74889.4 5.09270
74889.6 5.54864
74889.9 8.66036
74890.0 12.5056
74890.1 8.66310
74890.4 5.48451
74890.7 5.06931
74891.2 4.89475
74892.3 4.83761
74894.5 4.81966
74898.9 4.81143
74907.7 4.80267
74925.2 4.78802
74960.2 4.76470
74977.8 4.76141
74995.3 4.78638
75004.1 4.84173
75012.8 5.02315
75017.2 5.28065
75021.6 5.96208
75023.8 6.78943
75024.9 7.51547
75026.0 8.63979
75027.1 10.5334
75028.1 13.9350
75029.2 20.8224
75029.8 26.8710
75030.3 35.8063
75031.2 55.4593
75032.0 69.3767
75032.8 57.4657
75033.7 38.3156
75034.3 27.9627
75035.0 21.2950
75035.6 16.9913
75036.3 14.1247
75037.6 10.7297
75038.9 8.89870
75040.2 7.80681
75041.5 7.10467
75044.1 6.28766
75046.7 5.84300
75049.3 5.57372
75054.4 5.27500
75064.8 5.02487
75075.2 4.92008
75096.0 4.82786
75116.8 4.78440
75158.3 4.73784
75179.1 4.72247
75189.5 4.71680
75194.7 4.71828
75197.3 4.73477
75198.6 4.79900
75199.2 5.00844
75199.6 5.54533
75199.7 6.54205
75199.9 10.6639
75200.0 16.6179
75200.1 10.6626
75200.3 6.65593
75200.4 5.62029
75200.7 5.04152
75201.3 4.81045
75202.5 4.73556
75205.0 4.71327
75209.8 4.70493
75219.5 4.69813
75238.8 4.68770
75277.6 4.66937
75355.0 4.63715
75432.4 4.60751
75471.2 4.59295
75490.5 4.58601
75500.2 4.58439
75505.0 4.59106
75507.5 4.62258
75508.7 4.73705
75509.3 5.08931
75509.6 5.95014
75509.7 7.43680
75509.9 13.0419
75510.0 21.5211
75510.1 13.0506
75510.4 6.37381
75510.6 5.30059
75511.1 4.81004
75512.1 4.64398
75514.0 4.59413
75517.9 4.57914
75525.7 4.57236
75541.2 4.56469
75572.3 4.54900
75603.3 4.52664
75618.9 4.51273
75626.6 4.54700
75630.5 4.78404
75632.5 5.61695
75633.4 7.55047
75633.9 10.4852
75634.4 18.0079
75634.7 27.0181
75635.0 33.6000
75635.3 28.7138
75635.6 20.1382
75636.0 13.2746
75636.4 9.89377
75637.2 7.13326
75638.8 5.59895
75642.0 4.94515
75648.3 4.69851
75661.1 4.60333
75686.5 4.55914
75737.4 4.52754
75839.2 4.48819
76042.8 4.41922
76449.9 4.27488
76616.0 4.20860
76782.1 4.13493
76948.2 4.04911
77031.3 4.00064
77072.8 4.00156
77083.2 4.03479
77093.6 4.15618
77098.8 4.33719
77104.0 4.83536
77106.6 5.46433
77107.9 6.02903
77109.1 6.92760
77110.4 8.49354
77111.7 11.4942
77112.4 14.0885
77113.0 18.0514
77113.7 24.3044
77114.3 34.0446
77115.2 53.1611
77116.0 66.4963
77116.8 54.8402
77117.7 36.4249
77118.2 27.9943
77118.7 22.1676
77119.8 15.1708
77120.8 11.4467
77121.9 9.32046
77122.9 7.98306
77123.9 7.10563
77126.0 6.05081
77128.1 5.46190
77130.2 5.10024
77134.4 4.69506
77142.7 4.35373
77151.1 4.21144
77167.8 4.08810
77184.5 4.03114
77217.9 3.97049
77251.3 3.93166
77318.1 3.87042
77351.5 3.84214
77368.2 3.82873
77376.5 3.82469
77380.7 3.83306
77382.8 3.87591
77383.8 4.02795
77384.3 4.47988
77384.6 5.51581
77384.7 7.15873
77384.9 12.4886
77385.0 21.1729
77385.1 12.4972
77385.3 6.08979
77385.5 4.79371
77386.0 4.14256
77386.8 3.90963
77388.4 3.83726
77391.6 3.81478
77398.1 3.80398
77411.1 3.79140
77437.0 3.76825
77488.9 3.72076
77592.6 3.61577
77696.3 3.49123
77800.0 3.33727
77903.7 3.13711
78007.5 2.85767
78059.3 2.66733
78111.2 2.42029
78163.0 2.08070
78189.0 1.85571
78201.9 1.72371
78208.4 1.65256
78211.6 1.61853
78213.3 1.61276
78214.1 1.64859
78214.5 1.77790
78214.9 3.63491
78215.0 5.69462
78215.1 3.63364
78215.6 1.73916
78216.0 1.61566
78216.9 1.56526
78218.7 1.53150
78222.3 1.48240
78229.4 1.38460
78243.8 1.16853
78258.1 0.921093
78272.4 0.645829
78286.8 0.373516
78293.9 0.273430
78301.1 0.250200
78308.2 0.404317
78311.8 0.610433
78315.4 0.964331
78319.0 1.54472
78322.6 2.47354
78326.1 3.93598
78329.7 6.19626
78333.5 9.84577
78337.4 14.9993
78345.0 26.5809
78348.8 29.2129
78352.6 28.6814
78360.3 23.2604
78369.0 17.3947
78377.8 13.5673
78386.5 11.1139
78395.2 9.46639
78404.0 8.29766
78412.7 7.43029
78430.2 6.22668
78447.7 5.41751
78465.1 4.81950
78500.1 3.93563
78535.0 3.22563
78570.0 2.54052
78604.9 1.78413
78622.4 1.35580
78631.2 1.12807
78635.5 1.01297
78637.7 0.961425
78638.8 0.958023
78639.3 1.02642
78639.9 2.94053
78640.0 4.98881
78640.1 2.93655
78640.4 1.18950
78640.7 0.983925
78641.3 0.889186
78642.4 0.833227
78644.7 0.764297
78649.2 0.638740
78658.3 0.399702
78667.4 0.194649
78676.5 0.0726364
78685.6 0.134464
78690.2 0.292760
78694.7 0.589088
78699.3 1.08585
78703.8 1.87249
78708.4 3.07434
78712.9 4.85406
78719.2 8.64395
78725.5 14.3386
78738.0 28.6368
78744.3 32.8655
78750.6 33.4472
78763.1 28.7030
78773.6 24.0125
78784.1 20.3247
78794.5 17.5993
78805.0 15.5790
78826.0 12.8655
78846.9 11.1672
78867.9 10.0174
78888.8 9.19194
78930.8 8.08716
78972.7 7.38033
78993.6 7.11367
79014.6 6.88767
79035.5 6.69593
79056.5 6.54484
79067.0 6.50293
79077.4 6.54630
79082.7 6.68081
79087.9 7.11296
79090.5 7.68713
79091.9 8.21226
79093.2 9.06637
79094.5 10.5661
79095.8 13.4892
79096.4 16.0813
79097.1 20.0401
79097.7 26.3853
79098.4 36.7153
79099.2 56.0554
79100.0 69.6164
79100.8 58.0093
79101.6 39.1579
79102.6 25.2611
79103.5 18.0963
79104.5 14.2386
79105.4 12.0003
79106.4 10.5738
79107.3 9.62982
79109.3 8.47816
79111.2 7.82785
79113.1 7.42564
79116.9 6.96449
79124.6 6.55505
79132.2 6.36543
79147.5 6.16711
79162.8 6.04706
79193.4 5.87894
79224.0 5.75011
79254.6 5.64165
79285.1 5.54689
79346.3 5.38629
79468.7 5.13983
79591.0 4.95394
79835.7 4.67907
80080.5 4.47149
80569.9 4.13681
80814.6 3.98091
80936.9 3.89969
80998.1 3.85464
81028.7 3.82916
81044.0 3.82854
81051.7 3.91157
81055.5 4.28041
81057.4 5.37946
81058.3 7.63493
81058.8 10.6299
81059.3 17.0997
81059.7 25.7698
81060.0 31.8115
81060.4 26.6682
81060.7 18.5379
81061.1 13.0438
81061.4 9.93322
81062.2 7.00547
81063.6 5.15156
81066.5 4.31264
81072.2 3.99619
81083.7 3.87889
81106.7 3.82343
81152.6 3.77560
81198.6 3.73693
81221.6 3.71939
81233.1 3.72846
81238.8 3.82309
81241.7 4.21030
81243.1 5.41060
81243.9 8.11362
81244.2 12.1739
81244.6 22.5122
81244.8 34.4348
81245.0 42.3998
81245.2 35.2934
81245.4 23.5960
81245.8 12.0910
81246.3 8.02319
81247.1 5.45507
81248.8 4.31437
81252.1 3.90638
81258.8 3.76864
81272.2 3.71474
81299.0 3.67872
81352.7 3.63018
81406.3 3.58516
81433.1 3.59094
81439.8 3.62672
81446.5 3.75275
81449.8 3.93779
81453.2 4.44100
81454.8 5.07034
81456.5 6.51225
81457.4 8.03660
81458.2 10.9120
81458.6 13.3590
81459.0 17.0406
81459.5 22.7403
81459.9 31.5736
81460.4 49.1162
81461.0 61.8122
81461.6 50.9282
81462.1 33.8026
81462.5 25.0608
81463.0 19.2149
81463.4 15.3300
81463.8 12.7364
81464.6 9.52996
81465.4 7.75290
81467.0 5.96549
81468.6 5.14091
81471.9 4.41304
81475.1 4.10651
81481.6 3.84856
81488.1 3.74062
81501.1 3.64536
81514.1 3.59996
81540.1 3.54960
81566.0 3.51618
81670.0 3.41535
81877.8 3.22443
82085.6 3.00869
82293.4 2.75052
82501.2 2.42766
82709.0 2.00424
82812.9 1.73749
82916.8 1.42297
83020.8 1.07761
83046.7 1.01719
83059.7 1.01134
83072.7 1.04800
83085.7 1.19127
83092.2 1.35862
83098.7 1.67259
83105.2 2.31517
83108.4 2.89929
83111.7 3.83685
83114.9 5.46164
83118.2 8.53605
83119.8 11.1805
83121.4 15.1488
83123.0 21.3082
83124.7 30.9093
83126.8 50.1528
83129.0 63.7639
83131.2 52.0972
83133.4 33.4436
83135.9 19.7014
83138.5 12.5956
83141.0 8.72970
83143.6 6.45050
83146.1 5.00703
83148.7 4.03769
83153.8 2.85533
83158.9 2.18390
83164.0 1.76111
83174.2 1.26643
83184.4 0.986624
83194.6 0.803676
83214.9 0.569678
83235.3 0.418816
83255.7 0.313585
83276.1 0.244594
83296.5 0.213959
83316.9 0.231234
83337.3 0.313382
83357.7 0.486517
83378.1 0.789186
83398.5 1.27821
83418.9 2.03437
83439.3 3.17246
83459.7 4.84306
83487.3 8.27027
83514.9 13.3328
83570.0 25.6550
83597.6 29.0702
83625.2 29.2851
83680.3 24.7500
83697.6 23.0708
83706.2 22.2681
83710.5 21.8889
83712.7 21.7419
83713.8 21.8035
83714.3 22.2220
83714.6 23.2650
83714.9 29.3258
83715.0 37.1512
83715.1 29.3062
83715.4 23.2762
83715.7 22.1696
83716.2 21.6193
83717.2 21.3585
83719.2 21.1329
83723.2 20.7766
83731.3 20.1114
83747.5 18.8831
83779.9 16.7896
83812.2 15.1041
83828.4 14.3866
83836.5 14.0939
83840.5 14.1704
83842.5 14.9852
83843.5 17.3426
83844.0 21.7173
83844.3 26.7646
83844.5 36.7793
83844.8 51.4138
83845.0 62.3143
83845.2 53.4526
83845.5 39.2986
83845.8 26.4690
83846.2 20.9608
83846.9 16.9644
83848.3 14.8932
83851.2 13.9907
83856.8 13.5071
83868.2 13.0245
83891.0 12.2968
83936.6 11.1452
84027.7 9.52813
84118.8 8.44815
84164.3 8.03285
84187.1 7.84821
84198.5 7.76115
84204.2 7.71977
84207.0 7.70299
84208.5 7.70788
84209.2 7.75311
84209.5 7.89350
84209.9 9.58969
84210.0 11.5045
84210.1 9.58996
84210.4 7.91617
84210.8 7.75338
84211.4 7.68995
84212.8 7.66256
84215.4 7.63868
84220.7 7.60002
84231.2 7.52676
84252.3 7.38744
84294.5 7.13291
84378.8 6.70125
84547.5 6.04978
84716.2 5.57067
84800.5 5.37172
84842.7 5.27979
84863.8 5.23564
84874.3 5.21480
84879.6 5.20776
84882.2 5.21672
84883.6 5.26576
84884.2 5.43197
84884.6 5.87717
84884.9 10.1352
84885.0 15.0823
84885.1 10.1379
84885.5 5.84942
84885.8 5.42388
84886.5 5.25944
84887.8 5.20561
84890.4 5.18585
84895.7 5.17135
84906.3 5.14918
84927.5 5.10721
84948.7 5.06643
84959.3 5.04704
84964.6 5.04006
84967.2 5.04671
84968.6 5.08600
84969.2 5.21863
84969.5 5.56821
84969.9 9.23876
84970.0 13.4566
84970.1 9.24567
84970.5 5.57010
84970.8 5.21787
84971.5 5.08097
84972.8 5.03657
84975.5 5.01985
84980.8 5.00677
84991.5 4.98616
85012.9 4.94691
85055.7 4.87076
85141.3 4.72542
85312.6 4.45512
85655.0 3.95277
85997.4 3.43500
86168.6 3.14417
86254.3 2.98463
86297.1 2.90042
86318.5 2.85767
86329.2 2.83860
86334.5 2.83942
86337.2 2.87921
86338.5 3.03760
86339.2 3.54242
86339.5 4.77678
86339.7 7.02432
86339.9 14.3825
86340.0 25.9702
86340.1 14.3973
86340.3 7.26599
86340.5 4.94235
86340.8 3.61987
86341.4 3.06431
86342.6 2.87812
86345.1 2.82029
86350.1 2.79560
86360.1 2.77059
86380.1 2.72632
86420.0 2.63647
86459.9 2.54261
86479.9 2.49456
86489.9 2.47280
86494.9 2.47239
86497.4 2.51164
86498.6 2.66711
86499.2 3.13781
86499.5 4.23381
86499.8 11.5213
86500.0 20.6099
86500.2 11.5269
86500.4 4.63303
86500.7 3.34497
86501.2 2.73570
86502.3 2.52320
86504.4 2.45512
86508.6 2.42710
86517.0 2.40075
86517.0 2.40066
86566.7 2.26447
86616.5 2.11841
86666.2 1.96120
86691.1 1.90761
86697.3 1.92964
86703.5 2.04537
86706.6 2.22998
86709.7 2.74378
86711.3 3.38986
86712.8 4.86611
86713.6 6.41913
86714.4 9.27474
86715.1 15.3239
86715.5 20.8602
86715.9 29.1829
86716.5 46.6114
86717.0 58.8126
86717.5 48.4150
86718.1 31.4427
86718.6 20.6836
86719.1 14.3946
86719.7 10.6876
86720.2 8.38017
86721.3 5.82074
86722.3 4.52063
86724.4 3.30189
86726.6 2.76173
86730.8 2.29444
86735.0 2.09300
86743.5 1.90876
86752.0 1.81486
86768.9 1.69869
86785.9 1.61111
86853.7 1.30199
86921.5 0.979655
86989.3 0.634284
87057.1 0.300435
87091.0 0.174881
87108.0 0.137746
87124.9 0.128760
87141.9 0.160708
87158.8 0.251961
87175.8 0.429070
87192.7 0.730559
87209.7 1.21231
87226.6 1.95474
87243.6 3.07089
87260.5 4.71138
87282.9 7.98132
87305.3 12.7665
87350.0 24.2222
87389.9 27.5217
87409.9 26.1574
87419.9 25.1183
87424.9 24.5640
87427.4 24.3133
87428.6 24.3031
87429.2 24.6404
87429.5 25.5791
87429.9 32.1604
87430.0 40.3419
87430.2 32.1335
87430.5 25.5410
87430.7 24.5140
87431.3 24.0073
87432.5 23.7193
87434.8 23.3995
87439.5 22.8363
87451.2 21.4776
87462.8 20.1873
87486.2 17.8828
87532.9 14.3869
87579.5 12.0125
87626.2 10.3491
87672.9 9.13220
87719.6 8.20463
87766.2 7.47058
87789.6 7.16965
87801.2 7.11515
87804.2 7.18219
87807.1 7.42358
87808.5 7.74803
87810.0 8.50524
87811.4 10.7357
87812.2 13.6600
87812.9 19.9298
87813.5 28.4126
87814.0 34.4177
87814.6 29.4153
87815.1 21.3723
87815.7 15.4942
87816.4 12.3747
87817.6 9.62145
87818.9 8.50151
87820.1 7.94708
87822.6 7.42019
87825.2 7.17475
87830.2 6.93456
87835.2 6.80344
87855.3 6.50531
87895.4 6.09908
87975.7 5.45956
88136.3 4.48613
88296.9 3.70077
88457.5 2.97870
88618.1 2.25091
88778.7 1.47824
88939.3 0.677428
89019.6 0.323436
89059.7 0.188944
89079.8 0.140465
89089.9 0.122893
89094.9 0.118059
89097.4 0.124492
89098.6 0.157596
89099.3 0.270038
89099.6 0.563541
89099.9 3.33551
89100.0 6.56901
89100.1 3.33981
89100.6 0.395286
89101.0 0.201075
89101.8 0.133596
89103.6 0.112288
89107.0 0.104247
89113.9 0.0995265
89127.8 0.101761
89155.4 0.151412
89183.0 0.278493
89210.7 0.510878
89238.3 0.886261
89265.9 1.45401
89293.6 2.27887
89321.2 3.44053
89370.9 6.67980
89420.6 11.7965
89520.0 25.5564
89569.7 30.1497
89619.4 31.3744
89718.8 27.8402
89784.8 24.5569
89850.9 21.6954
89916.9 19.3842
89982.9 17.5575
90049.0 16.1350
90115.0 15.1161
90148.0 14.8515
90164.5 14.8534
90181.0 15.0404
90197.5 15.6144
90205.8 16.1970
90214.0 17.1626
90222.3 18.8335
90230.5 21.9091
90238.8 28.0695
90242.9 33.4182
90247.0 41.2133
90253.5 58.9206
90260.0 71.4067
90266.5 60.4630
90273.0 43.0324
90277.4 34.4900
90281.9 28.6973
90286.4 24.7548
90290.9 22.0198
90299.8 18.6070
90308.8 16.6410
90317.7 15.3758
90326.7 14.4555
90335.6 13.6054
90340.1 13.0090
90342.3 12.6789
90343.5 13.2828
90344.0 15.7263
90344.3 19.6737
90344.6 29.4867
90345.0 60.0757
90345.2 56.5699
90345.4 44.3189
90345.8 29.9399
90346.2 23.6590
90347.0 18.8341
90347.8 16.9926
90348.6 16.0534
90350.1 15.1076
90351.7 14.6260
90354.8 14.1058
90357.9 13.8071
90364.1 13.4309
90370.4 13.1739
90395.3 12.5247
90420.2 12.1040
90445.1 11.7805
90495.0 11.2799
90519.9 11.0740
90532.3 10.9838
90538.6 10.9610
90541.7 11.0259
90543.2 11.3150
90544.0 12.1923
90544.4 14.1807
90544.6 17.1310
90544.8 25.3689
90545.0 39.8647
90545.2 25.3756
90545.5 15.2548
90545.8 12.8307
90546.4 11.5506
90547.6 11.0673
90549.9 10.9029
90554.6 10.8285
90564.0 10.7527
90582.7 10.6257
90620.2 10.3946
90695.2 9.99084
90845.1 9.34043
91145.0 8.40982
91444.9 7.75488
91594.8 7.48962
91669.8 7.36849
91707.3 7.31137
91726.0 7.28757
91735.4 7.29227
91740.1 7.35656
91742.4 7.60341
91743.6 8.37209
91744.2 10.2807
91744.4 13.5101
91744.7 24.3670
91745.0 41.5103
91745.3 24.3922
91745.5 15.0139
91745.7 11.3463
91746.2 8.90094
91747.1 7.79471
91748.9 7.40518
91752.6 7.28444
91759.8 7.24193
91774.4 7.21207
91803.6 7.16746
91861.8 7.08427
91978.4 6.92673
92211.6 6.63554
92444.7 6.36107
92561.3 6.23262
92590.4 6.21615
92619.6 6.25063
92634.2 6.34354
92641.4 6.44938
92648.7 6.64978
92656.0 7.07047
92659.7 7.46329
92663.3 8.11439
92666.9 9.28916
92670.6 11.6484
92672.4 13.7847
92674.2 17.1946
92676.0 22.8860
92677.9 32.5514
92679.9 49.6563
92682.0 62.1101
92684.1 52.1669
92686.1 35.6878
92687.9 25.9059
92689.7 19.9172
92691.5 16.1841
92693.3 13.7607
92696.9 10.9528
92700.5 9.47312
92704.1 8.59672
92707.7 8.03669
92714.8 7.38098
92722.0 7.02222
92729.2 6.80124
92743.5 6.54783
92757.8 6.40715
92772.2 6.31665
92800.8 6.20233
92829.5 6.12753
92858.2 6.07021
92915.5 5.97892
93030.2 5.82973
93087.5 5.76070
93116.2 5.72673
93130.5 5.71016
93137.7 5.70337
93141.3 5.70571
93143.1 5.72796
93144.0 5.81072
93144.4 6.05756
93144.7 6.59546
93144.9 9.87608
93145.0 14.0663
93145.1 9.88158
93145.4 6.43767
93145.7 5.97676
93146.2 5.78147
93147.2 5.71555
93149.3 5.69429
93153.5 5.68427
93161.8 5.67305
93178.6 5.65291
93212.0 5.61312
93278.8 5.53287
93412.5 5.36631
93546.2 5.18658
93613.0 5.08970
93646.5 5.03912
93663.2 5.01349
93671.5 5.00158
93675.7 4.99984
93677.8 5.01488
93678.8 5.07695
93679.4 5.26874
93679.6 5.72503
93679.9 9.14591
93680.0 13.3125
93680.1 9.15198
93680.4 5.72747
93680.7 5.26901
93681.2 5.07305
93682.2 5.00784
93684.4 4.98628
93688.6 4.97457
93697.0 4.95964
93713.9 4.93165
93747.8 4.87470
93815.4 4.75392
93950.6 4.47670
94085.9 4.13146
94221.2 3.67835
94356.4 3.04380
94424.1 2.61805
94491.7 2.08583
94559.3 1.41749
94626.9 0.626464
94660.8 0.259885
94677.7 0.133522
94694.6 0.0936085
94711.5 0.208966
94719.9 0.358884
94728.4 0.596466
94736.9 0.949401
94745.3 1.45131
94753.8 2.14544
94762.2 3.08364
94779.7 6.05096
94797.1 10.7845
94832.0 23.7317
94849.5 28.1852
94866.9 29.5073
94901.8 26.4604
94923.8 23.6255
94945.9 21.1009
94990.0 17.3381
95012.0 15.9788
95034.0 14.8753
95045.1 14.4099
95056.1 14.0230
95061.6 13.8951
95067.1 13.9139
95069.9 14.0922
95072.6 14.6359
95074.0 15.2668
95075.4 16.4894
95076.7 19.1576
95077.4 21.6499
95078.1 25.4739
95079.1 33.3883
95080.0 39.1814
95081.0 34.5424
95081.9 26.8644
95082.7 22.2599
95083.6 19.4076
95084.4 17.6372
95085.3 16.4876
95086.9 15.1472
95088.6 14.4238
95092.0 13.6745
95095.3 13.2844
95102.0 12.8437
95108.7 12.5607
95122.1 12.1431
95135.5 11.8069
95162.3 11.2489
95189.1 10.7868
95242.8 10.0509
95296.4 9.48593
95403.6 8.66711
95510.9 8.09260
95618.1 7.65578
95725.4 7.30023
95832.6 6.99109
95886.2 6.84578
95913.0 6.77451
95926.5 6.74056
95933.2 6.72997
95936.5 6.74901
95938.2 6.84667
95939.0 7.18123
95939.4 8.10204
95939.7 9.95626
95939.9 17.4512
95940.0 28.2201
95940.1 17.4667
95940.3 10.4937
95940.5 8.50131
95940.8 7.36460
95941.5 6.90396
95942.9 6.75216
95945.6 6.70248
95951.1 6.67656
95962.0 6.64439
95983.8 6.58496
96027.4 6.46571
96071.0 6.34499
96092.8 6.29390
96103.7 6.31033
96109.1 6.46921
96111.8 7.03647
96113.2 8.61045
96113.9 11.8389
96114.2 16.2969
96114.6 27.3046
96114.8 39.9512
96115.0 48.2311
96115.2 39.8530
96115.4 27.1331
96115.7 18.9123
96115.9 14.3371
96116.4 10.1899
96117.3 7.70255
96119.1 6.66271
96122.8 6.31157
96130.1 6.19201
96144.7 6.11990
96174.0 6.01683
96232.6 5.82112
96261.9 5.75469
96276.6 5.75683
96291.2 5.82318
96305.9 6.05009
96313.2 6.30407
96320.5 6.76434
96327.9 7.65893
96331.5 8.42788
96335.2 9.59813
96338.9 11.4648
96342.5 14.6152
96346.2 20.2636
96349.8 30.7287
96353.4 47.3598
96357.0 59.4327
96360.6 49.7207
96364.2 33.6921
96366.9 25.0558
96369.7 19.4328
96372.4 15.7440
96375.1 13.2495
96380.6 10.2284
96386.1 8.54926
96391.6 7.50635
96397.1 6.80334
96408.1 5.90139
96419.0 5.31517
96430.0 4.86218
96451.9 4.07477
96473.9 3.22250
96484.8 2.71367
96495.8 2.12329
96517.7 0.771245
96523.2 0.540274
96528.7 0.562346
96531.5 0.764911
96534.2 1.18625
96536.9 1.93395
96539.7 3.15747
96543.5 6.04134
96547.3 10.7319
96555.0 23.9380
96558.8 28.6985
96562.7 30.3070
96570.3 27.6106
96575.3 24.8204
96580.2 22.3018
96590.0 18.5256
96599.9 16.0430
96609.7 14.3550
96619.5 13.1502
96629.4 12.2556
96649.0 11.0216
96668.7 10.2139
96688.4 9.64508
96727.7 8.89462
96767.1 8.41844
96806.4 8.08655
96885.1 7.64742
96963.8 7.36326
97042.5 7.15931
97121.2 7.00259
97160.5 6.93646
97180.2 6.90637
97190.0 6.89428
97194.9 6.89785
97197.4 6.93523
97198.6 7.07755
97199.2 7.51245
97199.6 8.58467
97199.9 16.2848
97200.0 25.7051
97200.1 16.2978
97200.3 10.3395
97200.5 8.52380
97200.8 7.48375
97201.4 7.06508
97202.7 6.92568
97205.2 6.88270
97210.3 6.86487
97220.4 6.84778
97240.7 6.81937
97281.3 6.76713
97362.5 6.67409
97443.7 6.59265
97484.3 6.55543
97504.6 6.53812
97514.7 6.53203
97519.8 6.53853
97522.3 6.57768
97523.6 6.72277
97524.2 7.16819
97524.5 8.27829
97524.7 10.2116
97524.9 16.3459
97525.0 26.1976
97525.1 16.3675
97525.4 8.89802
97525.6 7.50568
97526.1 6.84307
97527.1 6.61280
97529.0 6.54206
97532.9 6.51977
97540.7 6.50814
97556.3 6.49380
97587.5 6.46800
97649.9 6.41871
97712.3 6.36941
97743.5 6.34095
97759.1 6.32197
97766.9 6.31743
97770.8 6.37554
97772.8 6.67537
97773.7 7.66176
97774.2 9.95871
97774.5 13.3414
97774.7 22.5476
97775.0 40.5749
97775.3 24.3596
97775.7 12.7766
97776.0 9.51880
97776.7 7.60581
97778.1 6.79695
97780.9 6.50002
97786.6 6.39170
97797.9 6.34475
97820.4 6.31253
97865.6 6.27027
97910.7 6.22596
97933.3 6.22019
97944.6 6.36457
97947.4 6.54376
97950.3 7.04111
97951.7 7.66032
97953.1 9.06309
97953.8 10.5100
97954.5 13.0935
97955.2 18.3169
97955.5 22.7906
97955.9 29.3305
97956.5 44.6019
97957.0 55.5947
97957.6 46.8614
97958.1 32.5105
97958.6 23.2266
97959.2 17.8486
97959.7 14.5963
97960.2 12.5306
97961.3 10.1742
97962.3 8.96511
97964.4 7.80310
97966.5 7.28081
97970.6 6.82265
97974.8 6.62668
97983.1 6.45713
97991.5 6.38250
98008.2 6.31351
98016.5 6.29758
98020.7 6.30538
98022.8 6.36082
98023.8 6.55719
98024.3 7.11734
98024.6 8.31249
98024.8 14.5385
98025.0 22.8084
98025.2 14.5456
98025.5 7.66658
98025.9 6.77803
98026.6 6.42907
98028.1 6.31474
98031.0 6.27837
98036.9 6.26175
98048.6 6.24561
98072.0 6.22273
98118.9 6.18845
98212.6 6.13530
98400.0 6.04870
98587.5 5.97373
98681.2 5.93906
98728.0 5.92230
98751.5 5.91413
98763.2 5.91038
98769.0 5.90973
98772.0 5.91416
98773.4 5.93356
98774.2 5.99943
98774.5 6.18830
98774.9 8.42200
98775.0 10.9417
98775.1 8.42704
98775.4 6.30543
98775.7 6.04772
98776.3 5.94840
98777.4 5.91702
98779.7 5.90741
98784.3 5.90345
98793.5 5.89964
98812.0 5.89315
98848.8 5.88059
98922.5 5.85607
99069.9 5.80885
99217.4 5.76358
99291.1 5.74166
99327.9 5.73151
99346.3 5.72935
99355.6 5.73962
99360.2 5.78770
99362.5 5.96270
99363.6 6.51618
99364.2 7.94785
99364.5 10.5908
99364.8 20.0920
99365.0 34.4844
99365.2 20.1097
99365.5 10.3056
99365.9 7.76613
99366.5 6.43857
99367.7 5.93490
99370.2 5.77763
99375.2 5.73233
99385.1 5.71774
99404.9 5.70884
99444.6 5.69639
99523.9 5.67285
99682.6 5.62535
99841.3 5.57366
99920.7 5.54332
100000 5.50519
100054 5.46859
100109 5.40930
100136 5.35754
100163 5.26454
100177 5.17934
100190 5.02590
100197 4.89100
100204 4.66701
100207 4.49286
100211 4.25396
100214 3.99345
100216 4.03018
100217 4.75179
100219 6.80554
100220 10.1854
100221 11.7408
100223 10.9691
100224 9.71590
100226 8.76586
100229 7.66715
100235 6.76748
100241 6.38549
100246 6.18273
100258 5.96740
100270 5.85534
100294 5.73879
100318 5.67725
100365 5.61008
100413 5.57119
100508 5.52175
100603 5.48658
100793 5.42961
100888 5.40141
100936 5.38356
100960 5.37243
100972 5.38478
100978 5.50029
100981 5.99240
100982 7.49252
100983 10.3218
100983 14.7291
100983 25.3054
100984 47.0563
100985 27.1372
100985 16.3005
100985 11.5670
100986 8.36896
100988 6.51360
100991 5.78293
100996 5.52927
101008 5.43760
101032 5.39925
101080 5.37482
101175 5.34664
101270 5.32241
101317 5.31111
101341 5.30765
101353 5.31469
101359 5.35130
101362 5.49276
101363 5.97653
101364 7.18130
101364 10.0129
101365 20.4986
101365 35.6638
101365 20.4612
101366 11.6717
101366 8.92397
101366 6.88020
101367 5.79568
101369 5.43765
101372 5.33502
101379 5.30500
101393 5.29395
101421 5.28487
101477 5.27002
101590 5.24215
101646 5.23327
101702 5.24804
101730 5.29459
101744 5.35029
101758 5.46014
101772 5.70148
101779 5.93652
101786 6.34154
101793 7.10898
101796 7.76828
101800 8.78005
101803 10.4223
101807 13.2776
101810 18.6416
101814 29.2529
101817 45.0328
101820 56.6287
101823 47.4054
101826 32.2060
101828 25.4570
101830 20.6631
101834 14.9637
101838 11.8129
101841 10.0182
101845 8.85539
101849 8.09816
101856 7.16447
101864 6.63914
101871 6.31259
101886 5.94246
101901 5.74257
101916 5.62168
101946 5.48381
101976 5.40831
102006 5.36041
102066 5.30153
102125 5.26466
102185 5.23774
102245 5.21607
102275 5.20656
102290 5.20238
102297 5.20181
102301 5.20707
102303 5.23086
102304 5.30622
102304 5.55316
102305 5.95991
102305 9.56155
102305 13.9514
102305 9.56944
102305 5.96418
102306 5.55596
102306 5.33009
102307 5.23432
102309 5.20693
102312 5.19822
102319 5.19413
102333 5.18971
102360 5.18204
102415 5.16779
102470 5.15441
102497 5.14803
102511 5.14526
102518 5.14531
102521 5.15079
102523 5.17257
102524 5.25193
102524 5.44102
102525 8.93433
102525 12.7492
102525 8.94298
102525 5.78927
102526 5.36638
102526 5.21972
102527 5.16478
102529 5.14692
102533 5.14137
102542 5.13824
102558 5.13417
102591 5.12674
102658 5.11238
102790 5.08469
102922 5.05776
102989 5.04456
103022 5.03862
103038 5.03831
103047 5.04860
103051 5.09188
103053 5.25090
103054 5.70730
103054 6.74349
103055 9.00038
103055 17.7571
103055 30.4954
103055 17.7676
103056 9.00789
103056 6.74850
103056 5.61882
103058 5.21818
103060 5.08133
103064 5.04280
103073 5.03075
103091 5.02435
103128 5.01617
103200 5.00044
103272 4.98255
103308 4.97101
103326 4.97003
103335 5.01236
103340 5.20765
103342 5.81715
103343 6.99515
103344 8.69719
103344 12.0597
103345 20.0836
103346 12.9834
103346 9.52038
103347 7.88732
103348 6.44669
103350 5.58375
103354 5.20319
103362 5.05888
103378 5.00487
103410 4.97939
103443 4.96869
103459 4.96851
103467 4.98424
103471 5.04969
103473 5.27549
103474 5.93225
103474 7.39985
103475 10.4810
103475 19.2432
103475 33.5729
103475 19.2862
103476 10.5149
103476 8.09410
103476 6.31958
103477 5.38617
103479 5.08528
103482 4.99122
103489 4.96436
103503 4.95422
103531 4.94602
103586 4.93335
103697 4.90945
103808 4.88435
103864 4.86883
103892 4.85816
103906 4.85822
103912 4.90596
103916 5.13150
103918 5.79088
103919 7.24549
103919 8.95406
103919 13.5474
103920 23.3310
103921 14.6212
103921 8.79046
103922 6.83596
103923 5.71125
103926 5.18660
103931 4.98298
103942 4.90895
103963 4.87794
104005 4.85846
104090 4.83613
104260 4.79767
104429 4.75799
104514 4.73499
104557 4.72117
104578 4.72231
104588 4.78074
104594 5.03889
104596 5.83771
104598 7.40730
104598 9.66536
104599 13.8206
104600 19.6711
104600 23.9072
104601 20.5010
104601 14.8594
104602 9.70773
104603 7.55597
104604 5.99272
104607 5.21850
104614 4.90388
104626 4.78754
104651 4.74118
104701 4.71385
104801 4.68348
105000 4.63045
105177 4.58164
105354 4.52844
105531 4.46691
105619 4.43289
105664 4.44433
105675 4.48276
105686 4.61244
105691 4.80362
105697 5.30611
105700 5.93159
105702 7.27293
105704 8.67645
105705 11.2310
105707 16.3703
105707 20.8760
105708 27.1865
105709 41.1313
105710 51.9768
105711 42.8640
105712 29.3143
105713 21.4112
105714 16.7378
105715 13.6612
105715 11.5771
105717 9.06234
105719 7.67964
105722 6.30105
105725 5.66108
105731 5.09674
105738 4.85695
105751 4.65286
105764 4.56680
105789 4.48879
105815 4.45039
105866 4.40549
105918 4.37394
106123 4.26828
106328 4.16407
106380 4.15281
106405 4.16177
106431 4.19753
106457 4.30413
106469 4.42246
106482 4.64335
106495 5.10218
106501 5.52058
106508 6.20000
106514 7.38519
106521 9.65969
106524 11.6198
106527 14.5973
106530 19.2576
106533 26.5967
106538 41.5442
106542 52.6735
106546 44.1885
106551 29.8894
106553 23.3656
106556 18.7557
106561 13.2083
106567 10.2641
106572 8.57803
106578 7.49501
106583 6.77208
106594 5.90065
106604 5.40247
106615 5.09285
106637 4.73295
106658 4.53232
106680 4.40465
106722 4.24752
106765 4.14763
106808 4.07261
106894 3.95212
107066 3.73409
107238 3.48148
107410 3.14017
107495 2.91213
107581 2.62359
107667 2.24608
107753 1.73514
107796 1.41082
107839 1.03432
107882 0.616636
107903 0.410572
107914 0.318246
107920 0.280180
107922 0.278948
107924 0.332761
107924 0.545952
107925 0.993103
107925 6.14451
107925 12.0888
107925 6.15615
107926 0.992905
107926 0.475112
107927 0.303311
107928 0.237739
107931 0.204361
107937 0.171281
107948 0.141658
107959 0.167519
107971 0.274545
107982 0.505112
107993 0.913355
108005 1.59018
108016 2.63625
108032 5.02956
108048 8.81062
108080 19.0384
108096 22.5326
108112 23.5619
108144 21.1335
108179 17.3347
108215 14.5085
108250 12.5558
108285 11.1885
108321 10.1907
108356 9.44097
108427 8.39416
108497 7.70105
108568 7.21013
108709 6.55699
108851 6.13680
108992 5.83741
109133 5.60607
109204 5.50685
109239 5.46258
109257 5.45098
109266 5.48364
109270 5.63741
109272 6.15357
109274 7.54568
109274 10.7613
109274 15.5210
109275 23.0268
109275 40.4449
109275 23.0561
109276 13.4780
109276 9.89186
109277 7.10470
109278 5.97295
109281 5.56448
109286 5.44118
109297 5.39618
109318 5.36109
109362 5.30589
109448 5.20065
109534 5.09270
109620 4.97317
109706 4.82376
109749 4.72528
109792 4.59529
109835 4.40292
109857 4.26161
109878 4.06468
109900 3.76228
109911 3.53981
109922 3.23688
109932 2.79130
109943 2.10148
109948 1.60388
109954 1.00121
109959 0.568511
109962 0.924910
109963 1.53100
109965 2.68247
109966 4.87663
109967 8.41107
109970 17.7350
109971 21.1249
109973 22.1884
109976 20.1699
109979 16.7121
109982 14.1115
109985 12.3201
109988 11.0981
109991 10.1764
109994 9.50336
110000 8.54576
110005 8.03892
110009 7.65491
110019 7.11289
110028 6.74909
110038 6.49031
110056 6.13850
110075 5.91273
110094 5.75279
110113 5.63362
110150 5.46391
110188 5.34629
110225 5.25751
110300 5.12687
110375 5.02906
110450 4.94837
110525 4.87712
110562 4.84423
110581 4.83059
110590 4.83353
110595 4.87244
110597 5.01902
110599 5.51403
110599 6.85409
110600 9.47242
110600 17.7133
110600 30.6535
110600 17.7494
110601 9.49965
110601 7.43840
110601 5.77091
110602 5.10415
110604 4.89385
110608 4.82782
110616 4.80372
110631 4.78606
110662 4.75894
110723 4.70716
110845 4.60199
110968 4.48723
111090 4.35187
111090 4.35162
111091 4.35088
111091 4.35013
111092 4.34877
111095 4.34604
111099 4.34041
111108 4.32910
111126 4.30568
111162 4.25571
111233 4.13969
111305 3.99205
111377 3.79126
111412 3.65840
111448 3.49159
111484 3.27416
111520 2.97681
111556 2.54396
111573 2.24505
111591 1.86275
111609 1.36830
111627 0.754214
111636 0.444999
111645 0.265665
111650 0.317626
111654 0.570792
111658 1.20199
111663 2.45011
111667 4.64117
111671 8.14972
111680 17.8014
111684 21.1479
111689 22.1657
111697 19.9482
111707 16.4658
111716 13.8535
111725 12.0463
111735 10.7737
111744 9.84597
111754 9.14628
111772 8.16939
111791 7.52429
111810 7.06801
111848 6.46695
111885 6.08543
111923 5.82043
111960 5.62390
111998 5.47119
112073 5.24359
112148 5.07609
112223 4.93831
112261 4.88497
112280 4.94289
112284 5.04223
112289 5.33853
112292 5.73783
112294 6.64874
112295 7.67090
112296 9.43682
112297 13.5553
112298 17.4672
112298 22.5118
112299 33.8997
112300 42.3603
112301 35.6925
112302 24.7444
112302 18.0461
112303 14.0189
112304 9.90955
112306 8.05049
112307 7.07044
112310 6.12221
112313 5.68992
112319 5.30449
112324 5.14093
112335 4.99319
112347 4.92324
112392 4.80155
112482 4.67773
112572 4.58009
112662 4.48984
112843 4.31210
113023 4.11863
113204 3.88506
113384 3.57235
113474 3.36405
113564 3.09888
113655 2.74604
113700 2.52132
113722 2.39414
113734 2.32991
113739 2.31342
113742 2.36354
113743 2.57167
113744 3.13445
113744 4.53486
113745 13.1854
113745 24.1416
113745 13.2048
113746 5.40412
113746 3.59827
113746 2.77533
113747 2.39390
113750 2.26310
113754 2.20163
113763 2.13263
113780 2.00273
113814 1.71370
113849 1.37510
113883 0.983582
113918 0.551243
113935 0.340665
113952 0.167501
113969 0.0865607
113978 0.113387
113987 0.213363
113995 0.419236
114004 0.776891
114012 1.34930
114021 2.21959
114035 4.43364
114048 8.00344
114075 17.9261
114089 21.4491
114102 22.6117
114129 20.5136
114148 18.2258
114166 16.2131
114185 14.5808
114204 13.2830
114241 11.4133
114278 10.1652
114315 9.28457
114352 8.63779
114427 7.75329
114501 7.17765
114576 6.77363
114725 6.23942
114874 5.89752
114948 5.76775
115022 5.65857
115097 5.57117
115134 5.54075
115171 5.52940
115209 5.56475
115227 5.62538
115246 5.75488
115264 6.04581
115274 6.32719
115283 6.80354
115292 7.67864
115302 9.48607
115306 11.1851
115311 13.9010
115316 18.6780
115320 26.9070
115325 41.0284
115330 51.0730
115335 42.8951
115340 29.6086
115346 19.7407
115351 14.5352
115357 11.6616
115363 9.94938
115368 8.85639
115374 8.11803
115386 7.21216
115397 6.69554
115408 6.37022
115431 5.99225
115454 5.78290
115477 5.65021
115522 5.48899
115568 5.38995
115613 5.31934
115659 5.26519
115682 5.24834
115693 5.26681
115699 5.37323
115702 5.73700
115703 6.74097
115704 8.80174
115704 12.3505
115705 22.3247
115705 39.2717
115705 22.3649
115706 12.3825
115706 9.42538
115707 6.92119
115708 5.80979
115711 5.38987
115716 5.25381
115727 5.20768
115748 5.17868
115790 5.13776
115832 5.09259
115853 5.05572
115864 5.02652
115869 5.05925
115872 5.35911
115873 6.40328
115874 9.01287
115874 12.1829
115875 21.0720
115875 40.1342
115875 35.6202
115875 24.3509
115876 16.9162
115876 12.2811
115877 8.54759
115878 6.50137
115880 5.65396
115885 5.31422
115894 5.17934
115913 5.11523
115950 5.06971
116025 5.01722
116175 4.93675
116325 4.86698
116400 4.83411
116437 4.81799
116456 4.81018
116466 4.80707
116470 4.80873
116473 4.82119
116474 4.87047
116474 5.03340
116475 5.47076
116475 8.63348
116475 12.4908
116475 8.64362
116476 5.24782
116476 4.94551
116477 4.84238
116478 4.81235
116481 4.80245
116487 4.79746
116499 4.79167
116524 4.78115
116572 4.76025
116669 4.71678
116766 4.66581
116815 4.64031
116839 4.69499
116845 4.78529
116851 5.05540
116854 5.43017
116857 6.31947
116859 7.29309
116860 9.19673
116861 11.0086
116862 13.4614
116862 17.9788
116863 24.6040
116864 38.3401
116865 47.4386
116866 40.5459
116867 27.4329
116868 18.5851
116869 13.8161
116870 10.8802
116871 9.28482
116873 7.46711
116875 6.60059
116879 5.75239
116883 5.38752
116892 5.06655
116900 4.92919
116917 4.80843
116933 4.75319
116966 4.69774
117000 4.66619
117132 4.58858
117265 4.51866
117331 4.48126
117348 4.48301
117364 4.52815
117373 4.61786
117381 4.89960
117385 5.28700
117389 6.21138
117391 7.25127
117393 9.16740
117394 11.0146
117395 13.6109
117396 17.6686
117397 24.0446
117399 37.6029
117400 46.8455
117401 39.1798
117403 27.2709
117404 18.3423
117406 13.7478
117407 11.0704
117408 9.41114
117411 7.52520
117414 6.60377
117420 5.71495
117426 5.31617
117437 4.96600
117448 4.81473
117471 4.67827
117494 4.61506
117539 4.55053
117562 4.53117
117573 4.52746
117579 4.54340
117582 4.61273
117583 4.83846
117584 5.42860
117584 6.88200
117585 15.3840
117585 26.2735
117585 15.4010
117586 6.31332
117586 5.27996
117587 4.77555
117589 4.58470
117592 4.52771
117599 4.50866
117612 4.49648
117639 4.48033
117693 4.45336
117800 4.40676
117907 4.36363
117961 4.34267
117988 4.33419
118001 4.33842
118008 4.37301
118011 4.50916
118013 4.96003
118014 6.03741
118014 7.92473
118014 10.1679
118015 18.8007
118015 33.2950
118015 18.8124
118016 8.90062
118016 6.37190
118017 5.04487
118019 4.53865
118022 4.37901
118028 4.33154
118041 4.31399
118066 4.29976
118117 4.27535
118169 4.24548
118194 4.22191
118207 4.21005
118213 4.26470
118216 4.60072
118218 5.80238
118219 8.72480
118219 13.2694
118220 20.9569
118220 34.0823
118220 39.7102
118220 31.5096
118221 22.9989
118221 15.4297
118221 11.3250
118222 8.14347
118223 5.87428
118225 4.85886
118229 4.47771
118238 4.33211
118255 4.27033
118290 4.23222
118360 4.18751
118429 4.13857
118464 4.10943
118481 4.15280
118486 4.23606
118490 4.49321
118492 4.85182
118494 5.68605
118495 6.64330
118497 8.54831
118498 12.9124
118498 16.7523
118499 23.3709
118499 35.7432
118500 45.7279
118501 38.2974
118501 26.5093
118502 17.8691
118503 13.3218
118504 10.3819
118504 8.83473
118506 7.01537
118507 6.15509
118510 5.28647
118513 4.91351
118519 4.58072
118525 4.43904
118537 4.31218
118548 4.25429
118595 4.16591
118689 4.09570
118876 3.99382
119251 3.77077
119438 3.62825
119625 3.44711
119813 3.19752
119906 3.02761
120000 2.80594
120062 2.61312
120094 2.49762
120109 2.43644
120117 2.41571
120121 2.44934
120123 2.61224
120124 3.16138
120124 4.55995
120125 13.9188
120125 25.4654
120125 13.9076
120126 6.33770
120126 4.09766
120126 3.04948
120127 2.56046
120130 2.40195
120134 2.33692
120142 2.28247
120160 2.18899
120194 1.97976
120228 1.72275
120262 1.40219
120297 0.997574
120331 0.518900
120348 0.297833
120365 0.211285
120374 0.303749
120382 0.583433
120391 1.20174
120395 1.70767
120399 2.37809
120407 4.35546
120416 7.44137
120432 15.6252
120440 18.3047
120448 18.9687
120465 16.7694
120482 13.7925
120499 11.5615
120515 9.98582
120532 8.86816
120549 8.03847
120566 7.40889
120583 6.91800
120591 6.75183
120595 6.86710
120597 7.56381
120599 9.62980
120599 12.9736
120600 23.2711
120600 36.0155
120600 41.2494
120601 24.6742
120601 15.3628
120601 12.1858
120602 9.10523
120603 7.45309
120606 6.74849
120612 6.41887
120623 6.14540
120645 5.78617
120667 5.50602
120689 5.27304
120733 4.89942
120778 4.60682
120866 4.15157
120910 3.95989
120932 3.87424
120943 3.86600
120949 4.00531
120952 4.57645
120953 6.19661
120954 9.40229
120954 12.7429
120954 21.0004
120955 39.1112
120955 31.1605
120956 21.8962
120956 15.2571
120956 10.9974
120957 7.27642
120958 5.12018
120960 4.21874
120965 3.89791
120974 3.76271
120993 3.65743
121031 3.50229
121107 3.20699
121182 2.89686
121257 2.55511
121333 2.17189
121408 1.78075
121446 1.65779
121465 1.67104
121484 1.80695
121503 2.22189
121512 2.64590
121522 3.35407
121531 4.59804
121541 6.86254
121550 11.3307
121555 15.1344
121559 20.6067
121567 33.9483
121575 43.6598
121583 36.0880
121591 23.4328
121596 17.1086
121601 12.8389
121612 7.82849
121623 5.30366
121633 3.95790
121644 3.23849
121655 2.94127
121665 2.97435
121676 3.31834
121696 4.92495
121717 7.97151
121757 17.1675
121777 20.5654
121798 21.7247
121838 19.8086
121880 16.6921
121921 14.2383
121963 12.4772
122004 11.2055
122046 10.2562
122088 9.52771
122171 8.48946
122254 7.78175
122337 7.26118
122379 7.04511
122420 6.85755
122441 6.78993
122462 6.80208
122472 6.92212
122477 7.06826
122483 7.34594
122488 7.90969
122490 8.41177
122493 9.19748
122496 10.4918
122498 12.7628
122501 17.0347
122503 24.9772
122506 37.7301
122508 47.7135
122510 41.2711
122513 29.3926
122515 22.6680
122517 18.4651
122518 15.6583
122520 13.7326
122524 11.3695
122527 10.0398
122531 9.19902
122535 8.65777
122542 7.99595
122549 7.60938
122556 7.36349
122571 7.06088
122585 6.87852
122600 6.75185
122629 6.57687
122687 6.34273
122716 6.23380
122730 6.15326
122737 6.08560
122741 6.09760
122743 6.46297
122744 7.75637
122744 10.8969
122745 20.0796
122745 38.0515
122745 33.5988
122745 24.1910
122746 16.1525
122746 12.2683
122747 9.51038
122748 7.65012
122750 6.82583
122754 6.46251
122763 6.29787
122780 6.19701
122814 6.09880
122882 5.96405
123018 5.76064
123154 5.60122
123290 5.46945
123563 5.25967
123835 5.09559
124380 4.84009
124652 4.72679
124789 4.66583
124857 4.63088
124891 4.61171
124908 4.60463
124916 4.61434
124921 4.67123
124923 4.87323
124924 5.53591
124924 6.94809
124925 9.85471
124925 16.9770
124925 29.4029
124925 17.0122
124926 8.52282
124926 6.16659
124927 5.09833
124928 4.73195
124932 4.62244
124938 4.58830
124951 4.57021
124976 4.54442
125027 4.47383
125053 4.41273
125078 4.30164
125091 4.19773
125103 4.00267
125110 3.81881
125116 3.48949
125119 3.19401
125122 2.69986
125126 1.77899
125127 1.18476
125128 1.24041
125129 2.46103
125129 6.78646
125130 13.2758
125131 16.6951
125131 15.4427
125133 11.2804
125134 9.00487
125137 7.13039
125140 6.35601
125143 5.93983
125149 5.50490
125155 5.28034
125167 5.05010
125179 4.93170
125203 4.80841
125227 4.74232
125275 4.66741
125323 4.62089
125419 4.55366
125467 4.52406
125491 4.50962
125503 4.50334
125509 4.50382
125512 4.51813
125513 4.57731
125514 4.75126
125515 5.28911
125515 10.3721
125515 16.2898
125515 10.3906
125515 5.70237
125516 4.91936
125516 4.62139
125517 4.53156
125520 4.50233
125524 4.49231
125533 4.48526
125551 4.47586
125587 4.47532
125605 4.51038
125623 4.65848
125632 4.88510
125637 5.10790
125641 5.49106
125646 6.20808
125648 6.82921
125650 7.72143
125653 9.19044
125655 11.5195
125657 15.7917
125659 23.1364
125662 36.0213
125664 45.3039
125666 38.3242
125669 26.7109
125671 17.8690
125674 13.1507
125677 10.5223
125680 8.94430
125682 7.93055
125685 7.24198
125690 6.40356
125696 5.91123
125701 5.60075
125712 5.24339
125723 5.04572
125733 4.92432
125755 4.78266
125798 4.65167
125841 4.58730
125927 4.51615
126013 4.47125
126184 4.40564
126356 4.35163
126700 4.25265
126872 4.19842
126958 4.15936
127001 4.12415
127022 4.10715
127033 4.20406
127039 4.74121
127040 5.27333
127041 6.39260
127043 9.42529
127043 13.4180
127044 20.4014
127044 31.2151
127045 39.8477
127046 33.8628
127046 23.6814
127047 17.3375
127047 13.5330
127048 9.52343
127049 7.64766
127050 6.63562
127052 5.63405
127054 5.16687
127058 4.74073
127062 4.55975
127070 4.39827
127079 4.32677
127111 4.22907
127175 4.17506
127240 4.14756
127272 4.13762
127289 4.13795
127297 4.15771
127301 4.23866
127303 4.51553
127304 5.31011
127304 7.03815
127305 10.4725
127305 17.0742
127305 30.0432
127305 17.0927
127306 7.81653
127306 5.51274
127307 4.59570
127309 4.26298
127313 4.15989
127320 4.13036
127335 4.11860
127364 4.10794
127423 4.09047
127540 4.05769
127657 4.02573
127716 4.01013
127745 4.00385
127760 4.00704
127767 4.03341
127771 4.14086
127773 4.49741
127774 5.48483
127774 7.95243
127775 17.1536
127775 30.3665
127775 17.2050
127776 7.98902
127776 5.50813
127777 4.51050
127779 4.13901
127783 4.03218
127790 4.00043
127805 3.98840
127835 3.97801
127895 3.96078
128015 3.92637
128135 3.88838
128195 3.86246
128225 3.83839
128240 3.81366
128247 3.81001
128251 3.93156
128253 4.52145
128254 6.06179
128254 9.17594
128255 18.4635
128255 35.5309
128255 31.4417
128255 20.9341
128256 12.8157
128256 9.48663
128257 6.43602
128258 4.93686
128261 4.28741
128266 4.03230
128277 3.93221
128298 3.88634
128340 3.85678
128382 3.83976
128404 3.83512
128414 3.84420
128420 3.89281
128422 4.06992
128423 4.62102
128424 6.19707
128424 8.62191
128425 16.7294
128425 29.6563
128425 16.7495
128426 8.67237
128426 5.81294
128427 4.47607
128428 4.02306
128431 3.87675
128438 3.83466
128450 3.81986
128475 3.80892
128524 3.79240
128622 3.76123
128819 3.69861
129213 3.56453
129606 3.41215
130000 3.23298
130000 7.33198
140000 7.16711
143127 7.11869
150000 7.01695
160000 6.87933
161749 6.85642
170000 6.75252
180000 6.63510
190000 6.52592
200000 6.42399
225000 6.19412
250000 5.99546
275000 5.82126
300000 5.66664
350000 5.40099
377498 5.27525
400000 5.18097
412192 5.13226
467263 4.93374
500000 4.82976
544514 4.70089
551822 4.68106
600000 4.55845
685937 4.36837
700000 4.34026
703649 4.33323
735509 4.27379
800000 4.16324
900000 4.01464
900000 4.01464
900000 4.01464
948683 3.95192
999999 3.89021
1.00000E+06 3.89021
1.00000E+06 3.89021
1.00719E+06 3.88249
1.00720E+06 3.88246
1.00720E+06 3.88245
1.00864E+06 3.88091
1.01009E+06 3.87937
1.01154E+06 3.87782
1.01299E+06 3.87628
1.01590E+06 3.87320
1.01881E+06 3.87012
1.02174E+06 3.86704
1.02467E+06 3.86397
1.03056E+06 3.85783
1.03649E+06 3.85169
1.04245E+06 3.84557
1.05447E+06 3.83336
1.05606E+06 3.83175
1.06688E+06 3.82094
1.07781E+06 3.81015
1.10000E+06 3.78868
1.10126E+06 3.78748
1.10273E+06 3.78607
1.10477E+06 3.78413
1.11240E+06 3.77691
1.13496E+06 3.75592
1.16942E+06 3.72487
1.17852E+06 3.71687
1.20000E+06 3.69830
1.25519E+06 3.65671
1.27821E+06 3.64005
1.30000E+06 3.62462
1.31664E+06 3.61304
1.33895E+06 3.59781
1.36881E+06 3.57791
1.40000E+06 3.55772
1.41319E+06 3.54933
1.41334E+06 3.54924
1.42647E+06 3.54099
1.43499E+06 3.53569
1.44952E+06 3.52675
1.46780E+06 3.51565
1.50000E+06 3.49654
1.50348E+06 3.49509
1.52128E+06 3.48772
1.52753E+06 3.48516
1.56110E+06 3.47162
1.56389E+06 3.47051
1.57060E+06 3.46786
1.59070E+06 3.45998
1.60000E+06 3.45638
1.60142E+06 3.45583
1.70000E+06 3.41908
1.80000E+06 3.38428
1.82774E+06 3.37502
1.82774E+06 3.37502
1.90000E+06 3.35168
1.94045E+06 3.33907
1.94045E+06 3.33907
2.00000E+06 3.32105
2.05977E+06 3.31735
2.12132E+06 3.31371
2.25000E+06 3.30665
2.34310E+06 3.30171
2.34311E+06 3.30171
2.42028E+06 3.29769
2.50000E+06 3.29383
2.57420E+06 3.30564
2.64303E+06 3.31641
2.64304E+06 3.31641
2.65060E+06 3.31759
2.65060E+06 3.31759
2.75000E+06 3.33263
2.77971E+06 3.33704
2.83788E+06 3.34554
2.83788E+06 3.34554
3.00000E+06 3.36846
3.02680E+06 3.37444
3.02681E+06 3.37444
3.04569E+06 3.37863
3.05311E+06 3.38027
3.05311E+06 3.38027
3.11966E+06 3.39484
3.12633E+06 3.39629
3.12633E+06 3.39629
3.14341E+06 3.39998
3.23706E+06 3.41995
3.23706E+06 3.41995
3.24724E+06 3.42210
3.25649E+06 3.42404
3.25649E+06 3.42404
3.29112E+06 3.43127
3.29112E+06 3.43127
3.31346E+06 3.43590
3.33683E+06 3.44073
3.33683E+06 3.44073
3.34920E+06 3.44327
3.34920E+06 3.44327
3.35902E+06 3.44528
3.35903E+06 3.44528
3.37421E+06 3.44838
3.37421E+06 3.44838
3.41906E+06 3.45748
3.42299E+06 3.45827
3.46888E+06 3.46747
3.46888E+06 3.46747
3.47919E+06 3.46952
3.47919E+06 3.46952
3.50000E+06 3.47365
3.50677E+06 3.47538
3.50677E+06 3.47538
3.51309E+06 3.47698
3.51967E+06 3.47866
3.51967E+06 3.47866
3.55522E+06 3.48765
3.55522E+06 3.48765
3.59453E+06 3.49752
3.59453E+06 3.49752
3.60296E+06 3.49963
3.60297E+06 3.49963
3.60835E+06 3.50097
3.64360E+06 3.50973
3.65396E+06 3.51229
3.65883E+06 3.51349
3.65883E+06 3.51349
3.66340E+06 3.51462
3.66340E+06 3.51462
3.67783E+06 3.51817
3.68423E+06 3.51975
3.68565E+06 3.52009
4.00000E+06 3.59492
4.01886E+06 3.59875
4.50000E+06 3.69246
5.00000E+06 3.75239
5.50000E+06 3.78102
5.57506E+06 3.78195
5.57507E+06 3.78195
6.00000E+06 3.78710
6.09177E+06 3.78512
6.09177E+06 3.78512
6.21392E+06 3.78254
6.25530E+06 3.78168
6.50000E+06 3.77673
6.55234E+06 3.77426
6.92301E+06 3.75739
7.00000E+06 3.75402
7.00939E+06 3.75339
7.10807E+06 3.74687
7.14652E+06 3.74436
7.40533E+06 3.72783
7.46559E+06 3.72408
7.50000E+06 3.72195
7.61805E+06 3.71248
7.66983E+06 3.70837
7.68929E+06 3.70684
7.70068E+06 3.70594
7.81778E+06 3.69683
7.83473E+06 3.69552
7.94851E+06 3.68683
7.94995E+06 3.68672
8.00000E+06 3.68295
8.01781E+06 3.68132
8.04239E+06 3.67907
8.11166E+06 3.67278
8.11451E+06 3.67252
8.12100E+06 3.67194
8.12670E+06 3.67142
8.15087E+06 3.66925
8.16275E+06 3.66818
8.24656E+06 3.66071
8.29024E+06 3.65686
8.29440E+06 3.65649
8.29484E+06 3.65645
8.29593E+06 3.65635
8.29908E+06 3.65608
8.31419E+06 3.65475
8.33464E+06 3.65296
8.37963E+06 3.64904
8.39557E+06 3.64766
8.39943E+06 3.64732
8.42574E+06 3.64505
8.42940E+06 3.64473
8.45083E+06 3.64288
8.47795E+06 3.64056
8.48933E+06 3.63958
8.50000E+06 3.63867
8.55203E+06 3.63345
8.58713E+06 3.62996
9.00000E+06 3.59009
9.15073E+06 3.57398
9.32068E+06 3.55621
9.42172E+06 3.54585
9.44053E+06 3.54393
9.50000E+06 3.53791
9.52300E+06 3.53528
9.52738E+06 3.53478
9.53543E+06 3.53387
9.54309E+06 3.53300
9.63735E+06 3.52235
9.64521E+06 3.52146
9.73054E+06 3.51195
9.75492E+06 3.50925
9.76914E+06 3.50768
9.78793E+06 3.50561
9.79237E+06 3.50512
1.00000E+07 3.48261
1.00302E+07 3.47883
1.01186E+07 3.46784
1.01240E+07 3.46717
1.01277E+07 3.46672
1.01348E+07 3.46584
1.02434E+07 3.45255
1.02435E+07 3.45254
1.02495E+07 3.45181
1.02740E+07 3.44884
1.02848E+07 3.44754
1.02960E+07 3.44618
1.03126E+07 3.44418
1.03330E+07 3.44173
1.03405E+07 3.44083
1.04233E+07 3.43095
1.04906E+07 3.42301
1.05000E+07 3.42190
1.05357E+07 3.41772
1.06397E+07 3.40564
1.06762E+07 3.40143
1.08003E+07 3.38730
1.08909E+07 3.37712
1.08980E+07 3.37632
1.09291E+07 3.37286
1.09527E+07 3.37024
1.09826E+07 3.36693
1.10000E+07 3.36501
1.10111E+07 3.36357
1.11732E+07 3.34283
1.12416E+07 3.33421
1.12825E+07 3.32909
1.13117E+07 3.32545
1.13376E+07 3.32223
1.14031E+07 3.31415
1.14056E+07 3.31384
1.14318E+07 3.31063
1.14422E+07 3.30935
1.14422E+07 3.30935
1.14841E+07 3.30424
1.15000E+07 3.30231
1.15111E+07 3.30096
1.15488E+07 3.29639
1.16110E+07 3.28890
1.16189E+07 3.28795
1.16319E+07 3.28640
1.16354E+07 3.28598
1.16389E+07 3.28556
1.16604E+07 3.28300
1.16689E+07 3.28198
1.16758E+07 3.28116
1.16818E+07 3.28045
1.16935E+07 3.27906
1.16955E+07 3.27882
1.16990E+07 3.27841
1.17518E+07 3.27216
1.17720E+07 3.26979
1.17745E+07 3.26949
1.17784E+07 3.26904
1.17933E+07 3.26729
1.17941E+07 3.26719
1.17941E+07 3.26719
1.20000E+07 3.24337
1.20490E+07 3.23725
1.20491E+07 3.23724
1.25000E+07 3.18265
1.30000E+07 3.12538
1.35000E+07 3.06983
1.40000E+07 3.01723
1.40537E+07 3.01185
1.45000E+07 2.96828
1.50000E+07 2.92175
1.55000E+07 2.87927
1.55863E+07 2.87214
1.55863E+07 2.87214
1.60000E+07 2.83872
1.65000E+07 2.80188
1.65993E+07 2.79475
1.65993E+07 2.79474
1.70000E+07 2.76659
1.75000E+07 2.73472
1.80000E+07 2.70410
1.85000E+07 2.67655
1.90000E+07 2.65000
1.95000E+07 2.62666
2.00000E+07 2.60410