As-75(n,g) ENDF/B-VII.1
Energy(eV) XS(b)
1.00000E-05 226.261
1.25000E-05 202.374
1.50000E-05 184.741
2.00000E-05 159.991
2.75000E-05 136.440
3.50000E-05 120.942
4.25000E-05 109.753
5.00000E-05 101.187
6.25000E-05 90.5043
7.50000E-05 82.6188
0.000100000 71.5500
0.000125000 63.9963
0.000150000 58.4204
0.000200000 50.5936
0.000275000 43.1464
0.000350000 38.2452
0.000425000 34.7070
0.000500000 31.9983
0.000625000 28.6202
0.000750000 26.1266
0.00100000 22.6264
0.00125000 20.2377
0.00150000 18.4745
0.00200000 15.9995
0.00275000 13.6446
0.00350000 12.0948
0.00425000 10.9759
0.00500000 10.1194
0.00625000 9.05126
0.00750000 8.26278
0.0100000 7.15604
0.0125000 6.40079
0.0150000 5.84331
0.0200000 5.06083
0.0253000 4.49997
0.0314750 4.03484
0.0376500 3.68949
0.0500000 3.20216
0.0625000 2.86462
0.0750000 2.61551
0.100000 2.26594
0.125000 2.02746
0.150000 1.85149
0.200000 1.60463
0.275000 1.36996
0.350000 1.21569
0.500000 1.01941
0.750000 0.835506
1.00000 0.726351
1.50000 0.597723
2.00000 0.521819
2.75000 0.450587
3.50000 0.404614
5.00000 0.347975
7.50000 0.299035
10.0000 0.274639
15.0000 0.259485
20.0000 0.273755
26.7136 0.350241
30.0704 0.436799
33.4272 0.599200
36.7840 0.948074
38.4624 1.29391
40.1408 1.91991
40.9800 2.44377
41.8192 3.23910
42.6584 4.53321
43.4976 6.85390
43.9172 8.77808
44.3368 11.6720
44.7564 16.3184
45.1760 24.4842
45.3858 31.1149
45.5956 40.8814
45.8054 56.1163
46.0152 81.7862
46.1201 101.765
46.2250 130.008
46.3299 171.702
46.4348 236.724
46.5397 345.564
46.5922 429.210
46.6446 545.374
46.6971 711.649
46.7495 957.179
46.8020 1329.11
46.8544 1893.07
46.9272 3026.40
47.0000 3779.48
47.0728 3020.81
47.1456 1886.51
47.1902 1393.44
47.2348 1046.95
47.3240 632.806
47.4132 415.644
47.5024 291.327
47.5916 214.559
47.6808 164.182
47.8592 104.619
48.0376 72.2606
48.2160 52.8133
48.5728 31.6629
48.9296 21.0441
49.2864 14.9800
49.6432 11.1985
50.0000 8.68460
50.6604 5.82452
51.3207 4.17614
51.9811 3.14163
52.6414 2.45079
53.9621 1.61556
55.2828 1.15017
56.6035 0.865322
57.9242 0.678885
60.5656 0.458842
63.2070 0.340218
65.8484 0.270576
71.1312 0.202446
76.4139 0.187922
79.0553 0.200724
81.6967 0.237667
84.3381 0.329749
85.6588 0.425453
86.9795 0.601856
87.6399 0.750671
88.3002 0.977374
88.9606 1.34687
89.6209 2.00916
89.9511 2.55722
90.2813 3.37916
90.6114 4.69290
90.9416 6.98470
91.2718 11.5291
91.4369 15.6915
91.6020 22.5927
91.7671 35.2380
91.8496 45.8862
91.9321 62.0456
92.0147 88.0751
92.0972 133.194
92.1385 168.652
92.1798 218.288
92.2210 288.742
92.2623 388.162
92.3312 620.869
92.4000 775.821
92.4689 620.349
92.5377 387.539
92.5960 256.061
92.6543 175.641
92.7126 125.868
92.7709 93.8134
92.8875 57.2156
93.0041 38.2466
93.1207 27.2770
93.2373 20.4011
93.4705 12.6226
93.7037 8.56926
93.9369 6.19795
94.1701 4.69369
94.4033 3.68073
94.8697 2.44428
95.3361 1.74754
95.8025 1.31682
96.2689 1.03216
97.2016 0.691225
98.1344 0.502573
99.0672 0.387304
100.000 0.311698
101.563 0.232675
103.125 0.185329
106.250 0.133521
109.375 0.106995
112.500 0.0914226
118.750 0.0745110
125.000 0.0658447
150.000 0.0546180
175.000 0.0554560
200.000 0.0647496
213.136 0.0761890
226.271 0.101442
232.839 0.130516
236.123 0.157138
239.407 0.203296
242.690 0.297861
244.332 0.389809
245.974 0.554948
246.795 0.692705
247.616 0.901566
248.437 1.24111
249.258 1.84940
249.669 2.35334
250.079 3.11039
250.490 4.32362
250.900 6.44819
251.311 10.6897
251.516 14.6040
251.721 21.1420
251.926 33.2702
252.029 43.6056
252.132 59.4862
252.234 85.5097
252.337 131.777
252.388 169.053
252.439 222.434
252.491 300.294
252.542 413.456
252.621 661.057
252.700 825.885
252.779 660.803
252.858 413.161
252.922 278.065
252.986 193.619
253.050 140.242
253.113 105.407
253.241 65.0027
253.369 43.7746
253.496 31.3743
253.624 23.5579
253.879 14.6567
254.135 9.99138
254.390 7.25172
254.645 5.50917
254.901 4.33342
255.411 2.89566
255.922 2.08419
256.432 1.58228
256.943 1.25069
257.964 0.854351
258.985 0.636326
261.028 0.419285
263.070 0.321290
265.113 0.271410
269.197 0.231629
277.367 0.241224
285.537 0.316014
293.706 0.490451
297.791 0.660409
301.876 0.958906
305.961 1.56193
308.003 2.13231
309.024 2.55358
310.045 3.12448
311.067 3.92812
312.088 5.11596
313.109 6.98911
313.620 8.36562
314.130 10.2204
314.641 12.8089
315.151 16.5837
315.662 22.4098
316.173 32.1088
316.428 39.5822
316.683 50.0579
316.939 65.3645
317.194 88.9217
317.449 127.649
317.704 196.894
317.832 253.048
317.960 333.874
318.087 452.719
318.215 626.713
318.408 1000.92
318.600 1249.71
318.793 999.936
318.985 625.915
319.212 355.873
319.440 219.344
319.667 146.534
319.894 104.434
320.122 78.3089
320.349 61.1552
320.803 41.0296
321.258 30.4268
321.712 24.5105
322.622 19.8560
323.531 21.5780
323.985 25.3139
324.440 32.4451
324.894 46.1400
325.122 57.6852
325.349 74.9467
325.576 102.001
325.804 146.847
326.031 225.799
326.258 369.066
326.479 587.801
326.700 733.030
326.922 586.186
327.143 366.832
327.393 213.410
327.644 133.645
327.894 90.1421
328.144 64.5442
328.395 48.4111
328.645 37.6628
329.146 24.7308
329.646 17.5601
330.147 13.1752
331.148 8.29559
332.150 5.76718
333.151 4.27801
335.153 2.66571
337.156 1.84510
339.159 1.36524
343.164 0.848421
347.169 0.587402
351.174 0.436384
359.185 0.276988
367.195 0.199491
375.205 0.156960
391.226 0.117535
407.247 0.106424
423.268 0.113223
431.278 0.125549
439.288 0.152919
443.294 0.183470
447.299 0.257763
449.301 0.352286
450.303 0.442978
451.304 0.603758
452.305 0.934584
452.806 1.25187
453.307 1.80682
453.807 2.91419
454.058 3.93581
454.308 5.64390
454.558 8.81393
454.683 11.5209
454.808 15.6821
454.871 18.6496
454.934 22.5192
454.996 27.6750
455.059 34.6975
455.121 44.5423
455.184 58.6770
455.247 79.3562
455.309 109.450
455.357 140.010
455.405 174.820
455.500 218.305
455.548 205.477
455.596 174.778
455.691 109.401
455.773 71.9272
455.855 49.1632
455.938 35.1584
456.020 26.1891
456.184 15.9850
456.348 10.7176
456.513 7.67945
456.677 5.77850
457.006 3.63173
457.334 2.51498
457.663 1.86298
458.320 1.17266
458.977 0.835362
459.635 0.646922
460.949 0.457355
462.264 0.371860
463.578 0.329492
466.207 0.301205
468.836 0.313105
471.465 0.370676
472.780 0.443616
474.094 0.626764
474.751 0.856807
475.080 1.07130
475.409 1.43716
475.737 2.14205
475.902 2.76957
476.066 3.78029
476.230 5.55497
476.394 9.06702
476.477 12.2314
476.559 17.2809
476.641 25.7696
476.682 32.0913
476.723 40.2953
476.767 51.4932
476.812 64.2600
476.900 80.2315
476.989 64.2506
477.077 40.2864
477.140 28.5497
477.202 20.7630
477.265 15.5797
477.327 12.0566
477.452 7.79637
477.577 5.46469
477.703 4.06821
477.828 3.17184
478.078 2.13596
478.328 1.58633
478.578 1.26256
479.078 0.920502
479.579 0.757851
480.079 0.672796
481.080 0.604399
483.081 0.626127
485.083 0.767366
487.084 1.09371
488.085 1.41364
489.085 1.98222
490.086 3.14907
490.586 4.26315
491.087 6.20124
491.587 10.0357
491.837 13.5417
492.087 19.3425
492.338 29.9498
492.463 38.8612
492.588 52.3396
492.713 73.9871
492.838 111.327
492.963 181.216
493.088 319.079
493.194 509.927
493.300 636.969
493.406 509.777
493.512 318.915
493.613 200.449
493.715 132.404
493.816 92.4002
493.918 67.6221
494.019 51.4142
494.120 40.3299
494.323 26.6740
494.526 18.9443
494.729 14.1737
495.134 8.85230
495.540 6.11867
495.945 4.53601
496.756 2.87693
497.567 2.07792
498.378 1.63954
500.000 1.21675
501.994 1.02811
503.989 0.984717
507.978 1.09975
511.966 1.42243
513.961 1.68501
515.955 2.05080
517.949 2.57233
519.944 3.34413
521.938 4.54817
523.933 6.56906
524.930 8.13386
525.927 10.3340
526.924 13.5579
527.921 18.5340
528.919 26.7402
529.916 41.4688
530.414 53.4480
530.913 70.7558
531.412 96.2745
531.910 133.797
532.655 213.841
533.400 266.831
534.145 213.109
534.890 133.084
535.397 95.1887
535.903 69.6125
536.409 52.3690
536.916 40.4959
537.929 25.9738
538.942 17.9274
539.954 13.0663
540.967 9.92579
542.993 6.26892
545.019 4.31075
547.045 3.14500
549.070 2.39649
551.096 1.88797
555.147 1.26187
559.199 0.906255
563.250 0.685486
567.302 0.539387
575.405 0.364927
583.508 0.269840
591.611 0.213749
599.714 0.179520
615.919 0.149085
632.125 0.159939
640.228 0.193961
644.280 0.229623
648.331 0.294537
652.383 0.430684
654.408 0.563576
656.434 0.801140
658.460 1.29322
659.473 1.76718
660.486 2.59926
661.499 4.26795
662.005 5.81561
662.511 8.41785
662.765 10.4396
663.018 13.2903
663.271 17.4860
663.524 24.0015
663.777 34.8395
664.031 54.5444
664.157 70.7794
664.284 94.5232
664.410 130.059
664.537 183.207
664.719 292.837
664.900 365.781
665.082 292.683
665.263 183.050
665.394 128.297
665.526 92.2649
665.657 68.5250
665.789 52.4745
666.051 33.2226
666.314 22.7603
666.577 16.5171
666.840 12.5206
667.365 7.90471
667.891 5.45277
668.416 4.00056
669.467 2.44234
670.518 1.67019
671.569 1.23362
673.671 0.786356
675.773 0.576642
677.875 0.464865
682.079 0.364227
686.283 0.334602
690.487 0.339532
698.896 0.423195
707.304 0.642370
711.508 0.856753
713.610 1.01446
714.661 1.11209
715.712 1.22591
716.763 1.35969
717.814 1.51835
718.865 1.70854
719.916 1.93926
720.967 2.22312
722.018 2.57810
723.069 3.03079
724.120 3.62187
725.171 4.41660
726.222 5.52535
727.273 7.14966
728.324 9.69406
729.375 14.0866
729.901 17.6404
730.426 22.9083
730.952 31.2644
731.477 45.7498
731.740 57.2970
732.003 73.7977
732.265 97.9649
732.528 133.383
732.914 207.519
733.300 258.163
733.686 213.835
734.072 146.817
734.347 115.873
734.622 98.0240
735.172 88.2735
735.722 103.601
736.272 146.025
736.836 220.192
737.400 269.576
737.964 215.300
738.528 135.622
739.059 86.7310
739.590 58.2667
740.121 41.2922
740.652 30.6308
741.714 18.6941
742.776 12.5811
743.837 9.05082
744.899 6.83037
747.023 4.29711
749.147 2.95861
751.271 2.16497
755.518 1.30843
759.766 0.879470
764.013 0.634102
768.261 0.480636
772.508 0.378285
781.003 0.254552
789.498 0.185598
797.993 0.143514
806.488 0.116256
823.478 0.0856152
840.468 0.0730496
857.458 0.0760577
865.953 0.0919695
868.077 0.102820
870.200 0.126934
871.262 0.155709
871.793 0.182442
872.324 0.228709
872.855 0.321262
873.120 0.407754
873.386 0.555074
873.651 0.837706
873.784 1.08777
873.917 1.48766
874.050 2.18276
874.182 3.53307
874.249 4.72656
874.315 6.59268
874.381 9.64693
874.448 14.7012
874.524 23.4606
874.600 29.3008
874.676 23.4592
874.752 14.7000
874.833 8.87792
874.913 5.71185
874.993 3.92800
875.073 2.85535
875.153 2.16978
875.233 1.70852
875.393 1.14977
875.553 0.838744
875.714 0.649024
876.034 0.440268
876.354 0.334743
876.675 0.274729
877.315 0.213878
878.596 0.174148
879.878 0.167816
882.440 0.188086
885.003 0.241981
887.566 0.359644
888.847 0.474541
890.128 0.679222
891.409 1.10117
892.050 1.50594
892.691 2.21373
893.331 3.62511
893.652 4.92628
893.972 7.09999
894.292 11.1309
894.453 14.5676
894.613 19.8449
894.773 28.4987
894.933 43.8764
895.013 56.2742
895.093 74.0334
895.173 99.9451
895.253 137.566
895.377 220.071
895.500 274.999
895.623 219.950
895.747 137.514
895.874 83.3300
896.002 53.5813
896.130 36.6960
896.257 26.4892
896.385 19.9406
896.512 15.5217
896.768 10.1494
897.023 7.15043
897.278 5.31517
897.788 3.28560
898.299 2.25111
898.809 1.65523
899.830 1.03375
900.851 0.736286
901.871 0.574427
903.913 0.422048
905.954 0.368075
907.996 0.360338
912.079 0.436109
914.121 0.525512
916.162 0.670870
918.204 0.913961
920.245 1.35215
921.266 1.71326
922.287 2.25082
923.307 3.09994
924.328 4.55387
924.838 5.70302
925.349 7.35084
925.859 9.82909
926.370 13.7921
926.880 20.6727
927.135 26.1547
927.390 34.0308
927.646 45.8090
927.901 64.2225
928.156 94.2424
928.411 143.819
928.706 229.923
929.000 287.193
929.295 229.600
929.590 143.410
929.865 91.0282
930.140 60.5618
930.415 42.4532
930.690 31.1440
931.240 18.6046
931.790 12.2825
932.341 8.68947
932.891 6.46349
933.991 3.97258
935.091 2.68732
936.191 1.94002
937.291 1.46779
938.391 1.15064
940.592 0.764378
942.792 0.547035
944.992 0.412699
947.193 0.323862
951.593 0.217258
955.994 0.158054
960.394 0.121723
964.795 0.0977852
973.596 0.0691086
982.398 0.0531766
1000.00 0.0369913
1027.44 0.0272155
1054.87 0.0252763
1068.59 0.0275747
1082.31 0.0366366
1089.17 0.0499311
1092.60 0.0633098
1096.03 0.0877553
1097.74 0.108363
1099.46 0.139818
1101.17 0.191311
1102.89 0.284240
1103.74 0.361841
1104.60 0.479019
1105.46 0.668596
1106.32 1.00419
1106.75 1.27917
1107.17 1.68729
1107.60 2.33031
1108.03 3.42548
1108.46 5.52920
1108.67 7.38215
1108.89 10.3328
1109.10 15.4543
1109.21 19.4966
1109.32 25.2713
1109.42 33.8430
1109.53 47.1120
1109.64 68.4658
1109.75 103.208
1109.87 165.369
1110.00 206.365
1110.13 164.822
1110.26 103.176
1110.35 72.3627
1110.44 52.2419
1110.53 38.7960
1110.62 29.7825
1110.80 18.8713
1110.99 12.9489
1111.17 9.38619
1111.35 7.11272
1111.72 4.47338
1112.08 3.06547
1112.45 2.23302
1112.81 1.69961
1113.18 1.33769
1113.91 0.892043
1114.64 0.639353
1115.37 0.482093
1116.10 0.377909
1117.56 0.252561
1119.02 0.182988
1120.48 0.140433
1121.94 0.112538
1124.87 0.0794404
1127.79 0.0613475
1133.63 0.0433984
1139.47 0.0352873
1145.32 0.0311417
1157.00 0.0278175
1180.38 0.0287951
1203.75 0.0358718
1227.13 0.0529428
1238.82 0.0700192
1250.50 0.100701
1256.35 0.126138
1262.19 0.164394
1268.03 0.225902
1273.88 0.334337
1276.80 0.422792
1279.72 0.553735
1282.64 0.759511
1285.56 1.10996
1287.02 1.38590
1288.49 1.78028
1289.95 2.37105
1291.41 3.31112
1292.87 4.93130
1293.60 6.21412
1294.33 8.04237
1295.06 10.7566
1295.79 14.9458
1296.52 21.6714
1297.25 32.5824
1298.13 52.1088
1299.00 65.0890
1299.88 52.0238
1300.75 32.5007
1301.56 20.7131
1302.37 13.8234
1303.18 9.71496
1303.99 7.14154
1305.60 4.28214
1307.22 2.83790
1308.84 2.01664
1310.46 1.50810
1313.69 0.940634
1316.93 0.650299
1320.16 0.484713
1323.40 0.384107
1326.64 0.321972
1333.11 0.271406
1336.34 0.280343
1339.58 0.325059
1342.81 0.446360
1344.43 0.573372
1346.05 0.804260
1347.67 1.28066
1348.48 1.73145
1349.29 2.50302
1349.69 3.11293
1350.09 3.98395
1350.50 5.29421
1350.90 7.37742
1351.11 8.92042
1351.31 10.9837
1351.51 13.8343
1351.71 17.9055
1351.91 23.9458
1352.12 33.2876
1352.32 48.2958
1352.52 72.6335
1352.76 115.547
1353.00 143.889
1353.24 115.502
1353.48 72.5865
1353.65 50.9785
1353.83 36.7778
1354.00 27.3814
1354.17 21.0081
1354.52 13.3233
1354.87 9.14852
1355.21 6.64723
1355.56 5.04842
1356.25 3.19689
1356.95 2.21190
1357.64 1.62759
1359.02 0.998933
1360.41 0.685803
1361.80 0.507449
1364.57 0.322071
1367.34 0.232319
1370.11 0.182112
1375.65 0.131223
1381.20 0.108476
1386.74 0.0984327
1397.83 0.100154
1408.91 0.132272
1414.46 0.170139
1420.00 0.241646
1422.77 0.302279
1425.54 0.394494
1428.31 0.544125
1431.08 0.809739
1432.47 1.02733
1433.86 1.35022
1435.24 1.85870
1436.63 2.72579
1437.32 3.40948
1438.01 4.38731
1438.71 5.85308
1439.40 8.18709
1440.09 12.2128
1440.44 15.4053
1440.79 19.9510
1441.13 26.7155
1441.48 37.1516
1441.82 53.9277
1442.17 81.2040
1442.59 130.264
1443.00 163.085
1443.42 130.177
1443.83 81.1187
1444.11 58.3738
1444.38 42.9136
1444.93 25.1812
1445.49 16.2323
1446.04 11.2501
1446.59 8.22100
1447.14 6.26106
1448.24 3.96846
1449.35 2.73666
1450.45 2.00155
1452.65 1.20730
1454.86 0.810713
1457.07 0.585429
1459.27 0.445959
1461.48 0.354501
1465.89 0.250051
1470.30 0.211476
1472.51 0.223479
1473.61 0.247499
1474.71 0.298938
1475.81 0.416154
1476.37 0.533672
1476.92 0.743649
1477.47 1.17254
1477.74 1.57542
1478.02 2.25720
1478.30 3.55646
1478.43 4.69256
1478.57 6.46772
1478.71 9.50100
1478.85 15.1946
1478.92 20.0400
1478.98 27.3499
1479.05 38.7236
1479.12 56.1801
1479.17 71.9767
1479.21 90.0235
1479.30 112.249
1479.39 89.6153
1479.48 56.1709
1479.58 32.9656
1479.68 20.7287
1479.78 13.9920
1479.87 10.0371
1479.97 7.50671
1480.07 5.83284
1480.27 3.80461
1480.47 2.68243
1480.66 1.99943
1481.06 1.24719
1481.45 0.864414
1481.84 0.643461
1482.63 0.410919
1483.42 0.296715
1484.21 0.231910
1485.79 0.163705
1487.36 0.129389
1488.94 0.109028
1492.09 0.0858417
1498.40 0.0639961
1504.70 0.0529205
1517.31 0.0415060
1529.92 0.0361717
1555.14 0.0336586
1580.36 0.0387705
1605.58 0.0552744
1618.19 0.0728756
1630.80 0.105297
1637.11 0.132532
1643.41 0.173824
1649.72 0.240688
1656.02 0.359439
1659.17 0.456831
1662.33 0.601560
1665.48 0.830178
1668.63 1.22197
1670.21 1.53235
1671.78 1.97801
1673.36 2.65004
1674.94 3.72912
1676.51 5.61498
1677.30 7.12596
1678.09 9.30965
1678.88 12.6009
1679.66 17.8010
1680.45 26.4004
1681.24 40.8603
1682.12 65.3687
1683.00 81.6741
1683.88 65.2849
1684.76 40.7790
1685.61 25.5543
1686.45 16.8365
1687.30 11.7226
1688.14 8.55738
1688.99 6.49164
1689.83 5.07995
1691.52 3.34139
1693.21 2.35855
1694.90 1.75192
1698.28 1.07569
1701.66 0.728047
1705.04 0.526587
1708.42 0.399743
1711.80 0.314947
1718.56 0.212762
1725.32 0.157821
1732.08 0.135632
1733.77 0.141846
1735.46 0.171000
1736.30 0.214979
1736.73 0.258694
1737.15 0.336127
1737.57 0.492412
1737.78 0.636814
1737.99 0.878357
1738.20 1.32614
1738.31 1.70977
1738.41 2.29298
1738.52 3.25640
1738.63 4.94795
1738.73 8.28021
1738.78 11.1358
1738.84 15.1828
1738.92 24.2057
1739.00 30.2086
1739.08 24.2040
1739.16 15.1804
1739.23 10.2706
1739.30 7.18835
1739.36 5.23899
1739.43 3.96268
1739.56 2.48124
1739.69 1.70550
1739.82 1.24791
1739.95 0.960853
1740.22 0.631764
1740.48 0.458697
1740.74 0.356687
1741.27 0.247327
1741.80 0.192779
1742.32 0.161465
1743.37 0.128214
1745.48 0.101177
1747.58 0.0893819
1756.00 0.0713897
1764.42 0.0656986
1772.83 0.0671387
1781.25 0.0794576
1785.46 0.0942772
1789.67 0.122612
1793.88 0.183815
1795.98 0.244169
1798.08 0.352186
1799.14 0.441333
1800.19 0.574623
1801.24 0.786705
1802.29 1.15418
1803.34 1.87475
1803.87 2.52673
1804.40 3.59335
1804.92 5.50812
1805.18 7.08669
1805.45 9.43167
1805.71 13.0987
1805.97 19.1936
1806.24 30.0037
1806.37 38.4943
1806.50 49.8664
1806.75 79.8355
1807.00 99.7030
1807.25 79.6836
1807.50 49.8421
1807.80 28.1934
1808.09 17.3005
1808.39 11.4709
1808.69 8.10688
1808.98 6.00552
1809.28 4.62314
1809.87 2.97757
1810.47 2.07632
1811.06 1.53248
1812.24 0.938985
1813.43 0.639501
1814.61 0.468161
1816.99 0.289880
1819.36 0.204301
1821.73 0.157173
1826.47 0.111136
1831.21 0.0927974
1835.95 0.0896056
1838.32 0.0957036
1840.69 0.117675
1841.88 0.148609
1842.47 0.178908
1843.06 0.232662
1843.66 0.342475
1843.95 0.445980
1844.25 0.623330
1844.55 0.966809
1844.69 1.27138
1844.84 1.76024
1844.99 2.61331
1845.14 4.28331
1845.21 5.76891
1845.29 8.11265
1845.36 11.9807
1845.43 18.4683
1845.52 29.4985
1845.60 36.8496
1845.68 29.4972
1845.77 18.4668
1845.82 13.2674
1845.88 9.79628
1845.99 5.76816
1846.10 3.74206
1846.21 2.62095
1846.32 1.93361
1846.43 1.49184
1846.65 0.972521
1846.87 0.692419
1847.09 0.526156
1847.54 0.346420
1847.98 0.256603
1848.42 0.205751
1849.31 0.153449
1851.08 0.115872
1852.85 0.104200
1859.93 0.107041
1867.00 0.135568
1874.08 0.193130
1877.62 0.241981
1881.16 0.315771
1884.70 0.434018
1888.24 0.640035
1890.01 0.805582
1891.78 1.04664
1893.55 1.41665
1895.32 2.02502
1896.21 2.48756
1897.09 3.12682
1897.98 4.04299
1898.86 5.41555
1899.75 7.58687
1900.63 11.2548
1901.52 17.9120
1901.96 23.2205
1902.40 30.4959
1903.20 48.6989
1904.00 60.7782
1904.80 48.6480
1905.60 30.4462
1906.34 19.4404
1907.08 12.9947
1907.81 9.13646
1908.55 6.71901
1910.03 4.02619
1911.50 2.66359
1912.98 1.88744
1914.45 1.40589
1917.40 0.866260
1920.35 0.587503
1923.30 0.425283
1926.25 0.322727
1929.20 0.253820
1935.10 0.169875
1941.00 0.122643
1946.90 0.0934739
1952.80 0.0742255
1964.60 0.0513096
1976.40 0.0389766
1988.20 0.0321815
2000.00 0.0296318
2005.23 0.0305880
2010.47 0.0353592
2013.08 0.0423139
2014.39 0.0491588
2015.70 0.0614253
2017.01 0.0869819
2017.66 0.111776
2018.32 0.155785
2018.97 0.245747
2019.30 0.331051
2019.63 0.478113
2019.95 0.764423
2020.12 1.02254
2020.28 1.43895
2020.44 2.18265
2020.53 2.78961
2020.61 3.66896
2020.69 5.03803
2020.77 7.26823
2020.85 11.1127
2020.93 17.8108
2021.02 28.5965
2021.10 35.6929
2021.18 28.4583
2021.27 17.8095
2021.32 12.9444
2021.38 9.59761
2021.48 5.72444
2021.59 3.73576
2021.70 2.61245
2021.80 1.91981
2021.91 1.47306
2022.13 0.947636
2022.34 0.662561
2022.55 0.492724
2022.98 0.308468
2023.41 0.216074
2023.84 0.163552
2024.70 0.109555
2025.56 0.0841342
2026.41 0.0706206
2028.13 0.0586233
2031.56 0.0567993
2034.98 0.0700416
2038.41 0.105237
2040.13 0.141439
2041.84 0.207347
2042.70 0.262467
2043.56 0.345603
2044.41 0.479494
2045.27 0.715375
2045.70 0.907448
2046.13 1.19071
2046.56 1.63312
2046.99 2.37711
2047.42 3.77824
2047.63 4.98666
2047.84 6.86903
2048.06 10.0334
2048.27 15.8079
2048.38 20.6002
2048.49 27.6578
2048.59 38.3129
2048.70 54.4073
2048.85 87.0389
2049.00 108.787
2049.15 87.0257
2049.30 54.3939
2049.44 34.7428
2049.58 23.2838
2049.71 16.4102
2049.85 12.0852
2050.12 7.24543
2050.40 4.80085
2050.67 3.40127
2050.95 2.53534
2051.50 1.56194
2052.05 1.05872
2052.59 0.765725
2053.14 0.580442
2053.69 0.455927
2054.79 0.304221
2055.89 0.218839
2056.99 0.166069
2058.08 0.131180
2060.28 0.0893346
2062.48 0.0661082
2066.87 0.0424641
2071.26 0.0311822
2075.65 0.0248638
2084.44 0.0182806
2102.00 0.0130543
2119.57 0.0109029
2154.70 0.00934114
2172.27 0.0102323
2176.66 0.0114996
2181.05 0.0151951
2183.25 0.0203185
2185.45 0.0345727
2186.54 0.0538141
2187.64 0.105725
2188.19 0.173219
2188.47 0.236890
2188.74 0.345245
2189.02 0.553834
2189.15 0.737474
2189.29 1.03003
2189.43 1.53492
2189.56 2.50610
2189.63 3.36166
2189.70 4.66654
2189.77 6.79751
2189.84 10.2104
2189.92 16.3423
2190.00 20.3518
2190.08 16.2621
2190.16 10.2096
2190.25 6.27529
2190.33 4.09591
2190.41 2.82238
2190.49 2.05326
2190.57 1.54938
2190.65 1.21149
2190.82 0.795087
2190.98 0.561212
2191.14 0.417472
2191.47 0.258149
2191.79 0.176203
2192.12 0.128899
2192.77 0.0790357
2194.07 0.0410964
2195.37 0.0271771
2197.98 0.0169381
2200.58 0.0133027
2205.79 0.0107830
2211.00 0.0101235
2221.42 0.0115542
2226.63 0.0187342
2227.93 0.0258440
2229.24 0.0450934
2229.89 0.0703637
2230.54 0.135896
2230.86 0.217164
2231.19 0.409105
2231.35 0.621888
2231.51 1.05395
2231.60 1.45674
2231.68 2.11056
2231.76 3.24739
2231.84 5.28243
2231.92 8.45779
2232.00 10.5362
2232.08 8.41633
2232.16 5.28282
2232.25 3.03491
2232.35 1.88908
2232.44 1.26187
2232.53 0.899073
2232.72 0.518241
2232.90 0.336720
2233.27 0.176713
2233.64 0.110637
2234.38 0.0580960
2235.12 0.0381661
2236.60 0.0233301
2238.08 0.0181750
2244.00 0.0157091
2246.96 0.0191598
2249.92 0.0301959
2251.40 0.0455188
2252.88 0.0875365
2253.62 0.143228
2253.99 0.196513
2254.36 0.289215
2254.73 0.472168
2254.91 0.638848
2255.10 0.913553
2255.28 1.41216
2255.37 1.83061
2255.47 2.45239
2255.56 3.45072
2255.65 5.12710
2255.74 8.18064
2255.84 13.9896
2255.92 22.3922
2256.00 27.8877
2256.08 22.2836
2256.17 13.9886
2256.23 9.68309
2256.29 6.89253
2256.35 5.07875
2256.41 3.86570
2256.54 2.42700
2256.66 1.65820
2256.78 1.19839
2256.91 0.905567
2257.16 0.570187
2257.40 0.391986
2257.65 0.287124
2258.15 0.174502
2258.64 0.118715
2259.14 0.0871154
2260.12 0.0545657
2262.10 0.0304528
2264.08 0.0219378
2268.04 0.0163817
2272.00 0.0156866
2275.96 0.0179964
2277.94 0.0210037
2279.92 0.0268002
2281.89 0.0393954
2283.87 0.0744996
2284.86 0.121717
2285.36 0.167452
2285.85 0.247888
2286.35 0.410254
2286.60 0.561978
2286.84 0.817321
2287.09 1.30094
2287.21 1.72118
2287.34 2.37299
2287.46 3.47746
2287.58 5.49940
2287.65 7.20432
2287.71 9.73945
2287.77 13.6126
2287.83 19.4250
2287.92 31.2007
2288.00 38.9496
2288.09 31.0514
2288.17 19.4234
2288.25 12.1080
2288.33 7.98640
2288.41 5.54399
2288.50 4.05357
2288.58 3.06968
2288.66 2.40612
2288.82 1.58356
2288.98 1.11886
2289.15 0.832129
2289.47 0.513134
2289.80 0.348493
2290.12 0.253241
2290.77 0.152633
2291.43 0.103519
2292.08 0.0759459
2293.38 0.0477354
2294.68 0.0343501
2295.98 0.0269839
2298.59 0.0196270
2301.19 0.0162812
2303.80 0.0145725
2309.00 0.0132855
2314.21 0.0135731
2319.42 0.0159307
2322.03 0.0193443
2324.63 0.0287157
2325.93 0.0412785
2327.23 0.0752432
2327.88 0.119776
2328.54 0.235102
2328.86 0.377891
2329.02 0.506540
2329.19 0.714385
2329.35 1.08644
2329.43 1.39301
2329.51 1.83933
2329.59 2.53864
2329.68 3.66935
2329.76 5.62480
2329.84 9.10133
2329.92 14.5770
2330.00 18.1627
2330.08 14.5054
2330.16 9.10073
2330.23 6.05740
2330.30 4.18012
2330.37 3.01029
2330.43 2.26206
2330.57 1.38841
2330.71 0.936262
2330.84 0.671726
2330.98 0.506694
2331.25 0.319130
2331.79 0.163037
2332.33 0.101868
2333.41 0.0548708
2334.49 0.0376433
2336.66 0.0253428
2338.82 0.0215482
2343.16 0.0207740
2347.49 0.0243323
2351.82 0.0338420
2353.98 0.0436136
2356.15 0.0614973
2357.23 0.0765555
2358.31 0.0994726
2359.39 0.136917
2360.48 0.204203
2361.02 0.260215
2361.56 0.344421
2362.10 0.479735
2362.64 0.717630
2362.91 0.911191
2363.18 1.19636
2363.45 1.64115
2363.72 2.38651
2364.00 3.78765
2364.13 4.99048
2364.27 6.85703
2364.40 9.98899
2364.54 15.6478
2364.60 20.3482
2364.67 27.1161
2364.74 37.3905
2364.81 52.5127
2364.86 67.3591
2364.90 83.9598
2365.00 104.901
2365.10 83.9553
2365.19 52.5077
2365.31 29.5710
2365.43 18.0569
2365.54 11.9438
2365.66 8.41466
2365.77 6.22247
2365.89 4.77762
2366.12 3.06694
2366.35 2.12819
2366.58 1.56427
2367.05 0.946817
2367.51 0.635467
2367.97 0.457066
2368.44 0.345507
2368.90 0.271166
2369.83 0.181339
2370.75 0.131361
2371.68 0.100737
2372.60 0.0806648
2374.46 0.0569311
2376.31 0.0441619
2380.01 0.0323412
2383.72 0.0291422
2387.42 0.0337496
2389.28 0.0432178
2391.13 0.0710457
2392.06 0.108823
2392.52 0.145355
2392.98 0.209618
2393.45 0.338627
2393.68 0.458674
2393.91 0.659696
2394.14 1.03782
2394.26 1.36395
2394.37 1.86562
2394.49 2.70683
2394.60 4.23872
2394.66 5.50270
2394.72 7.35352
2394.78 10.1269
2394.83 14.1923
2394.92 22.6922
2395.00 28.3572
2395.08 22.6915
2395.17 14.1915
2395.23 9.95314
2395.29 7.16291
2395.35 5.32386
2395.41 4.08006
2395.53 2.58763
2395.65 1.77603
2395.77 1.29183
2395.89 0.981714
2396.13 0.624676
2396.37 0.434060
2396.60 0.321663
2397.08 0.200986
2397.56 0.141672
2398.04 0.108803
2399.00 0.0779515
2399.96 0.0706711
2400.92 0.0873442
2401.39 0.117675
2401.87 0.198860
2402.11 0.296702
2402.35 0.513217
2402.47 0.734748
2402.59 1.14070
2402.71 1.97357
2402.77 2.72170
2402.83 3.82734
2402.92 6.12566
2403.00 7.63571
2403.09 6.09643
2403.17 3.82652
2403.24 2.61621
2403.30 1.85613
2403.43 1.04223
2403.56 0.659731
2403.69 0.455348
2403.95 0.257514
2404.21 0.169594
2404.73 0.0952055
2405.25 0.0652635
2406.30 0.0413936
2407.34 0.0320068
2411.50 0.0213544
2419.84 0.0182145
2436.50 0.0199163
2453.17 0.0270055
2457.34 0.0309610
2461.50 0.0386190
2463.59 0.0469799
2465.67 0.0674251
2466.71 0.0934630
2467.75 0.161673
2468.27 0.249125
2468.53 0.331028
2468.79 0.469515
2469.06 0.733913
2469.19 0.964696
2469.32 1.32920
2469.45 1.95058
2469.58 3.12343
2469.64 4.12758
2469.71 5.65189
2469.77 8.04333
2469.84 11.8191
2469.92 18.9360
2470.00 23.6054
2470.08 18.8441
2470.17 11.8187
2470.24 7.43080
2470.32 4.93754
2470.40 3.46387
2470.48 2.54652
2470.63 1.53300
2470.79 1.02357
2470.95 0.734633
2471.10 0.555909
2471.41 0.356302
2471.73 0.253398
2472.04 0.194036
2472.66 0.131830
2473.91 0.0856145
2475.16 0.0700741
2477.66 0.0621586
2480.16 0.0639106
2485.15 0.0792495
2490.15 0.111362
2492.65 0.138536
2495.14 0.179569
2497.64 0.245555
2500.14 0.361549
2502.64 0.594689
2503.89 0.811424
2505.14 1.17678
2505.76 1.46151
2506.38 1.86347
2507.01 2.45800
2507.63 3.38390
2508.26 4.93667
2508.57 6.12840
2508.88 7.78313
2509.19 10.1512
2509.51 13.6472
2509.82 18.9424
2510.13 26.9744
2510.57 43.2415
2511.00 54.1192
2511.44 43.2242
2511.87 26.9576
2512.38 15.3483
2512.89 9.44844
2513.39 6.28601
2513.90 4.45107
2514.41 3.30323
2514.92 2.54547
2515.93 1.64127
2516.95 1.14617
2517.96 0.847043
2519.99 0.520183
2522.02 0.355408
2524.05 0.261289
2528.11 0.163941
2532.17 0.117910
2536.23 0.0933035
2544.35 0.0713869
2552.47 0.0659586
2560.59 0.0702260
2568.72 0.0881008
2570.75 0.0993129
2572.78 0.123498
2573.79 0.152023
2574.81 0.223909
2575.31 0.314428
2575.57 0.398426
2575.82 0.539659
2576.07 0.807647
2576.20 1.04139
2576.33 1.40940
2576.46 2.03407
2576.58 3.20550
2576.65 4.21119
2576.71 5.70354
2576.77 8.01557
2576.84 11.6126
2576.92 18.5585
2577.00 23.1124
2577.08 18.4693
2577.17 11.6131
2577.24 7.53483
2577.31 5.13589
2577.39 3.66130
2577.46 2.73924
2577.61 1.69399
2577.75 1.16294
2577.90 0.856264
2578.05 0.666570
2578.34 0.452627
2578.63 0.342249
2578.92 0.278405
2579.51 0.212109
2580.68 0.165106
2581.85 0.152111
2586.54 0.167312
2591.23 0.220367
2595.92 0.320158
2598.26 0.402717
2600.61 0.525655
2602.95 0.719839
2605.29 1.05249
2606.47 1.31557
2607.64 1.69311
2608.81 2.26161
2609.98 3.17256
2611.15 4.75826
2611.74 6.02519
2612.33 7.85030
2612.91 10.5892
2613.50 14.8911
2614.08 21.9470
2614.67 33.6863
2615.34 53.7530
2616.00 67.0641
2616.67 53.5596
2617.34 33.4036
2617.80 23.8364
2618.26 17.4017
2618.71 13.0773
2619.17 10.1115
2620.09 6.48638
2621.00 4.48108
2621.92 3.26995
2622.83 2.48902
2624.66 1.58015
2626.49 1.09358
2628.32 0.804291
2631.98 0.492767
2635.65 0.338276
2639.31 0.251233
2646.63 0.163501
2653.95 0.124901
2661.27 0.108093
2668.59 0.106438
2672.26 0.122256
2673.17 0.138067
2674.09 0.180925
2674.54 0.237828
2675.00 0.388204
2675.23 0.580221
2675.34 0.759012
2675.46 1.05643
2675.57 1.61672
2675.63 2.09390
2675.69 2.83109
2675.74 4.04854
2675.80 6.23858
2675.86 10.6106
2675.89 14.5196
2675.92 20.2625
2675.94 25.9728
2675.96 32.4029
2676.00 40.4198
2676.04 32.4024
2676.08 20.2620
2676.11 14.6842
2676.14 10.9455
2676.19 6.56377
2676.25 4.28045
2676.30 3.01904
2676.36 2.23412
2676.41 1.73255
2676.52 1.13752
2676.63 0.816621
2676.74 0.624654
2676.96 0.417381
2677.39 0.253766
2677.83 0.192566
2678.70 0.147436
2679.57 0.131984
2683.05 0.122262
2690.02 0.140628
2696.98 0.180201
2703.95 0.254409
2707.43 0.316029
2710.91 0.407765
2714.40 0.552240
2716.14 0.657660
2717.88 0.798198
2719.62 0.991424
2721.36 1.26664
2723.10 1.67742
2724.85 2.32673
2726.59 3.43632
2727.46 4.30621
2728.33 5.53524
2729.20 7.33837
2730.07 10.0797
2730.94 14.4002
2731.81 21.2405
2732.91 33.9582
2734.00 42.4196
2735.10 33.9253
2736.19 21.2093
2737.11 14.0944
2738.02 9.71919
2738.94 6.99376
2739.85 5.23345
2741.68 3.21485
2743.51 2.16605
2745.35 1.56106
2747.18 1.18949
2749.01 0.985559
2749.92 1.05344
2750.15 1.16986
2750.38 1.45386
2750.50 1.75532
2750.61 2.30998
2750.72 3.45131
2750.78 4.47488
2750.84 6.01522
2750.92 9.17850
2751.00 11.2869
2751.08 9.16541
2751.16 5.98923
2751.22 4.41783
2751.28 3.39268
2751.39 2.23425
2751.51 1.66434
2751.62 1.35115
2751.85 1.03199
2752.08 0.879889
2753.00 0.660684
2754.83 0.519844
2758.50 0.383829
2762.17 0.314153
2764.01 0.323994
2764.46 0.353563
2764.92 0.436820
2765.15 0.539575
2765.38 0.769357
2765.50 1.00588
2765.61 1.43584
2765.73 2.32632
2765.78 3.11956
2765.84 4.31364
2765.92 6.76322
2766.00 8.36710
2766.08 6.72901
2766.16 4.30982
2766.21 3.18363
2766.27 2.41266
2766.37 1.52607
2766.48 1.07356
2766.58 0.818704
2766.79 0.561007
2767.00 0.440760
2767.42 0.334713
2767.84 0.289605
2769.52 0.231124
2772.89 0.198061
2779.61 0.174997
2786.34 0.178437
2793.06 0.211256
2799.79 0.299429
2803.15 0.388546
2806.51 0.544199
2809.87 0.845880
2811.56 1.11287
2813.24 1.53810
2814.92 2.27040
2815.76 2.84917
2816.60 3.67250
2817.44 4.89110
2818.28 6.76476
2819.12 9.76142
2819.96 14.5877
2820.98 23.3121
2822.00 29.1178
2823.02 23.2907
2824.04 14.5660
2825.03 9.10627
2826.02 5.99615
2827.00 4.17744
2827.99 3.05444
2828.98 2.32296
2829.96 1.82406
2831.94 1.21218
2833.91 0.871572
2835.89 0.677049
2837.86 0.635154
2838.35 0.700867
2838.85 0.909820
2839.09 1.17658
2839.34 1.78762
2839.47 2.42680
2839.59 3.60903
2839.65 4.61392
2839.71 6.08840
2839.77 8.38721
2839.83 11.8632
2839.92 18.7547
2840.00 23.3549
2840.08 18.7474
2840.17 11.8490
2840.23 8.27686
2840.29 6.00540
2840.35 4.52642
2840.42 3.53512
2840.54 2.34871
2840.66 1.71401
2840.79 1.33319
2840.91 1.09095
2841.16 0.808449
2841.66 0.560525
2842.16 0.453461
2843.15 0.354835
2844.15 0.304570
2848.12 0.208101
2852.10 0.158694
2856.08 0.126955
2864.04 0.0889271
2871.99 0.0677785
2879.95 0.0553013
2887.90 0.0491462
2891.88 0.0496169
2895.86 0.0575007
2897.85 0.0708505
2898.84 0.0846243
2899.84 0.109824
2900.83 0.162875
2901.33 0.214237
2901.83 0.304574
2902.32 0.486161
2902.57 0.654506
2902.82 0.935691
2903.07 1.46198
2903.19 1.91137
2903.32 2.60508
2903.44 3.76136
2903.57 5.82644
2903.63 7.50801
2903.69 9.94043
2903.75 13.5325
2903.82 18.8275
2903.86 24.2004
2903.91 30.2137
2904.00 37.7142
2904.09 30.0818
2904.19 18.8260
2904.25 13.1182
2904.32 9.39282
2904.39 6.95522
2904.46 5.33584
2904.59 3.38073
2904.73 2.32014
2904.86 1.68462
2905.00 1.28153
2905.27 0.816080
2905.54 0.568054
2905.81 0.421716
2906.35 0.264395
2906.89 0.186040
2907.43 0.141529
2908.51 0.0954493
2909.59 0.0732240
2910.67 0.0608234
2912.84 0.0481706
2917.16 0.0392313
2921.49 0.0375935
2925.81 0.0410571
2927.98 0.0460972
2930.14 0.0561166
2932.30 0.0781815
2933.38 0.100141
2934.46 0.139625
2935.55 0.221633
2936.09 0.300512
2936.63 0.438254
2937.17 0.713267
2937.44 0.966150
2937.71 1.38790
2937.98 2.17165
2938.11 2.83646
2938.25 3.85558
2938.38 5.52010
2938.52 8.46511
2938.65 14.1921
2938.72 19.1177
2938.79 26.1259
2938.84 33.4505
2938.90 41.8086
2939.00 52.1102
2939.11 41.6497
2939.21 26.1249
2939.30 17.3930
2939.39 12.0044
2939.48 8.64549
2939.56 6.47077
2939.74 3.97494
2939.92 2.67516
2940.09 1.92147
2940.27 1.44840
2940.62 0.914343
2940.97 0.636300
2941.32 0.476093
2942.02 0.314307
2942.73 0.255861
2943.43 0.280242
2943.78 0.354895
2944.13 0.559933
2944.31 0.799627
2944.49 1.30168
2944.57 1.77776
2944.66 2.57862
2944.75 4.02064
2944.84 6.67734
2944.92 10.6588
2945.00 13.2713
2945.08 10.6032
2945.16 6.66990
2945.23 4.58827
2945.29 3.27497
2945.35 2.42572
2945.41 1.85963
2945.54 1.18612
2945.66 0.828050
2945.91 0.478852
2946.16 0.322008
2946.66 0.186771
2947.15 0.130713
2948.15 0.0835437
2949.14 0.0633598
2951.13 0.0452214
2953.12 0.0368302
2957.10 0.0288938
2961.08 0.0251410
2977.00 0.0200461
2992.92 0.0194596
3000.88 0.0220600
3004.86 0.0323819
3005.85 0.0425419
3006.85 0.0697596
3007.35 0.104928
3007.84 0.193408
3008.09 0.299201
3008.34 0.535870
3008.47 0.783643
3008.59 1.24464
3008.71 2.22485
3008.78 3.13886
3008.84 4.56415
3008.92 7.29958
3009.00 9.12654
3009.08 7.29938
3009.16 4.56392
3009.23 2.96201
3009.31 2.00660
3009.38 1.42738
3009.45 1.06007
3009.59 0.646952
3009.74 0.435820
3010.03 0.239383
3010.31 0.154738
3010.89 0.0850280
3011.46 0.0578293
3012.61 0.0370182
3013.76 0.0293696
3018.36 0.0219479
3027.56 0.0209564
3045.97 0.0246261
3055.17 0.0288877
3064.37 0.0379034
3068.97 0.0480785
3071.27 0.0573295
3073.57 0.0732909
3075.87 0.105765
3077.02 0.137045
3078.17 0.192598
3079.32 0.306952
3079.90 0.416519
3080.47 0.607872
3081.05 0.988414
3081.33 1.33901
3081.62 1.92068
3081.91 2.99720
3082.05 3.91067
3082.20 5.29549
3082.34 7.56076
3082.41 9.25357
3082.48 11.5446
3082.56 14.7192
3082.63 19.2190
3082.70 25.7000
3082.77 34.8342
3082.83 44.6562
3082.89 55.6749
3083.00 69.5526
3083.06 65.4038
3083.12 55.6720
3083.23 34.8312
3083.35 21.0340
3083.47 13.4917
3083.59 9.22567
3083.71 6.65336
3083.83 5.00596
3083.95 3.89581
3084.19 2.55193
3084.43 1.79874
3084.67 1.33984
3085.15 0.830994
3085.63 0.571105
3086.11 0.421629
3087.06 0.265237
3088.02 0.189715
3088.98 0.148008
3090.90 0.106708
3092.82 0.0887186
3094.73 0.0803699
3098.57 0.0762167
3106.23 0.0895463
3113.90 0.125547
3117.73 0.157059
3121.57 0.205067
3125.40 0.282572
3129.24 0.418903
3133.07 0.692099
3134.99 0.944909
3136.90 1.36868
3137.86 1.69690
3138.82 2.15794
3139.78 2.83443
3140.74 3.87788
3141.70 5.60151
3142.65 8.69423
3143.13 11.2108
3143.61 14.8484
3144.09 20.2148
3144.57 28.1135
3145.29 44.9675
3146.00 56.1910
3146.72 44.9430
3147.43 28.0896
3148.06 18.3071
3148.68 12.4261
3149.31 8.83813
3149.94 6.55520
3151.19 3.97273
3152.44 2.64704
3153.70 1.88505
3154.95 1.40939
3157.46 0.873372
3159.96 0.595143
3162.47 0.432846
3164.97 0.330176
3167.48 0.261255
3172.49 0.177667
3177.50 0.131332
3182.52 0.103622
3187.53 0.0865568
3197.55 0.0719257
3202.57 0.0731796
3207.58 0.0830842
3212.59 0.111528
3215.10 0.142069
3217.60 0.198833
3218.86 0.246769
3220.11 0.319642
3221.36 0.437840
3222.61 0.647823
3223.24 0.820023
3223.87 1.07522
3224.49 1.47788
3225.12 2.16427
3225.75 3.48159
3226.06 4.64238
3226.37 6.49057
3226.69 9.69128
3226.84 12.2288
3227.00 15.8291
3227.16 21.2056
3227.31 29.4693
3227.47 42.8442
3227.63 64.4432
3227.81 103.136
3228.00 128.946
3228.19 103.126
3228.37 64.4320
3228.57 38.9708
3228.76 25.0731
3228.95 17.1755
3229.15 12.3969
3229.34 9.31566
3229.53 7.24780
3229.92 4.73113
3230.31 3.32181
3230.69 2.46115
3231.47 1.50690
3232.24 1.01952
3233.01 0.737902
3233.79 0.560723
3234.56 0.442209
3236.10 0.298087
3237.65 0.217207
3239.20 0.167285
3240.74 0.134307
3243.83 0.0946932
3246.92 0.0726687
3253.11 0.0502139
3259.29 0.0396697
3265.47 0.0344525
3271.66 0.0350763
3274.75 0.0499184
3275.52 0.0653481
3276.29 0.106477
3276.68 0.158671
3277.07 0.285689
3277.26 0.430859
3277.45 0.738371
3277.55 1.03852
3277.65 1.55258
3277.74 2.53037
3277.84 4.45490
3277.92 7.11510
3278.00 8.88998
3278.08 7.11487
3278.16 4.45458
3278.22 3.12123
3278.28 2.25869
3278.40 1.30106
3278.51 0.832060
3278.63 0.578827
3278.86 0.329207
3279.09 0.216810
3279.56 0.121014
3280.02 0.0827027
3280.96 0.0526741
3281.89 0.0413151
3285.61 0.0293018
3293.05 0.0257566
3300.50 0.0271602
3302.36 0.0295740
3304.22 0.0366572
3305.15 0.0465184
3306.08 0.0740446
3306.55 0.111506
3307.01 0.213272
3307.24 0.347424
3307.48 0.693392
3307.59 1.12499
3307.71 2.13746
3307.77 3.25112
3307.83 5.49590
3307.85 7.55706
3307.88 10.9195
3307.91 16.7327
3307.93 21.3561
3307.94 27.4130
3307.97 43.9367
3308.00 54.8020
3308.02 51.4007
3308.03 43.9362
3308.06 27.4124
3308.09 16.9988
3308.12 11.0697
3308.15 7.64646
3308.17 5.60987
3308.23 3.33051
3308.29 2.19425
3308.40 1.15736
3308.52 0.716592
3308.74 0.358698
3308.97 0.220271
3309.43 0.114797
3309.88 0.0759837
3310.80 0.0473426
3311.71 0.0370916
3313.53 0.0296820
3315.36 0.0271084
3322.66 0.0250052
3337.25 0.0262282
3366.45 0.0345428
3381.05 0.0428354
3395.64 0.0568640
3410.24 0.0835915
3417.54 0.108989
3421.19 0.134874
3423.01 0.180409
3423.47 0.216486
3423.93 0.302618
3424.15 0.402150
3424.38 0.619911
3424.50 0.840182
3424.61 1.24147
3424.72 2.05953
3424.78 2.79077
3424.84 3.89041
3424.92 6.15045
3425.00 7.66166
3425.08 6.15136
3425.16 3.89234
3425.23 2.64241
3425.30 1.87913
3425.43 1.08702
3425.56 0.724202
3425.69 0.536109
3425.96 0.357736
3426.22 0.280679
3426.75 0.218768
3427.28 0.196899
3429.40 0.187665
3433.63 0.229147
3437.86 0.304152
3442.09 0.433840
3446.32 0.685406
3448.44 0.911443
3450.56 1.28004
3452.67 1.94088
3453.73 2.48601
3454.79 3.29711
3455.85 4.56922
3456.90 6.69373
3457.96 10.4898
3459.02 17.5349
3460.01 27.9998
3461.00 34.9677
3461.99 27.9873
3462.98 17.5301
3463.62 12.7995
3464.25 9.53802
3465.52 5.72277
3466.79 3.76698
3468.06 2.66742
3469.33 1.99774
3470.60 1.56502
3473.14 1.06631
3475.68 0.810507
3478.23 0.673271
3480.77 0.604101
3483.31 0.581356
3485.85 0.597380
3488.39 0.653970
3490.93 0.763079
3493.47 0.953810
3494.74 1.09870
3496.01 1.29622
3497.28 1.57590
3498.55 1.99519
3499.82 2.69178
3501.09 4.09712
3501.73 5.54604
3502.36 8.55213
3502.68 11.5873
3503.00 17.2761
3503.16 22.2197
3503.32 29.8788
3503.47 42.2779
3503.63 62.4947
3503.82 97.7948
3504.00 121.394
3504.18 98.2079
3504.37 63.3324
3504.54 42.2538
3504.71 30.0721
3504.88 22.9392
3505.05 18.6155
3505.39 14.0992
3505.73 12.2313
3506.42 11.6281
3507.10 12.9424
3508.55 18.8125
3510.00 22.9708
3510.73 21.5523
3511.45 18.3113
3512.90 11.4840
3513.79 8.51253
3514.68 6.42284
3516.46 3.92114
3518.24 2.60381
3520.02 1.84608
3521.80 1.37561
3523.58 1.06549
3527.13 0.696133
3530.69 0.493348
3534.25 0.370294
3541.37 0.234714
3548.49 0.165711
3555.60 0.126548
3562.72 0.106399
3566.28 0.116320
3567.17 0.133027
3568.06 0.180857
3568.50 0.243523
3568.95 0.400455
3569.17 0.585244
3569.39 0.988147
3569.50 1.39296
3569.61 2.12259
3569.73 3.58258
3569.78 4.87672
3569.84 6.75588
3569.92 10.7666
3570.00 13.4432
3570.08 10.7660
3570.16 6.75494
3570.23 4.50165
3570.30 3.11938
3570.37 2.26170
3570.44 1.70820
3570.58 1.07487
3570.72 0.745811
3570.99 0.435412
3571.27 0.299589
3571.82 0.186665
3572.37 0.141834
3573.47 0.106201
3574.58 0.0919481
3578.99 0.0733449
3587.82 0.0614745
3605.47 0.0523168
3623.12 0.0520430
3640.77 0.0604094
3658.42 0.0843794
3667.24 0.109320
3676.07 0.154320
3684.90 0.246428
3689.31 0.333185
3693.72 0.481222
3695.93 0.597915
3698.13 0.764715
3700.34 1.01470
3702.55 1.41269
3704.75 2.09947
3705.86 2.64297
3706.96 3.41908
3708.06 4.57053
3709.16 6.35178
3710.27 9.21562
3711.37 13.8684
3712.69 22.1445
3714.00 27.6418
3715.32 22.0928
3716.64 13.7999
3717.53 9.91286
3718.41 7.27843
3719.30 5.49632
3720.19 4.26563
3721.96 2.75708
3723.74 1.92164
3725.51 1.42260
3727.28 1.11875
3729.06 1.01342
3729.50 1.07780
3729.95 1.30528
3730.17 1.59889
3730.39 2.26050
3730.50 2.93072
3730.61 4.13779
3730.72 6.53644
3730.78 8.59761
3730.83 11.6094
3730.92 18.1750
3731.00 22.5596
3731.08 18.1624
3731.17 11.5844
3731.24 7.96008
3731.31 5.71006
3731.38 4.29898
3731.44 3.39104
3731.58 2.32295
3731.72 1.76372
3731.99 1.22188
3732.27 0.975738
3732.82 0.753441
3733.37 0.650276
3735.56 0.481781
3739.96 0.366052
3742.16 0.362472
3744.35 0.438986
3745.45 0.571038
3746.00 0.704446
3746.55 0.940928
3747.10 1.41373
3747.38 1.84610
3747.65 2.55556
3747.93 3.84409
3748.06 4.91028
3748.20 6.50338
3748.34 9.03724
3748.47 13.2722
3748.61 20.9035
3748.68 27.0091
3748.75 35.2181
3748.81 45.0192
3748.87 56.2163
3749.00 70.2053
3749.13 56.2116
3749.25 35.2109
3749.38 21.5837
3749.51 14.0621
3749.64 9.71306
3749.76 7.08557
3749.89 5.37684
3750.02 4.22812
3750.27 2.82262
3750.53 2.03016
3750.78 1.54477
3751.29 1.00313
3751.80 0.723770
3752.31 0.561182
3753.33 0.387404
3754.35 0.299925
3755.36 0.248814
3757.40 0.192491
3761.47 0.142912
3765.55 0.119651
3773.69 0.0997390
3777.77 0.106503
3778.78 0.118000
3779.80 0.150864
3780.31 0.194170
3780.82 0.304314
3781.08 0.436775
3781.33 0.734850
3781.46 1.04873
3781.58 1.63691
3781.71 2.90155
3781.78 4.10584
3781.84 5.97158
3781.92 9.49825
3782.00 11.8474
3782.08 9.49833
3782.16 5.97162
3782.24 3.77151
3782.32 2.52450
3782.40 1.78148
3782.47 1.32684
3782.63 0.822520
3782.78 0.571176
3783.09 0.339636
3783.40 0.240750
3784.02 0.160031
3784.64 0.128699
3787.11 0.0957545
3792.06 0.0882259
3801.95 0.100051
3806.90 0.118758
3811.84 0.164105
3814.32 0.219453
3815.56 0.271194
3816.79 0.361193
3818.03 0.543389
3818.65 0.716311
3819.27 1.01570
3819.88 1.60766
3820.19 2.14761
3820.50 3.04088
3820.81 4.67302
3820.97 6.04927
3821.12 8.11911
3821.28 11.4637
3821.43 17.1956
3821.51 21.7405
3821.58 28.0010
3821.66 36.8329
3821.74 49.2154
3821.87 78.7106
3822.00 98.3927
3822.13 78.7080
3822.26 49.2140
3822.38 31.3050
3822.51 20.9435
3822.63 14.7207
3822.75 10.8590
3822.99 6.54984
3823.23 4.37476
3823.48 3.13809
3823.72 2.37209
3824.21 1.51713
3824.69 1.07648
3825.18 0.821944
3826.15 0.557514
3827.12 0.433128
3828.09 0.368281
3830.03 0.315352
3833.92 0.327825
3837.81 0.428240
3839.75 0.519881
3841.69 0.657726
3843.64 0.873208
3844.61 1.02840
3845.58 1.23234
3846.55 1.50779
3847.52 1.89066
3848.49 2.44441
3849.46 3.28178
3850.44 4.62659
3851.41 6.94150
3851.89 8.75152
3852.38 11.2716
3852.87 14.8250
3853.35 19.7897
3854.18 31.5710
3855.00 39.3932
3855.83 31.4787
3856.66 19.6553
3857.22 14.1237
3857.77 10.3796
3858.89 6.09143
3860.00 3.93885
3861.11 2.74102
3862.22 2.01548
3863.33 1.54592
3865.56 0.998554
3867.78 0.705713
3870.01 0.532067
3874.45 0.347379
3878.90 0.259378
3883.35 0.214286
3892.25 0.185673
3901.14 0.210278
3905.59 0.246087
3910.04 0.308322
3914.49 0.418335
3916.71 0.505421
3918.93 0.629505
3921.16 0.814523
3922.27 0.943536
3923.38 1.11045
3924.49 1.33567
3925.61 1.66891
3926.72 2.35305
3927.00 2.74697
3927.27 3.51594
3927.41 4.26482
3927.55 5.63886
3927.69 8.57558
3927.76 11.3966
3927.83 15.8354
3927.92 24.0388
3928.00 29.4514
3928.09 24.0311
3928.17 16.0230
3928.25 10.9994
3928.34 8.16511
3928.50 5.54897
3928.67 4.52389
3928.84 4.07550
3929.50 3.88955
3930.83 5.27932
3931.49 6.48307
3932.15 8.13391
3932.82 10.4001
3933.48 13.4648
3934.74 21.4887
3936.00 26.8302
3937.26 21.4636
3938.52 13.4295
3939.75 8.37560
3940.98 5.50554
3942.21 3.83313
3943.44 2.80378
3945.89 1.67773
3948.35 1.11781
3950.81 0.802928
3953.26 0.610131
3958.18 0.399312
3963.09 0.297790
3968.01 0.249721
3972.92 0.244102
3975.38 0.291337
3975.99 0.336456
3976.61 0.450333
3976.91 0.588413
3977.22 0.909080
3977.38 1.25786
3977.53 1.94356
3977.61 2.56489
3977.68 3.55945
3977.76 5.23283
3977.84 8.05634
3977.92 12.7593
3978.00 15.8372
3978.08 12.6998
3978.17 8.05815
3978.26 4.80978
3978.35 3.11665
3978.44 2.18221
3978.53 1.62839
3978.71 1.04220
3978.90 0.762357
3979.26 0.514694
3979.62 0.414070
3980.35 0.338493
3981.08 0.315885
3984.00 0.340922
3985.46 0.387956
3986.91 0.476291
3987.64 0.562109
3988.37 0.744408
3988.74 0.948544
3989.10 1.41020
3989.28 1.91742
3989.47 2.94620
3989.56 3.90783
3989.65 5.51129
3989.74 8.37320
3989.83 13.6792
3989.92 21.5315
3990.00 26.7555
3990.09 21.5440
3990.17 13.7047
3990.25 8.93805
3990.33 6.18377
3990.41 4.53591
3990.48 3.50235
3990.64 2.35575
3990.80 1.78164
3991.11 1.26710
3991.42 1.06719
3992.05 0.952583
3992.67 0.970358
3993.92 1.16295
3995.17 1.52979
3996.42 2.16383
3997.67 3.32330
3998.30 4.27539
3998.92 5.66039
3999.55 7.71773
4000.17 10.7670
4001.09 17.1567
4002.00 21.3995
4002.92 17.1058
4003.84 10.6913
4004.58 7.20739
4005.33 5.03127
4006.07 3.65647
4006.81 2.75896
4008.30 1.71752
4009.78 1.16959
4011.26 0.848971
4012.75 0.646262
4015.72 0.414636
4018.69 0.292272
4021.66 0.219759
4027.60 0.141249
4033.54 0.101504
4039.47 0.0783898
4051.35 0.0536578
4063.23 0.0414815
4075.11 0.0355073
4081.05 0.0347811
4086.99 0.0376053
4089.96 0.0431243
4092.92 0.0592713
4094.41 0.0808092
4095.15 0.101318
4095.89 0.136879
4096.64 0.207361
4097.38 0.381846
4097.75 0.591176
4097.94 0.778570
4098.12 1.08251
4098.31 1.63626
4098.40 2.10247
4098.49 2.80508
4098.58 3.96311
4098.68 6.02826
4098.77 10.1247
4098.82 13.6518
4098.86 18.8307
4098.93 29.9473
4099.00 37.4173
4099.07 30.1143
4099.14 19.1742
4099.18 14.3042
4099.23 11.0401
4099.31 7.27788
4099.40 5.56564
4099.49 4.93167
4099.57 5.04496
4099.66 5.94424
4099.75 8.04841
4099.83 12.1685
4099.92 18.7490
4100.00 23.0550
4100.09 18.4347
4100.17 11.6897
4100.26 7.01411
4100.36 4.52303
4100.45 3.13398
4100.54 2.30716
4100.73 1.40494
4100.91 0.958005
4101.28 0.540601
4101.65 0.356201
4102.39 0.197467
4103.14 0.131852
4103.88 0.0981133
4104.62 0.0784588
4106.10 0.0575394
4109.07 0.0414884
4112.03 0.0358379
4117.97 0.0332084
4123.90 0.0359547
4129.83 0.0455141
4132.79 0.0558599
4135.76 0.0750875
4138.73 0.116082
4140.21 0.156338
4141.69 0.228215
4142.43 0.287470
4143.18 0.375789
4143.92 0.516166
4144.66 0.758175
4145.40 1.23063
4145.77 1.65556
4146.14 2.34379
4146.51 3.56933
4146.70 4.56594
4146.88 6.02935
4147.07 8.29755
4147.25 11.9721
4147.44 18.2971
4147.62 29.4795
4147.81 47.2366
4148.00 59.0023
4148.19 47.1322
4148.38 29.4752
4148.57 18.1152
4148.75 11.7926
4148.94 8.12969
4149.13 5.90375
4149.32 4.45663
4149.51 3.47974
4149.89 2.28123
4150.26 1.60825
4150.64 1.19469
4151.39 0.735783
4152.15 0.500286
4152.90 0.364130
4153.65 0.278244
4154.41 0.220771
4155.91 0.150870
4157.42 0.111688
4160.44 0.0715997
4163.45 0.0525563
4166.46 0.0420659
4172.49 0.0315762
4184.55 0.0244727
4196.61 0.0230098
4208.67 0.0241107
4220.72 0.0280907
4226.75 0.0321633
4232.78 0.0396407
4235.79 0.0463669
4238.81 0.0586120
4240.32 0.0703916
4241.82 0.0951948
4242.58 0.123345
4243.33 0.191094
4243.71 0.272930
4244.08 0.467485
4244.27 0.687334
4244.46 1.14480
4244.55 1.58254
4244.65 2.32982
4244.74 3.70806
4244.84 6.37577
4244.92 10.1365
4245.00 12.6375
4245.08 10.1380
4245.16 6.37894
4245.25 3.94185
4245.33 2.59703
4245.41 1.82119
4245.49 1.34686
4245.66 0.832244
4245.82 0.578551
4246.15 0.350882
4246.48 0.257576
4247.13 0.189484
4247.79 0.173054
4249.10 0.190817
4250.42 0.254664
4251.73 0.397915
4252.39 0.536174
4253.04 0.775204
4253.70 1.24245
4254.03 1.66210
4254.36 2.34384
4254.68 3.55992
4254.85 4.54991
4255.01 6.00549
4255.18 8.25027
4255.34 11.9098
4255.50 18.2263
4255.67 29.4328
4255.83 47.0837
4256.00 58.8575
4256.17 47.0807
4256.33 29.4300
4256.46 20.1695
4256.59 14.2474
4256.72 10.4411
4256.84 7.91744
4257.10 4.95049
4257.36 3.36885
4257.61 2.43750
4257.87 1.84643
4258.38 1.16994
4258.89 0.813762
4259.40 0.604208
4260.43 0.381220
4261.45 0.272253
4262.48 0.211882
4264.52 0.153253
4266.57 0.130242
4268.62 0.123494
4272.71 0.139005
4276.81 0.198085
4278.86 0.259474
4280.91 0.368287
4282.95 0.584883
4283.98 0.782770
4285.00 1.10894
4285.51 1.35765
4286.02 1.70219
4286.54 2.19744
4287.05 2.94233
4287.56 4.12712
4288.07 6.14414
4288.33 7.70149
4288.58 9.84719
4288.84 12.8360
4289.10 16.9505
4289.55 27.1096
4290.00 33.8590
4290.45 27.0793
4290.91 16.9445
4291.41 9.86284
4291.92 6.16762
4292.43 4.14928
4292.94 2.96147
4293.45 2.21374
4293.96 1.71619
4294.98 1.11978
4296.00 0.791526
4297.01 0.592648
4299.05 0.375106
4301.09 0.265833
4303.12 0.204001
4307.19 0.142148
4311.26 0.116149
4315.34 0.106436
4323.48 0.114724
4331.62 0.161167
4335.69 0.210986
4339.76 0.299760
4343.84 0.475950
4345.87 0.635889
4347.91 0.897527
4348.93 1.09531
4349.94 1.36715
4350.96 1.75395
4351.98 2.32790
4353.00 3.22401
4354.02 4.70994
4355.03 7.33625
4355.54 9.38289
4356.05 12.1309
4357.03 19.3623
4358.00 24.1656
4358.98 19.3131
4359.96 12.0611
4360.58 8.83711
4361.20 6.59786
4362.43 3.95926
4363.67 2.59627
4364.90 1.82444
4366.14 1.35233
4367.38 1.04587
4369.85 0.693305
4372.32 0.523275
4374.79 0.481329
4376.03 0.541098
4376.65 0.620785
4377.26 0.774835
4377.88 1.09742
4378.19 1.39903
4378.50 1.90292
4378.81 2.82873
4378.96 3.61073
4379.12 4.78675
4379.27 6.68471
4379.43 9.92828
4379.58 15.9574
4379.74 27.7462
4379.87 44.2943
4380.00 55.1988
4380.13 44.1550
4380.27 27.7348
4380.39 17.6016
4380.51 11.7696
4380.64 8.30519
4380.76 6.14066
4381.01 3.74001
4381.26 2.52807
4381.51 1.83784
4381.75 1.40901
4382.25 0.926404
4382.75 0.674663
4383.24 0.526090
4384.23 0.364727
4385.23 0.281498
4386.22 0.231626
4388.20 0.174723
4392.17 0.121721
4396.14 0.0953682
4404.08 0.0684556
4412.02 0.0555856
4419.96 0.0498585
4427.89 0.0511328
4431.86 0.0575084
4435.83 0.0779407
4437.82 0.106485
4439.80 0.184764
4440.79 0.288353
4441.29 0.387159
4441.79 0.558586
4442.28 0.895471
4442.53 1.20100
4442.78 1.70208
4443.03 2.60498
4443.15 3.35221
4443.27 4.46646
4443.40 6.21797
4443.52 9.15047
4443.65 14.4064
4443.77 24.1988
4443.89 38.7856
4444.00 48.4079
4444.12 38.6510
4444.23 24.1989
4444.34 15.5423
4444.44 10.4741
4444.54 7.41624
4444.65 5.48367
4444.86 3.30993
4445.07 2.20910
4445.27 1.57658
4445.48 1.18506
4445.90 0.744735
4446.32 0.516117
4446.73 0.383221
4447.56 0.242470
4448.40 0.173647
4449.23 0.135057
4450.90 0.0958538
4454.23 0.0682152
4457.56 0.0604135
4460.89 0.0600448
4464.22 0.0669837
4465.89 0.0772152
4467.56 0.104785
4468.39 0.141282
4469.22 0.239126
4469.64 0.366808
4470.06 0.694135
4470.26 1.09725
4470.37 1.45608
4470.47 2.03504
4470.58 3.05328
4470.68 5.07201
4470.73 6.89266
4470.78 9.80683
4470.84 14.7135
4470.89 23.3259
4470.94 37.1852
4471.00 46.6061
4471.06 37.1847
4471.11 23.3255
4471.18 13.2264
4471.24 8.17037
4471.31 5.42472
4471.37 3.85728
4471.50 2.21983
4471.63 1.44898
4471.90 0.766670
4472.16 0.487203
4472.68 0.265165
4473.20 0.181427
4474.25 0.119398
4475.29 0.0981770
4477.38 0.0859926
4479.47 0.0862524
4483.66 0.106187
4485.75 0.154674
4486.27 0.195365
4486.79 0.294778
4487.05 0.412869
4487.31 0.677907
4487.45 0.956036
4487.58 1.47805
4487.71 2.61818
4487.77 3.69477
4487.84 5.40007
4487.92 8.58117
4488.00 10.7046
4488.08 8.58193
4488.16 5.40171
4488.22 3.95671
4488.27 2.96179
4488.38 1.80968
4488.48 1.21377
4488.59 0.881246
4488.80 0.544116
4489.01 0.388639
4489.43 0.256017
4489.85 0.203912
4490.70 0.166822
4491.54 0.157321
4494.92 0.176412
4498.29 0.230051
4501.67 0.326692
4505.04 0.515327
4506.73 0.683803
4508.42 0.955303
4510.11 1.43180
4510.95 1.81570
4511.80 2.37324
4512.64 3.21905
4513.48 4.56712
4514.33 6.82246
4515.17 10.6617
4516.09 17.0114
4517.00 21.2289
4517.92 16.9668
4518.84 10.5973
4519.78 6.46461
4520.72 4.18339
4521.66 2.88031
4522.59 2.09055
4523.53 1.58203
4524.47 1.23872
4526.35 0.820817
4528.22 0.587540
4530.10 0.445259
4533.85 0.289672
4537.61 0.213051
4541.36 0.172322
4548.87 0.143046
4556.38 0.160866
4560.13 0.193711
4563.88 0.259249
4567.64 0.399393
4569.51 0.533483
4571.39 0.763803
4573.27 1.20736
4574.20 1.59969
4575.14 2.22588
4576.08 3.31062
4576.55 4.17108
4577.02 5.40293
4577.49 7.23650
4577.96 10.0852
4578.43 14.6913
4578.90 22.2279
4579.45 35.5501
4580.00 44.4049
4580.55 35.5139
4581.11 22.2173
4581.46 16.1792
4581.82 12.0239
4582.53 7.16322
4583.24 4.67040
4583.95 3.26378
4584.66 2.40257
4585.37 1.84217
4586.79 1.18377
4588.21 0.827959
4589.63 0.615075
4592.47 0.384269
4595.31 0.268919
4598.15 0.203472
4603.83 0.136815
4609.51 0.106818
4615.20 0.0928696
4626.56 0.0895719
4637.92 0.114102
4643.60 0.143789
4649.28 0.198719
4654.97 0.311491
4657.81 0.416982
4660.65 0.595015
4662.07 0.733752
4663.49 0.929732
4664.91 1.21914
4666.33 1.66977
4667.75 2.42347
4668.46 3.00134
4669.17 3.80242
4669.88 4.94634
4670.59 6.63020
4671.30 9.17047
4672.01 13.0031
4673.01 20.7531
4674.00 25.9012
4675.00 20.7009
4676.00 12.9283
4676.66 9.32179
4677.33 6.86616
4678.66 4.04135
4679.98 2.61712
4681.31 1.82240
4682.64 1.34011
4683.97 1.02757
4686.62 0.662716
4689.28 0.467207
4691.94 0.351102
4697.25 0.227307
4702.56 0.168018
4707.87 0.137401
4718.50 0.117832
4729.12 0.137348
4734.43 0.167853
4739.74 0.226848
4745.06 0.349826
4747.71 0.465009
4750.37 0.658741
4751.70 0.808812
4753.02 1.01976
4754.35 1.32863
4755.68 1.80469
4757.01 2.58796
4757.67 3.17973
4758.34 3.98861
4759.00 5.12347
4759.66 6.75726
4760.33 9.15558
4760.99 12.6598
4762.00 20.2324
4763.00 25.2756
4764.01 20.2230
4765.01 12.6519
4766.00 7.86840
4766.98 5.16348
4767.97 3.59014
4768.95 2.62473
4769.94 1.99833
4770.92 1.57392
4772.89 1.06014
4774.86 0.788602
4776.83 0.673802
4777.82 0.697411
4778.81 0.877137
4779.30 1.14622
4779.54 1.40067
4779.79 1.82621
4780.04 2.60822
4780.28 4.23495
4780.41 5.77844
4780.53 8.38155
4780.65 13.0918
4780.78 21.9758
4780.89 35.0560
4781.00 43.6900
4781.11 34.9235
4781.23 21.9592
4781.30 16.0249
4781.37 11.9458
4781.52 7.19881
4781.66 4.77574
4781.81 3.41869
4781.95 2.58217
4782.10 2.03665
4782.39 1.39548
4782.68 1.04497
4782.97 0.833160
4783.56 0.597221
4784.14 0.473220
4784.72 0.397966
4785.89 0.311090
4788.22 0.228076
4790.55 0.184711
4795.22 0.136483
4799.88 0.109555
4809.20 0.0816966
4818.53 0.0700427
4827.86 0.0674301
4837.18 0.0729693
4846.51 0.0923919
4851.17 0.120590
4852.34 0.137946
4853.50 0.176213
4854.09 0.221348
4854.67 0.331669
4854.96 0.463587
4855.25 0.764832
4855.40 1.08784
4855.54 1.71184
4855.69 3.14066
4855.76 4.57455
4855.83 6.92234
4855.92 11.0036
4856.00 13.7273
4856.08 11.0047
4856.17 6.92478
4856.22 5.06057
4856.27 3.79971
4856.38 2.31140
4856.49 1.55010
4856.59 1.12151
4856.81 0.689999
4857.02 0.491904
4857.45 0.322613
4857.88 0.256510
4858.73 0.210645
4859.58 0.200711
4863.00 0.244830
4864.71 0.297855
4866.42 0.386361
4867.27 0.458428
4868.13 0.579109
4868.55 0.688574
4868.98 0.904718
4869.19 1.12747
4869.41 1.57746
4869.51 2.01200
4869.62 2.77268
4869.73 4.24622
4869.78 5.48967
4869.83 7.28418
4869.92 11.2709
4870.00 13.9394
4870.08 11.3001
4870.17 7.34271
4870.26 4.64321
4870.35 3.23400
4870.44 2.45977
4870.53 2.00690
4870.71 1.54742
4870.89 1.34990
4871.25 1.23585
4871.61 1.26785
4872.33 1.52433
4873.05 2.00290
4873.77 2.82517
4874.13 3.45320
4874.49 4.31654
4874.85 5.53834
4875.21 7.30361
4875.57 9.91262
4875.93 13.7600
4876.47 21.9410
4877.00 27.3931
4877.54 21.9394
4878.07 13.7624
4878.53 9.12729
4878.98 6.29852
4879.44 4.55172
4879.89 3.42929
4880.80 2.15252
4881.71 1.49562
4882.62 1.12022
4883.53 0.889341
4885.35 0.640569
4887.17 0.528598
4888.99 0.484157
4892.63 0.515174
4896.27 0.705033
4898.09 0.901355
4899.91 1.23277
4900.82 1.48562
4901.73 1.83388
4902.64 2.32899
4903.55 3.06097
4904.46 4.19593
4905.37 6.05738
4906.28 9.29395
4906.74 11.7784
4907.19 15.0838
4908.10 24.0542
4909.00 30.0122
4909.91 23.9874
4910.82 14.9843
4911.49 10.4685
4912.15 7.51725
4912.81 5.58060
4913.48 4.27507
4914.81 2.71264
4916.13 1.86610
4917.46 1.36145
4918.79 1.03873
4921.45 0.666098
4924.10 0.468050
4926.76 0.350835
4932.07 0.225474
4937.39 0.164391
4942.70 0.131389
4953.33 0.103783
4963.95 0.104343
4974.58 0.133388
4979.89 0.167574
4985.20 0.230996
4987.86 0.284365
4990.52 0.367681
4993.17 0.534565
4993.84 0.625079
4994.50 0.805416
4994.83 0.998974
4995.17 1.42487
4995.33 1.87789
4995.50 2.77489
4995.58 3.58953
4995.66 4.90758
4995.75 7.16354
4995.83 11.1269
4995.92 17.4007
4996.00 21.5755
4996.09 17.4162
4996.17 11.1583
4996.25 7.17512
4996.34 4.92994
4996.42 3.63169
4996.51 2.84586
4996.67 1.98905
4996.84 1.57241
4997.17 1.21469
4997.51 1.08944
4998.85 1.11299
5000.18 1.38229
5001.52 1.84015
5002.19 2.17102
5002.86 2.60247
5003.53 3.17526
5004.20 3.95051
5004.86 5.02737
5005.53 6.55512
5006.20 8.75739
5006.87 11.9104
5007.94 19.0015
5009.00 23.7128
5010.07 18.9560
5011.14 11.8452
5012.29 7.04157
5013.45 4.47315
5014.60 3.04426
5015.76 2.19338
5016.91 1.65272
5018.06 1.29106
5020.37 0.856349
5022.68 0.617765
5024.99 0.475604
5029.60 0.331096
5034.22 0.286258
5036.52 0.295521
5038.83 0.337131
5041.14 0.443827
5042.29 0.549480
5043.45 0.729800
5044.60 1.06693
5045.18 1.35384
5045.75 1.79225
5046.33 2.50357
5046.91 3.74791
5047.48 6.12379
5047.77 8.10899
5048.06 10.9333
5048.53 17.4240
5049.00 21.7489
5049.47 17.4182
5049.94 10.9258
5050.25 7.93065
5050.56 5.88610
5051.17 3.51632
5051.79 2.31220
5052.41 1.63677
5053.02 1.22532
5053.64 0.957896
5054.87 0.644741
5056.10 0.476337
5057.33 0.376373
5059.80 0.270506
5062.26 0.221750
5064.73 0.199809
5069.66 0.201263
5074.58 0.260835
5077.05 0.328394
5079.51 0.448776
5081.98 0.682477
5083.21 0.887865
5084.44 1.21172
5085.67 1.76060
5086.91 2.78477
5087.52 3.65037
5088.14 4.94719
5088.75 6.94703
5089.37 10.0403
5090.19 16.0096
5091.00 19.9737
5091.82 15.9629
5092.64 9.97024
5093.17 7.27308
5093.69 5.41058
5094.74 3.23085
5095.79 2.11199
5096.84 1.48009
5097.89 1.09327
5098.94 0.840862
5101.04 0.543815
5103.14 0.382880
5105.24 0.286125
5109.44 0.180471
5113.64 0.126885
5117.84 0.0958576
5126.24 0.0629017
5134.64 0.0465263
5143.04 0.0373377
5151.44 0.0328461
5155.64 0.0359027
5157.74 0.0535998
5158.79 0.115143
5159.31 0.289905
5159.58 0.660173
5159.71 1.19086
5159.84 2.52333
5159.92 4.01537
5160.00 5.01810
5160.08 4.01526
5160.16 2.52316
5160.26 1.43274
5160.35 0.887398
5160.55 0.427629
5160.93 0.172791
5161.70 0.0715713
5163.24 0.0391064
5166.33 0.0296885
5172.49 0.0288446
5175.58 0.0323733
5178.66 0.0442442
5180.20 0.0611156
5181.74 0.107767
5182.51 0.169722
5183.28 0.331629
5183.67 0.534503
5184.05 1.02044
5184.25 1.56768
5184.44 2.69348
5184.54 3.76872
5184.63 5.55937
5184.73 8.78097
5184.82 14.8106
5184.91 23.7135
5185.00 29.5496
5185.09 23.6064
5185.18 14.8100
5185.25 10.1154
5185.32 7.12463
5185.38 5.20916
5185.45 3.94276
5185.59 2.45831
5185.73 1.66923
5186.01 0.911365
5186.28 0.575087
5186.83 0.293729
5187.39 0.182289
5188.49 0.0960509
5189.59 0.0639948
5191.80 0.0404251
5194.01 0.0326730
5198.42 0.0353075
5200.63 0.0683835
5201.18 0.100946
5201.73 0.184401
5202.01 0.285479
5202.28 0.517073
5202.42 0.762803
5202.56 1.23580
5202.70 2.28916
5202.77 3.31991
5202.84 4.99174
5202.92 7.97720
5203.00 9.96039
5203.08 7.97700
5203.16 4.98841
5203.26 2.80884
5203.36 1.72446
5203.56 0.812124
5203.76 0.468641
5203.95 0.307304
5204.34 0.165515
5204.74 0.107202
5206.31 0.0430689
5207.88 0.0294832
5209.45 0.0243352
5212.60 0.0202586
5215.74 0.0185731
5228.32 0.0163568
5253.47 0.0160560
5266.05 0.0170918
5278.62 0.0198927
5284.91 0.0232163
5291.20 0.0313654
5294.34 0.0416508
5295.91 0.0514669
5297.49 0.0688380
5299.06 0.104675
5300.63 0.200371
5301.42 0.324408
5301.81 0.441159
5302.20 0.640807
5302.60 1.02460
5302.79 1.36572
5302.99 1.90865
5303.19 2.85668
5303.38 4.68920
5303.48 6.32448
5303.58 8.86035
5303.68 12.9949
5303.77 19.8265
5303.89 31.6740
5304.00 39.5582
5304.11 31.6732
5304.23 19.8258
5304.31 13.9507
5304.39 10.1047
5304.47 7.52206
5304.55 5.78890
5304.71 3.68340
5304.87 2.53834
5305.03 1.84778
5305.19 1.40694
5305.51 0.894414
5305.83 0.621422
5306.15 0.459493
5306.80 0.285625
5307.44 0.199489
5308.08 0.151096
5309.36 0.102253
5310.65 0.0805042
5311.93 0.0704507
5314.50 0.0677876
5317.07 0.0843672
5318.35 0.104830
5319.64 0.143517
5320.92 0.225895
5321.57 0.306003
5322.21 0.447330
5322.85 0.731861
5323.17 0.996536
5323.49 1.44268
5323.81 2.28071
5323.97 3.00766
5324.13 4.13332
5324.29 6.02717
5324.37 7.47198
5324.45 9.47348
5324.54 12.3723
5324.62 16.5938
5324.70 22.9597
5324.78 32.5628
5324.83 41.8059
5324.89 52.1761
5325.00 65.0967
5325.06 61.1720
5325.11 51.9893
5325.23 32.5610
5325.35 19.0539
5325.48 11.9510
5325.60 8.04881
5325.73 5.74313
5325.85 4.28748
5325.98 3.31673
5326.23 2.15030
5326.48 1.50648
5326.73 1.11536
5327.23 0.685558
5327.73 0.467571
5328.23 0.342216
5329.23 0.211208
5330.23 0.147836
5331.23 0.112544
5333.23 0.0769272
5335.23 0.0605516
5337.23 0.0520494
5341.22 0.0449760
5349.22 0.0457518
5357.22 0.0573674
5365.22 0.0852032
5369.22 0.112431
5373.22 0.159946
5377.22 0.253739
5379.22 0.339124
5381.22 0.479661
5383.22 0.734657
5384.22 0.947162
5385.22 1.26629
5386.22 1.77282
5387.22 2.63262
5387.72 3.29459
5388.22 4.20428
5388.72 5.46750
5389.22 7.20417
5390.11 11.4953
5391.00 14.3457
5391.90 11.4652
5392.79 7.16009
5393.69 4.38823
5394.60 2.84892
5395.50 1.96616
5396.40 1.42858
5397.31 1.08154
5398.21 0.846778
5400.02 0.560327
5401.82 0.399907
5403.63 0.301740
5407.24 0.193467
5410.86 0.138994
5414.47 0.108577
5421.69 0.0806011
5428.92 0.0761308
5432.53 0.0824028
5436.15 0.0987415
5439.76 0.137718
5441.57 0.177279
5443.37 0.248766
5445.18 0.397092
5446.08 0.539088
5446.98 0.786105
5447.89 1.27334
5448.34 1.71755
5448.79 2.44751
5449.24 3.77429
5449.47 4.88023
5449.69 6.53213
5449.92 9.16285
5450.15 13.6266
5450.26 17.0619
5450.37 21.7814
5450.48 28.3329
5450.60 37.2668
5450.80 59.6160
5451.00 74.5196
5451.20 59.6119
5451.40 37.2628
5451.56 25.7607
5451.71 18.3616
5451.86 13.5214
5452.01 10.3061
5452.31 6.47756
5452.62 4.41911
5452.92 3.20016
5453.22 2.42350
5453.83 1.53109
5454.43 1.05932
5455.04 0.780900
5456.25 0.483691
5457.46 0.337587
5458.67 0.256454
5461.10 0.178859
5463.52 0.156602
5465.94 0.186367
5467.16 0.248981
5467.76 0.313716
5468.37 0.430237
5468.97 0.668199
5469.28 0.890880
5469.58 1.26749
5469.88 1.97721
5470.03 2.59461
5470.19 3.55254
5470.34 5.16986
5470.49 8.12510
5470.56 10.6042
5470.64 14.2163
5470.72 19.7627
5470.79 28.0611
5470.84 35.9921
5470.90 44.8861
5471.00 56.1147
5471.05 52.7509
5471.11 44.8844
5471.21 28.0587
5471.28 19.9403
5471.36 14.5105
5471.43 10.8808
5471.50 8.42599
5471.65 5.39695
5471.79 3.73964
5471.94 2.73493
5472.08 2.09183
5472.37 1.34127
5472.67 0.939904
5472.96 0.700996
5473.54 0.443436
5474.12 0.314504
5474.70 0.241085
5475.86 0.164728
5477.03 0.128081
5478.19 0.108074
5480.52 0.0900540
5482.84 0.0880848
5485.17 0.106388
5486.33 0.136981
5487.49 0.222937
5488.08 0.335717
5488.66 0.622105
5488.95 0.967150
5489.24 1.75153
5489.39 2.58001
5489.53 4.14590
5489.60 5.50673
5489.68 7.55697
5489.75 10.8458
5489.82 16.0127
5489.87 20.4674
5489.91 25.5515
5490.00 31.8962
5490.09 25.5509
5490.18 16.0119
5490.27 9.73420
5490.37 6.30751
5490.46 4.33297
5490.55 3.14928
5490.74 1.86558
5490.92 1.23780
5491.29 0.667963
5491.66 0.428741
5492.40 0.235419
5493.14 0.161057
5494.61 0.104754
5496.09 0.0844364
5499.05 0.0708003
5502.00 0.0683539
5507.92 0.0828132
5509.39 0.0979882
5510.87 0.138061
5511.61 0.190091
5512.35 0.324812
5512.72 0.492447
5513.09 0.891742
5513.27 1.33901
5513.46 2.25286
5513.55 3.11994
5513.64 4.55254
5513.73 7.10282
5513.83 11.8329
5513.91 18.8763
5514.00 23.5927
5514.09 18.8762
5514.17 11.8329
5514.24 8.06939
5514.31 5.66399
5514.38 4.13614
5514.45 3.13261
5514.59 1.96420
5514.73 1.34723
5515.00 0.758050
5515.28 0.498046
5515.83 0.281688
5516.38 0.196722
5517.49 0.132168
5518.59 0.109381
5520.80 0.0953474
5523.01 0.0940133
5527.42 0.107624
5529.63 0.141930
5530.73 0.242361
5531.01 0.327670
5531.29 0.522107
5531.56 1.12478
5531.70 2.00957
5531.77 2.87708
5531.84 4.27617
5531.92 6.76900
5532.00 8.44135
5532.08 6.76945
5532.16 4.27716
5532.23 2.95965
5532.29 2.11244
5532.42 1.21383
5532.67 0.575882
5532.93 0.363757
5533.18 0.270142
5534.21 0.163609
5536.25 0.139335
5540.33 0.153125
5544.41 0.183399
5548.49 0.229188
5550.53 0.260501
5552.58 0.299945
5554.62 0.350735
5556.66 0.418114
5558.70 0.511744
5560.74 0.654763
5561.76 0.767148
5562.78 0.958717
5563.29 1.14210
5563.80 1.52754
5564.06 1.94528
5564.31 2.83259
5564.44 3.72384
5564.57 5.32851
5564.69 8.62863
5564.76 11.5932
5564.82 15.9843
5564.91 25.0277
5565.00 30.9684
5565.09 24.9478
5565.14 20.1447
5565.18 16.0388
5565.25 11.3353
5565.32 8.36387
5565.45 5.17098
5565.59 3.66622
5565.73 2.87878
5566.00 2.14241
5566.27 1.84682
5566.82 1.67317
5567.36 1.69575
5568.45 1.95587
5569.54 2.40661
5570.63 3.07936
5571.72 4.07951
5572.81 5.58800
5573.90 7.85594
5575.45 12.5090
5577.00 15.6094
5578.55 12.5111
5580.10 7.86867
5581.04 5.86518
5581.98 4.45486
5583.87 2.76910
5585.75 1.89095
5587.64 1.39796
5589.52 1.10552
5591.40 0.928623
5595.17 0.775372
5598.94 0.808579
5602.71 1.06690
5604.59 1.35069
5606.47 1.83886
5608.36 2.70780
5610.24 4.27830
5612.12 6.73586
5614.00 8.36904
5615.88 6.70966
5617.76 4.23099
5619.16 2.96184
5620.57 2.13747
5621.97 1.59931
5623.37 1.23824
5626.18 0.807352
5628.99 0.573804
5631.80 0.434492
5634.60 0.345250
5640.22 0.242681
5645.83 0.189745
5651.44 0.161076
5662.67 0.142367
5673.90 0.162215
5679.51 0.191826
5685.13 0.246095
5690.74 0.349938
5693.55 0.438766
5696.35 0.574690
5699.16 0.795680
5701.97 1.18419
5703.37 1.49420
5704.77 1.93414
5706.18 2.56972
5707.58 3.48444
5709.79 5.52296
5712.00 6.88612
5714.21 5.55041
5716.42 3.54816
5718.62 2.28759
5720.82 1.61161
5723.02 1.26940
5725.23 1.13915
5727.43 1.20075
5729.63 1.55929
5730.73 1.96335
5731.28 2.26973
5731.83 2.68270
5732.38 3.24819
5732.93 4.03001
5733.48 5.12081
5734.03 6.62835
5734.52 8.38274
5735.02 10.3853
5736.00 12.8851
5736.49 12.1363
5736.99 10.3556
5737.97 6.57295
5738.63 4.80024
5739.29 3.59572
5740.61 2.21490
5741.93 1.52381
5743.25 1.14469
5745.89 0.791549
5748.53 0.689803
5751.17 0.764371
5752.49 0.896725
5753.81 1.15232
5755.13 1.66502
5755.79 2.11932
5756.45 2.83390
5757.11 4.03988
5757.77 6.26438
5758.10 8.12018
5758.43 10.8646
5758.76 15.0275
5759.09 21.3238
5759.54 34.0231
5760.00 42.4603
5760.46 33.9791
5760.92 21.3013
5761.35 13.4644
5761.79 8.94905
5762.22 6.28694
5762.65 4.63582
5763.52 2.80900
5764.39 1.89188
5765.26 1.37040
5766.13 1.04766
5767.87 0.687138
5769.61 0.506215
5771.35 0.421354
5772.22 0.418893
5773.09 0.485635
5773.52 0.597661
5773.96 0.893273
5774.17 1.24439
5774.39 2.00044
5774.50 2.74939
5774.61 4.05302
5774.72 6.58310
5774.77 8.69726
5774.83 11.7722
5774.91 18.6943
5775.00 23.2940
5775.09 18.6899
5775.17 11.7637
5775.27 6.90554
5775.37 4.37906
5775.47 3.00492
5775.57 2.19810
5775.77 1.35282
5775.97 0.946918
5776.36 0.584373
5776.76 0.430427
5777.55 0.300520
5778.34 0.244595
5779.92 0.191781
5781.51 0.164035
5787.84 0.112063
5794.17 0.0884263
5800.51 0.0751337
5813.17 0.0639920
5819.51 0.0659119
5822.67 0.0769997
5824.25 0.113959
5825.05 0.228577
5825.44 0.519742
5825.64 1.05010
5825.74 1.69119
5825.84 2.97855
5825.92 4.73181
5826.00 5.89321
5826.08 4.73187
5826.16 2.97873
5826.24 1.94855
5826.31 1.33285
5826.45 0.729055
5826.74 0.330785
5827.33 0.152483
5828.49 0.0923339
5830.82 0.0773983
5835.47 0.0822346
5840.12 0.0984272
5844.78 0.129708
5849.43 0.194698
5851.76 0.255796
5854.08 0.359206
5856.41 0.554228
5857.57 0.723289
5858.74 0.987078
5859.32 1.17785
5859.90 1.42968
5860.48 1.77031
5861.06 2.24292
5861.65 2.92125
5862.23 3.92229
5862.81 5.44341
5863.39 7.74935
5864.20 12.3802
5865.00 15.4653
5865.40 14.5538
5865.81 12.3760
5866.61 7.74515
5867.22 5.33841
5867.84 3.79002
5868.45 2.78973
5869.06 2.12385
5870.29 1.33780
5871.51 0.917095
5872.74 0.668711
5873.97 0.510780
5876.42 0.329690
5878.87 0.234175
5881.32 0.177928
5886.23 0.118130
5891.13 0.0891568
5896.03 0.0736977
5900.94 0.0664848
5903.39 0.0699531
5904.61 0.0902978
5905.23 0.153290
5905.53 0.298303
5905.69 0.527507
5905.84 1.19102
5906.00 2.32241
5906.16 1.19081
5906.31 0.546581
5906.45 0.312067
5906.74 0.159518
5907.33 0.0914491
5908.49 0.0679051
5910.83 0.0611315
5915.49 0.0638454
5917.82 0.0715095
5920.16 0.0938449
5921.32 0.124047
5922.49 0.205149
5923.07 0.310075
5923.65 0.575858
5923.95 0.895791
5924.24 1.61931
5924.38 2.38149
5924.53 3.83218
5924.60 5.08488
5924.67 7.00246
5924.75 10.0431
5924.82 14.8609
5924.91 23.7704
5925.00 29.6659
5925.09 23.7700
5925.18 14.8605
5925.25 10.2548
5925.32 7.27001
5925.39 5.34502
5925.46 4.06544
5925.59 2.55734
5925.73 1.75586
5926.01 0.977769
5926.28 0.630781
5926.83 0.339215
5927.38 0.223836
5928.48 0.134641
5929.58 0.101792
5931.79 0.0783380
5933.99 0.0710814
5942.80 0.0726227
5951.60 0.0894800
5960.41 0.122784
5969.22 0.191334
5973.62 0.255050
5978.03 0.361742
5982.43 0.559889
5984.63 0.729006
5986.83 0.989170
5989.04 1.41624
5991.24 2.17754
5992.34 2.79252
5993.44 3.67542
5994.54 4.96703
5995.64 6.84820
5997.32 10.9329
5999.00 13.6483
6000.69 10.9131
6002.37 6.82225
6003.59 4.78780
6004.80 3.44937
6006.02 2.56766
6007.24 1.97204
6009.67 1.25765
6012.10 0.870264
6014.54 0.641032
6016.97 0.498733
6019.40 0.424915
6020.62 0.473088
6020.92 0.540136
6021.23 0.707921
6021.53 1.26753
6021.68 2.14328
6021.76 3.04774
6021.84 4.61750
6021.92 7.19503
6022.00 8.90662
6022.08 7.19112
6022.16 4.60714
6022.23 3.16372
6022.30 2.27160
6022.44 1.35843
6022.72 0.731448
6022.99 0.525549
6023.27 0.432615
6023.82 0.349877
6024.37 0.311879
6026.58 0.249837
6030.99 0.203478
6033.20 0.197878
6035.40 0.215875
6036.51 0.251781
6037.61 0.356862
6038.16 0.495792
6038.71 0.846649
6038.99 1.26471
6039.26 2.19867
6039.40 3.16037
6039.54 4.94470
6039.61 6.44513
6039.68 8.68248
6039.75 12.1124
6039.81 17.2978
6039.91 27.5789
6040.00 34.4407
6040.09 27.5780
6040.19 17.2872
6040.25 12.4860
6040.31 9.26148
6040.43 5.50433
6040.56 3.60445
6040.68 2.54218
6040.92 1.47743
6041.17 0.987130
6041.66 0.565578
6042.15 0.395024
6043.14 0.260679
6044.12 0.210249
6046.09 0.174193
6048.05 0.164843
6051.99 0.174080
6055.92 0.213094
6059.85 0.305717
6061.82 0.395881
6063.78 0.550375
6065.75 0.844004
6066.73 1.09925
6067.72 1.49872
6068.70 2.17074
6069.19 2.68899
6069.68 3.40904
6070.18 4.44495
6070.67 5.97705
6071.16 8.31313
6071.65 11.8657
6072.33 18.9556
6073.00 23.6795
6073.68 18.9496
6074.35 11.8589
6074.95 7.71005
6075.55 5.22867
6076.14 3.72115
6076.74 2.76494
6077.94 1.68631
6079.13 1.13393
6080.33 0.816794
6081.52 0.618893
6083.91 0.395785
6086.30 0.279749
6088.69 0.211936
6093.47 0.140007
6098.25 0.104927
6103.03 0.0856735
6112.59 0.0682017
6122.16 0.0647070
6131.72 0.0713817
6141.28 0.0927717
6146.06 0.116331
6148.45 0.144265
6149.64 0.200085
6150.24 0.343979
6150.54 0.661372
6150.69 1.14899
6150.84 2.50465
6150.92 3.92159
6151.00 4.86821
6151.08 3.92297
6151.16 2.50744
6151.26 1.48866
6151.35 0.968632
6151.55 0.532704
6151.93 0.292698
6152.70 0.204052
6154.23 0.191401
6157.30 0.231953
6160.37 0.307270
6163.44 0.436163
6166.51 0.677623
6168.04 0.884685
6169.57 1.20451
6171.11 1.73265
6171.88 2.13254
6172.64 2.68044
6173.41 3.45139
6174.18 4.56528
6174.94 6.20739
6175.71 8.62191
6176.86 13.7647
6178.00 17.1825
6179.15 13.7341
6180.30 8.57784
6181.04 6.24839
6181.78 4.64333
6183.25 2.76557
6184.73 1.80310
6186.21 1.26045
6187.68 0.928354
6189.16 0.711907
6192.11 0.457687
6195.07 0.320298
6198.02 0.238018
6203.93 0.148734
6209.83 0.103985
6215.74 0.0784943
6227.55 0.0523086
6239.37 0.0403544
6251.18 0.0350861
6262.99 0.0373899
6265.95 0.0424004
6268.90 0.0571417
6270.38 0.0773678
6271.85 0.132389
6272.59 0.204692
6273.33 0.391230
6273.70 0.620591
6274.07 1.15885
6274.25 1.74909
6274.44 2.92190
6274.53 4.00116
6274.62 5.72693
6274.72 8.66233
6274.81 13.8267
6274.86 17.7096
6274.90 22.1185
6275.00 27.6232
6275.10 22.1180
6275.19 13.8262
6275.25 10.1843
6275.31 7.62603
6275.43 4.59297
6275.55 3.01598
6275.67 2.12396
6275.91 1.20676
6276.15 0.780320
6276.63 0.409049
6277.11 0.257815
6278.06 0.138251
6279.02 0.0930892
6280.94 0.0593968
6282.85 0.0474521
6286.68 0.0396851
6290.51 0.0386565
6294.33 0.0412792
6298.16 0.0504275
6300.08 0.0626400
6301.99 0.0952674
6302.95 0.138144
6303.90 0.251086
6304.38 0.394649
6304.86 0.747998
6305.10 1.16073
6305.34 2.05323
6305.46 2.94717
6305.58 4.52983
6305.70 7.68021
6305.76 10.4113
6305.82 14.3792
6305.91 22.9534
6306.00 28.7203
6306.09 22.9531
6306.18 14.3790
6306.24 10.4113
6306.30 7.71769
6306.42 4.56642
6306.54 2.96728
6306.66 2.07702
6306.89 1.17418
6307.13 0.759617
6307.61 0.402140
6308.08 0.257850
6309.03 0.144868
6309.98 0.103108
6311.88 0.0736791
6313.78 0.0654360
6317.57 0.0669029
6321.37 0.0816332
6325.17 0.116952
6327.07 0.152095
6328.97 0.214910
6330.87 0.344207
6331.82 0.467603
6332.76 0.681423
6333.71 1.10221
6334.19 1.48420
6334.66 2.10971
6335.14 3.24043
6335.38 4.17538
6335.61 5.57053
6335.85 7.77750
6336.09 11.4669
6336.32 18.0963
6336.44 23.3685
6336.56 30.4892
6336.78 48.8313
6337.00 60.9948
6337.22 48.7392
6337.44 30.4861
6337.60 21.2185
6337.76 15.1754
6337.93 11.2251
6338.09 8.58431
6338.41 5.42108
6338.73 3.70990
6339.06 2.69245
6339.38 2.04231
6340.02 1.29316
6340.67 0.895984
6341.32 0.661059
6342.61 0.409328
6343.90 0.284748
6345.19 0.214517
6347.78 0.142879
6350.36 0.109651
6352.95 0.0923170
6358.12 0.0777306
6368.45 0.0783294
6378.79 0.0990670
6389.13 0.146883
6394.30 0.191556
6399.47 0.266196
6404.63 0.405714
6407.22 0.526934
6409.80 0.718439
6412.39 1.04823
6413.68 1.31021
6414.97 1.68695
6416.26 2.25264
6417.56 3.14435
6418.85 4.61804
6420.14 7.09818
6421.57 11.2599
6423.00 14.0352
6424.44 11.2827
6425.87 7.15854
6427.04 4.91953
6428.20 3.53779
6429.37 2.68616
6430.53 2.15150
6431.70 1.81306
6432.86 1.60378
6434.03 1.48672
6435.19 1.44264
6436.36 1.46401
6437.52 1.55262
6438.69 1.71977
6439.85 1.98890
6441.02 2.40131
6442.18 3.02577
6443.35 3.97037
6444.51 5.37833
6445.38 6.79382
6446.26 8.41231
6448.00 10.4246
6448.88 9.80729
6449.75 8.34759
6451.50 5.25593
6453.29 3.23905
6455.08 2.12158
6456.88 1.48108
6458.67 1.09020
6462.25 0.663815
6465.83 0.450503
6469.42 0.328835
6473.00 0.252890
6480.17 0.166895
6487.34 0.122324
6494.50 0.0975008
6501.67 0.0864527
6505.25 0.0957332
6507.05 0.143467
6507.94 0.302514
6508.17 0.435736
6508.39 0.727827
6508.61 1.55490
6508.73 2.62694
6508.84 4.95714
6508.92 7.87998
6509.00 9.84166
6509.08 7.87998
6509.16 4.95708
6509.25 3.05186
6509.33 2.00062
6509.50 1.02869
6509.66 0.632846
6509.83 0.439121
6510.16 0.262969
6510.50 0.188946
6511.83 0.105898
6514.50 0.0821823
6519.83 0.0796486
6525.17 0.0892050
6530.50 0.112383
6535.84 0.165500
6538.50 0.218077
6541.17 0.310807
6543.84 0.495588
6545.17 0.664822
6546.51 0.944520
6547.84 1.45479
6548.51 1.88204
6549.17 2.52532
6549.84 3.55354
6550.17 4.30951
6550.51 5.31326
6550.84 6.68119
6551.17 8.56867
6551.51 11.2103
6551.84 14.8822
6552.42 23.7959
6553.00 29.7357
6553.29 27.9862
6553.58 23.7905
6554.16 14.8766
6554.53 10.9110
6554.89 8.15084
6555.62 4.89396
6556.35 3.20567
6557.08 2.24628
6557.81 1.65669
6558.54 1.27104
6559.99 0.816347
6561.45 0.569719
6562.91 0.421717
6565.83 0.260641
6568.74 0.179533
6571.66 0.133063
6577.49 0.0846369
6583.32 0.0617292
6589.16 0.0512038
6592.07 0.0508038
6594.99 0.0591155
6596.45 0.0739753
6597.91 0.117467
6598.63 0.176012
6599.36 0.329263
6599.73 0.520030
6600.09 0.971872
6600.28 1.47555
6600.46 2.49484
6600.55 3.43852
6600.64 4.99100
6600.73 7.70476
6600.82 12.5974
6600.91 20.1819
6601.00 25.1632
6601.09 20.0916
6601.18 12.5967
6601.26 8.32654
6601.33 5.71727
6601.41 4.10378
6601.48 3.06531
6601.64 1.88031
6601.79 1.26933
6602.09 0.689912
6602.39 0.437962
6603.00 0.228988
6603.61 0.146856
6604.82 0.0830706
6606.03 0.0589752
6608.46 0.0402580
6610.89 0.0327641
6615.74 0.0260847
6620.59 0.0227365
6640.01 0.0167754
6659.42 0.0149268
6664.27 0.0153267
6669.12 0.0172713
6671.55 0.0202611
6673.98 0.0288263
6675.19 0.0405208
6676.40 0.0722347
6677.01 0.113716
6677.62 0.219927
6677.92 0.349891
6678.22 0.650276
6678.38 0.974840
6678.53 1.60641
6678.68 3.06749
6678.76 4.55020
6678.83 7.04378
6678.92 11.2382
6679.00 14.0742
6679.09 11.2380
6679.17 7.04358
6679.27 4.05994
6679.36 2.52011
6679.46 1.68675
6679.56 1.19937
6679.75 0.691230
6679.95 0.448986
6680.33 0.235397
6680.72 0.147299
6681.50 0.0769211
6682.27 0.0501473
6683.82 0.0299290
6685.37 0.0225509
6688.48 0.0171726
6691.58 0.0153317
6703.98 0.0148408
6710.19 0.0168323
6716.39 0.0229122
6719.49 0.0312323
6721.04 0.0394054
6722.60 0.0541101
6724.15 0.0848752
6724.92 0.114861
6725.70 0.168107
6726.47 0.277208
6727.25 0.558529
6727.64 0.905073
6727.83 1.21593
6728.02 1.71644
6728.22 2.60554
6728.41 4.38483
6728.51 6.00529
6728.61 8.62474
6728.70 13.0920
6728.75 16.4233
6728.80 20.7982
6728.85 26.6714
6728.90 33.2618
6729.00 41.5816
6729.10 33.2612
6729.20 20.7975
6729.27 14.9214
6729.34 10.8977
6729.41 8.19069
6729.48 6.32968
6729.62 4.05825
6729.75 2.80908
6729.89 2.04875
6730.03 1.55819
6730.30 0.989083
6730.58 0.683265
6730.85 0.501878
6731.41 0.305842
6731.96 0.208211
6732.51 0.152781
6733.61 0.0956973
6734.71 0.0687215
6735.81 0.0542356
6738.02 0.0413269
6742.42 0.0480363
6743.53 0.0631944
6744.63 0.105304
6745.18 0.160162
6745.73 0.299280
6746.00 0.466853
6746.28 0.846014
6746.42 1.24587
6746.55 2.00003
6746.69 3.65733
6746.76 5.24773
6746.83 7.77243
6746.92 12.4306
6747.00 15.5162
6747.09 12.4306
6747.17 7.77250
6747.24 5.36539
6747.30 3.80599
6747.43 2.13836
6747.56 1.34885
6747.69 0.925363
6747.95 0.515639
6748.20 0.332805
6748.72 0.179366
6749.24 0.119059
6750.27 0.0736259
6751.30 0.0586182
6755.43 0.0647529
6757.50 0.0959144
6758.53 0.127882
6759.57 0.185379
6760.60 0.303152
6761.12 0.414470
6761.63 0.604566
6762.15 0.970524
6762.41 1.29376
6762.67 1.80979
6762.92 2.70773
6763.18 4.43940
6763.31 5.96011
6763.44 8.32794
6763.57 12.1681
6763.70 18.4751
6763.85 29.5702
6764.00 36.9740
6764.15 29.5689
6764.30 18.4738
6764.45 11.3690
6764.60 7.41237
6764.75 5.11353
6764.90 3.71690
6765.06 2.80696
6765.21 2.19316
6765.51 1.43906
6765.81 1.01536
6766.11 0.754886
6766.71 0.465790
6767.31 0.317306
6767.91 0.231455
6768.51 0.177270
6769.12 0.141018
6770.32 0.0969156
6771.52 0.0722190
6773.93 0.0470403
6776.34 0.0352378
6778.74 0.0289520
6783.55 0.0235417
6788.37 0.0232981
6793.18 0.0297479
6795.59 0.0403221
6797.99 0.0706253
6799.20 0.111717
6800.40 0.222197
6801.00 0.365053
6801.60 0.724567
6801.90 1.15406
6802.20 2.11996
6802.35 3.12755
6802.50 5.00462
6802.58 6.59826
6802.65 8.99769
6802.73 12.7234
6802.80 18.6045
6802.85 23.7484
6802.90 29.7160
6803.00 37.1946
6803.10 29.7155
6803.20 18.6038
6803.26 13.4910
6803.32 10.0127
6803.45 5.95097
6803.57 3.87115
6803.70 2.69866
6803.95 1.51205
6804.21 0.965178
6804.71 0.492244
6805.22 0.300313
6806.23 0.149321
6807.24 0.0923472
6809.26 0.0496291
6811.28 0.0341164
6813.30 0.0268190
6815.32 0.0228423
6819.35 0.0189654
6827.43 0.0166444
6835.51 0.0165988
6851.67 0.0199124
6855.71 0.0220665
6859.75 0.0264717
6861.77 0.0314665
6863.79 0.0439492
6865.81 0.102021
6866.32 0.155755
6866.82 0.290356
6867.08 0.450541
6867.33 0.806986
6867.45 1.17401
6867.58 1.85541
6867.71 3.28528
6867.77 4.60063
6867.83 6.63922
6867.92 10.6241
6868.00 13.2509
6868.08 10.6241
6868.17 6.63930
6868.24 4.37577
6868.31 2.98870
6868.46 1.59397
6868.61 0.977216
6868.75 0.661319
6869.04 0.363331
6869.33 0.234533
6869.92 0.128458
6870.50 0.0873433
6872.83 0.0460335
6877.49 0.0435657
6879.82 0.0529377
6882.15 0.0792989
6883.32 0.113925
6884.48 0.205328
6885.07 0.322683
6885.65 0.617441
6885.94 0.970660
6886.23 1.76407
6886.38 2.59343
6886.52 4.14205
6886.60 5.47140
6886.67 7.48459
6886.74 10.6324
6886.81 15.4962
6886.91 24.8223
6887.00 30.9510
6887.09 24.7164
6887.19 15.4963
6887.26 10.7957
6887.33 7.72883
6887.39 5.72340
6887.46 4.39173
6887.60 2.78549
6887.74 1.91499
6888.01 1.06348
6888.29 0.682448
6888.83 0.360548
6889.38 0.232890
6890.48 0.135467
6891.58 0.101407
6893.78 0.0830492
6895.97 0.0892739
6898.17 0.117282
6900.36 0.201158
6901.46 0.313061
6902.01 0.420048
6902.56 0.605986
6903.11 0.972513
6903.38 1.30689
6903.66 1.85553
6903.93 2.85421
6904.07 3.68336
6904.21 4.92699
6904.34 6.89754
6904.48 10.2342
6904.62 16.3118
6904.69 21.2232
6904.75 27.8773
6904.88 44.5413
6905.00 55.6361
6905.12 44.5403
6905.25 27.8764
6905.35 18.7434
6905.45 13.0394
6905.55 9.44748
6905.65 7.10354
6905.85 4.39205
6906.05 2.96894
6906.25 2.13934
6906.45 1.61647
6906.85 1.02294
6907.25 0.711275
6907.65 0.528556
6908.44 0.334678
6909.24 0.239634
6910.04 0.186626
6911.64 0.133560
6913.24 0.110106
6914.84 0.0990088
6918.04 0.0930392
6924.43 0.111259
6927.63 0.144123
6929.23 0.214726
6930.03 0.408635
6930.43 0.883899
6930.63 1.72764
6930.73 2.72376
6930.83 4.67346
6930.92 7.39780
6931.00 9.20253
6931.09 7.39918
6931.17 4.67630
6931.27 2.70121
6931.37 1.70609
6931.58 0.875013
6931.99 0.417655
6932.80 0.243139
6934.43 0.204076
6937.69 0.239424
6940.95 0.316574
6944.21 0.448919
6945.84 0.550820
6947.47 0.692781
6949.10 0.898075
6950.73 1.20916
6952.36 1.70895
6953.99 2.57217
6954.81 3.24813
6955.62 4.19134
6956.44 5.52505
6957.25 7.39941
6958.63 11.8279
6960.00 14.7782
6961.38 11.8267
6962.75 7.40358
6964.37 4.22092
6965.99 2.61417
6967.60 1.76451
6969.22 1.28940
6970.84 1.03172
6972.45 0.970885
6973.26 1.07859
6974.07 1.46957
6974.48 1.97117
6974.68 2.40874
6974.88 3.08840
6975.08 4.20982
6975.28 6.21084
6975.49 10.1349
6975.59 13.5025
6975.69 18.3928
6975.84 29.2084
6976.00 36.3630
6976.16 29.1176
6976.31 18.3594
6976.41 13.7027
6976.50 10.4185
6976.69 6.47338
6976.88 4.39142
6977.07 3.19241
6977.26 2.44737
6977.45 1.95508
6977.83 1.36628
6978.21 1.03987
6978.59 0.838657
6979.35 0.609727
6980.87 0.407151
6982.39 0.313196
6985.43 0.218338
6988.47 0.167505
6994.55 0.112041
7000.63 0.0825029
7012.79 0.0532611
7024.95 0.0406689
7037.10 0.0361033
7049.26 0.0389720
7055.34 0.0461840
7058.38 0.0535818
7061.42 0.0668594
7064.46 0.0942723
7065.98 0.120651
7067.50 0.167095
7069.02 0.261295
7069.78 0.349988
7070.54 0.501870
7071.30 0.794725
7071.68 1.05515
7072.06 1.47350
7072.44 2.20460
7072.82 3.63932
7073.01 4.91896
7073.20 6.94318
7073.39 10.2955
7073.58 15.9027
7073.79 25.4449
7074.00 31.7654
7074.21 25.3957
7074.42 15.9018
7074.61 10.4556
7074.79 7.16372
7074.97 5.13439
7075.15 3.83123
7075.51 2.34749
7075.87 1.58046
7076.23 1.13767
7076.60 0.860500
7077.32 0.547490
7078.05 0.384704
7078.77 0.290024
7080.22 0.190451
7081.67 0.142677
7083.11 0.116951
7086.01 0.0937962
7091.81 0.0895627
7097.60 0.113146
7100.50 0.137115
7103.39 0.174831
7106.29 0.236542
7109.19 0.345437
7112.08 0.562462
7113.53 0.761580
7114.98 1.09144
7116.43 1.69554
7117.15 2.20309
7117.88 2.97179
7118.60 4.20839
7118.97 5.12019
7119.33 6.34068
7119.69 8.00929
7120.05 10.3361
7120.41 13.6236
7120.78 18.2397
7121.39 29.1838
7122.00 36.4610
7122.61 29.1588
7123.23 18.2337
7123.77 11.8413
7124.31 8.02135
7124.85 5.69429
7125.39 4.21820
7126.47 2.55279
7127.56 1.70005
7128.64 1.21064
7129.72 0.905418
7131.89 0.561779
7134.05 0.383303
7136.22 0.279145
7138.39 0.213103
7140.55 0.168666
7144.88 0.114392
7149.21 0.0837896
7157.88 0.0523222
7166.54 0.0373230
7175.20 0.0290749
7192.52 0.0209912
7209.85 0.0176886
7227.17 0.0166614
7244.50 0.0177800
7253.16 0.0219854
7255.33 0.0258583
7257.49 0.0362443
7258.58 0.0500295
7259.66 0.0868066
7260.20 0.134238
7260.74 0.253474
7261.01 0.395907
7261.28 0.714419
7261.42 1.04737
7261.55 1.66665
7261.69 2.98188
7261.76 4.21829
7261.82 6.14048
7261.91 9.81937
7262.00 12.2603
7262.09 9.81926
7262.18 6.14036
7262.25 3.99944
7262.33 2.72441
7262.49 1.44225
7262.64 0.879410
7262.80 0.590839
7263.11 0.321697
7263.42 0.205481
7264.03 0.109691
7264.65 0.0723097
7265.89 0.0437435
7267.13 0.0333235
7269.61 0.0259111
7272.08 0.0235981
7281.99 0.0238165
7286.95 0.0261579
7291.90 0.0313982
7294.38 0.0375333
7296.85 0.0531668
7298.09 0.0734847
7299.33 0.127272
7299.95 0.196681
7300.57 0.372022
7300.88 0.582939
7301.19 1.05994
7301.34 1.56230
7301.50 2.51837
7301.65 4.60727
7301.73 6.59382
7301.81 9.76804
7301.90 15.6046
7302.00 19.5060
7302.10 15.6044
7302.19 9.76793
7302.26 7.03169
7302.32 5.17698
7302.45 3.04601
7302.58 1.97301
7302.70 1.37473
7302.96 0.775105
7303.22 0.501123
7303.73 0.265812
7304.24 0.171089
7305.27 0.0970023
7306.29 0.0695355
7308.34 0.0497930
7310.40 0.0435581
7314.50 0.0411790
7318.60 0.0430614
7326.80 0.0522471
7335.01 0.0687154
7343.21 0.0981474
7351.41 0.157414
7355.51 0.212765
7359.61 0.307415
7361.67 0.383401
7363.72 0.498171
7365.77 0.719203
7366.28 0.835613
7366.79 1.05946
7367.05 1.28979
7367.31 1.76194
7367.43 2.22505
7367.56 3.05553
7367.69 4.72831
7367.75 6.21329
7367.82 8.46225
7367.91 13.0535
7368.00 16.1011
7368.09 13.0806
7368.18 8.51663
7368.25 6.23143
7368.32 4.74830
7368.45 3.12027
7368.58 2.34415
7368.71 1.93313
7368.98 1.55639
7369.24 1.41822
7370.30 1.45024
7371.35 1.76082
7372.41 2.26356
7373.47 3.04129
7374.53 4.27779
7375.58 6.32622
7376.64 9.76948
7377.82 15.5931
7379.00 19.4643
7380.19 15.5598
7381.37 9.72035
7382.35 6.48764
7383.33 4.48900
7384.31 3.24068
7385.29 2.43112
7387.25 1.50056
7389.21 1.01541
7391.17 0.734152
7393.13 0.557897
7397.05 0.359625
7400.97 0.258534
7404.89 0.202351
7412.73 0.154331
7420.57 0.158250
7424.49 0.182383
7428.41 0.233903
7432.33 0.343845
7434.29 0.446025
7436.25 0.614639
7437.23 0.742435
7438.21 0.918207
7439.19 1.16823
7440.17 1.53871
7441.15 2.11556
7442.13 3.06787
7442.62 3.78172
7443.11 4.74002
7443.60 6.03544
7444.09 7.77139
7445.05 12.4111
7446.00 15.5020
7446.96 12.4059
7447.91 7.76515
7448.57 5.54863
7449.22 4.05704
7449.88 3.05450
7450.53 2.36654
7451.84 1.52611
7453.15 1.06119
7454.46 0.780538
7455.77 0.599230
7458.38 0.387956
7461.00 0.274606
7463.62 0.207038
7468.86 0.134218
7474.09 0.0987685
7479.33 0.0817926
7484.57 0.0898234
7485.87 0.108204
7487.18 0.162096
7487.84 0.233937
7488.49 0.417809
7488.82 0.640864
7489.15 1.14876
7489.31 1.68709
7489.47 2.71038
7489.56 3.60378
7489.64 4.98055
7489.72 7.18278
7489.80 10.7173
7489.90 17.1273
7490.00 21.3767
7490.10 17.1267
7490.20 10.7165
7490.29 6.82080
7490.38 4.56506
7490.48 3.20939
7490.57 2.37158
7490.75 1.43654
7490.94 0.966932
7491.31 0.532364
7491.68 0.345910
7492.41 0.193109
7493.15 0.133431
7494.63 0.0870260
7496.11 0.0692479
7499.06 0.0551744
7502.01 0.0497463
7507.92 0.0499766
7510.87 0.0700829
7512.35 0.144390
7513.09 0.372452
7513.46 0.922713
7513.64 1.85629
7513.74 2.89581
7513.83 4.84088
7513.91 7.72698
7514.00 9.63857
7514.09 7.72686
7514.17 4.83794
7514.30 2.48480
7514.42 1.44196
7514.66 0.650111
7515.15 0.250884
7516.13 0.102734
7518.09 0.0575358
7522.00 0.0475238
7525.91 0.0601269
7527.87 0.113662
7528.85 0.288586
7529.09 0.435663
7529.34 0.757919
7529.58 1.68242
7529.70 2.89009
7529.83 5.57009
7529.91 8.90876
7530.00 11.1009
7530.09 8.86820
7530.18 5.56997
7530.24 3.85815
7530.31 2.75212
7530.44 1.56211
7530.70 0.688405
7530.96 0.392425
7531.23 0.260084
7532.28 0.104600
7533.33 0.0703598
7534.38 0.0577183
7536.48 0.0486828
7538.58 0.0459055
7546.99 0.0466978
7563.81 0.0641904
7572.22 0.0830911
7580.63 0.119723
7584.83 0.155586
7589.04 0.230229
7591.14 0.313031
7592.19 0.386131
7593.24 0.506964
7594.29 0.734211
7594.82 0.934477
7595.35 1.25489
7595.87 1.81772
7596.13 2.27236
7596.40 2.93225
7596.66 3.94268
7596.92 5.56820
7597.05 6.76346
7597.19 8.32446
7597.32 10.3857
7597.45 13.0820
7597.72 20.8142
7598.00 25.9403
7598.14 24.4153
7598.28 20.7903
7598.55 13.0953
7598.76 9.15535
7598.96 6.60557
7599.17 4.93515
7599.38 3.82124
7599.79 2.49488
7600.20 1.78417
7600.61 1.36424
7601.02 1.09922
7601.84 0.801840
7602.66 0.653103
7603.48 0.574081
7605.13 0.513203
7608.41 0.554863
7611.70 0.726027
7614.98 1.07287
7616.63 1.36575
7618.27 1.80333
7619.91 2.48868
7621.56 3.62622
7622.38 4.48310
7623.20 5.63582
7624.02 7.19938
7624.84 9.30170
7626.42 14.8522
7628.00 18.5426
7629.59 14.8244
7631.17 9.26201
7632.77 5.67131
7634.38 3.67714
7635.98 2.53416
7637.58 1.83841
7639.19 1.38979
7640.79 1.08599
7644.00 0.715475
7647.20 0.508277
7650.41 0.381852
7656.82 0.244466
7663.23 0.181256
7669.65 0.164863
7672.85 0.184234
7674.46 0.210790
7676.06 0.262840
7677.66 0.373893
7678.46 0.479931
7679.26 0.660902
7680.07 1.00574
7680.47 1.30697
7680.87 1.77947
7681.27 2.58109
7681.67 4.07723
7681.87 5.34668
7682.07 7.24119
7682.27 10.1646
7682.47 14.6924
7682.74 23.4724
7683.00 29.3299
7683.27 23.4698
7683.53 14.6888
7683.76 9.66899
7683.99 6.62306
7684.21 4.75023
7684.44 3.54993
7684.90 2.18577
7685.35 1.48153
7685.81 1.07512
7686.27 0.820604
7687.18 0.532878
7688.09 0.382499
7689.00 0.294288
7690.82 0.200288
7692.65 0.153994
7694.47 0.128315
7698.12 0.105126
7701.77 0.104251
7703.59 0.113607
7705.41 0.135752
7707.24 0.187429
7708.15 0.239399
7709.06 0.332357
7709.97 0.522025
7710.43 0.700074
7710.88 1.00179
7711.34 1.57587
7711.57 2.07765
7711.79 2.86868
7712.02 4.21295
7712.25 6.73721
7712.36 8.88640
7712.48 12.1305
7712.59 17.1820
7712.71 24.9992
7712.78 32.0088
7712.85 40.0170
7713.00 49.9359
7713.07 46.9834
7713.15 39.9073
7713.30 24.9974
7713.46 14.4133
7713.63 8.97653
7713.80 6.02237
7713.97 4.28969
7714.14 3.19616
7714.31 2.47467
7714.64 1.61053
7714.98 1.13389
7715.31 0.845877
7715.99 0.529393
7716.66 0.369044
7717.33 0.276810
7718.68 0.180232
7720.03 0.133306
7721.37 0.107047
7724.06 0.0805845
7726.75 0.0692972
7729.45 0.0669495
7732.14 0.0861584
7733.48 0.164354
7734.16 0.401079
7734.49 0.950564
7734.66 1.83218
7734.74 2.77022
7734.83 4.43869
7734.91 7.06155
7735.00 8.82356
7735.09 7.06139
7735.17 4.43845
7735.26 2.76992
7735.34 1.82351
7735.51 0.940652
7735.85 0.394882
7736.53 0.161105
7737.89 0.0831410
7740.61 0.0613201
7746.05 0.0602593
7751.48 0.0703217
7756.92 0.0924468
7762.36 0.140929
7765.07 0.187984
7767.79 0.269909
7770.51 0.430813
7771.87 0.576146
7773.23 0.813270
7774.59 1.23698
7775.27 1.58485
7775.95 2.09821
7776.63 2.89661
7777.31 4.20863
7777.65 5.19086
7777.99 6.50682
7778.33 8.28174
7778.67 10.6467
7779.33 17.0287
7780.00 21.2731
7780.67 17.0148
7781.34 10.6429
7781.77 7.75033
7782.20 5.75485
7783.05 3.42548
7783.91 2.23066
7784.77 1.55774
7785.63 1.14591
7786.49 0.877876
7788.21 0.562991
7789.93 0.392831
7791.65 0.290946
7795.09 0.180557
7798.52 0.125544
7801.96 0.0952568
7805.40 0.0828375
7807.12 0.102036
7807.98 0.183359
7808.41 0.402668
7808.62 0.818924
7808.73 1.33883
7808.83 2.44115
7808.92 3.86452
7809.00 4.82267
7809.08 3.86396
7809.17 2.44007
7809.33 1.02365
7809.49 0.542985
7809.82 0.244635
7810.47 0.114673
7811.77 0.0685740
7814.37 0.0507076
7819.58 0.0396478
7829.99 0.0308271
7840.40 0.0307685
7843.00 0.0342342
7845.61 0.0447974
7846.91 0.0593144
7848.21 0.0985743
7848.86 0.149738
7849.51 0.280209
7849.84 0.439081
7850.16 0.804063
7850.33 1.19544
7850.49 1.95050
7850.65 3.66910
7850.73 5.36964
7850.81 8.20968
7850.91 13.1020
7851.00 16.3967
7851.09 13.1019
7851.19 8.20953
7851.29 4.81975
7851.39 3.04233
7851.50 2.05370
7851.60 1.47439
7851.81 0.860210
7852.02 0.564651
7852.43 0.302253
7852.84 0.193461
7853.67 0.106418
7854.50 0.0734320
7856.15 0.0490779
7857.81 0.0410124
7864.43 0.0423151
7867.74 0.0559313
7869.39 0.0701000
7871.04 0.0958270
7872.70 0.149415
7873.53 0.200916
7874.35 0.290914
7875.18 0.470066
7875.60 0.634646
7876.01 0.907507
7876.42 1.41045
7876.63 1.83577
7876.84 2.48000
7877.04 3.52713
7877.25 5.35617
7877.35 6.81233
7877.46 8.84430
7877.56 11.7457
7877.66 15.8666
7877.83 25.3877
7878.00 31.7406
7878.17 25.3867
7878.34 15.8656
7878.50 9.87548
7878.67 6.47716
7878.83 4.49826
7879.00 3.27991
7879.16 2.48779
7879.33 1.94800
7879.66 1.28658
7879.99 0.912264
7880.32 0.681694
7880.98 0.425361
7881.64 0.293603
7882.30 0.217427
7883.61 0.137395
7884.93 0.0986106
7886.25 0.0771463
7888.89 0.0560393
7891.53 0.0472402
7894.16 0.0438965
7899.44 0.0463477
7904.71 0.0615604
7907.35 0.0784604
7909.99 0.109740
7912.63 0.175743
7913.95 0.239803
7915.26 0.352621
7916.58 0.579800
7917.24 0.790912
7917.90 1.14663
7918.56 1.81584
7918.89 2.39441
7919.22 3.29288
7919.55 4.79873
7919.71 5.95450
7919.88 7.54594
7920.04 9.83097
7920.21 13.1960
7920.37 18.2756
7920.54 25.8893
7920.77 41.4516
7921.00 51.7676
7921.12 48.7094
7921.23 41.3778
7921.46 25.8869
7921.73 14.8585
7922.00 9.19480
7922.26 6.13719
7922.53 4.35197
7922.80 3.23428
7923.07 2.49342
7923.60 1.60856
7924.13 1.12301
7924.67 0.829167
7925.74 0.507430
7926.80 0.344798
7927.87 0.251482
7928.94 0.193086
7930.01 0.154164
7932.14 0.107201
7934.28 0.0811060
7938.55 0.0548896
7942.82 0.0429791
7947.09 0.0369751
7955.64 0.0326774
7964.18 0.0336113
7972.72 0.0387946
7981.27 0.0530177
7983.40 0.0620036
7985.54 0.0820002
7986.61 0.106041
7987.68 0.167017
7988.21 0.243538
7988.74 0.432694
7989.01 0.654502
7989.28 1.14295
7989.41 1.64096
7989.54 2.54278
7989.68 4.37819
7989.74 6.03056
7989.81 8.50452
7989.91 13.5499
7990.00 16.9464
7990.10 13.5502
7990.19 8.50525
7990.26 5.88322
7990.33 4.20540
7990.48 2.37703
7990.62 1.51140
7990.76 1.04967
7991.05 0.600457
7991.33 0.399995
7991.90 0.232120
7992.47 0.166553
7993.61 0.117974
7994.75 0.102543
7997.04 0.0975504
7999.32 0.104134
8003.88 0.134377
8008.44 0.191981
8013.01 0.306473
8015.29 0.409852
8017.57 0.577969
8018.71 0.704327
8019.85 0.877093
8020.99 1.12129
8022.13 1.48010
8023.27 2.03412
8024.41 2.93783
8025.56 4.49885
8026.13 5.68944
8026.70 7.26718
8027.85 11.6221
8029.00 14.5199
8030.15 11.6140
8031.31 7.26340
8032.20 4.97387
8033.09 3.51231
8033.98 2.57329
8034.87 1.95090
8036.65 1.21949
8038.43 0.829857
8040.21 0.600560
8041.99 0.455412
8045.55 0.290379
8049.11 0.206250
8052.67 0.165036
8054.45 0.161175
8056.23 0.185531
8057.12 0.230783
8058.01 0.359466
8058.45 0.523986
8058.90 0.920299
8059.12 1.36491
8059.34 2.27335
8059.46 3.13166
8059.57 4.54807
8059.68 7.05956
8059.79 11.7010
8059.89 18.6490
8060.00 23.3100
8060.11 18.6476
8060.21 11.6984
8060.29 8.29709
8060.36 6.02111
8060.51 3.48284
8060.66 2.24258
8060.81 1.56745
8061.11 0.897473
8061.41 0.594306
8062.01 0.334835
8062.61 0.229551
8063.80 0.144676
8065.00 0.110471
8067.39 0.0809400
8069.79 0.0669694
8074.58 0.0520541
8079.36 0.0434771
8088.94 0.0335978
8098.52 0.0282813
8117.67 0.0241862
8127.25 0.0261900
8132.04 0.0365106
8134.43 0.0745785
8135.63 0.202605
8135.93 0.314200
8136.23 0.569343
8136.52 1.36266
8136.67 2.53528
8136.75 3.68959
8136.82 5.55956
8136.91 8.89294
8137.00 11.0948
8137.09 8.89284
8137.18 5.55945
8137.28 3.19043
8137.38 1.98122
8137.59 0.944757
8137.79 0.548518
8138.00 0.360272
8138.82 0.126628
8140.45 0.0517763
8143.73 0.0308104
8150.28 0.0260381
8163.39 0.0276857
8176.50 0.0330884
8189.60 0.0434295
8202.71 0.0647053
8209.26 0.0847537
8215.82 0.119166
8222.37 0.186188
8225.65 0.246706
8228.92 0.345792
8230.56 0.420930
8232.20 0.524534
8233.84 0.672771
8235.48 0.894514
8237.12 1.24505
8238.75 1.83605
8239.57 2.28844
8240.39 2.90706
8241.21 3.76126
8242.03 4.93162
8243.52 7.86684
8245.00 9.81883
8246.49 7.85431
8247.98 4.91486
8249.53 2.97745
8251.08 1.91960
8252.64 1.32190
8254.19 0.962069
8255.74 0.732198
8257.29 0.577911
8260.40 0.392601
8263.50 0.292860
8266.60 0.239613
8269.71 0.240788
8270.48 0.271479
8271.26 0.363385
8271.65 0.482314
8272.04 0.769053
8272.23 1.08876
8272.42 1.74125
8272.62 3.34811
8272.71 5.10471
8272.81 8.28396
8272.91 13.1295
8273.00 16.4003
8273.10 13.1282
8273.19 8.28151
8273.27 5.45288
8273.36 3.75017
8273.52 2.05637
8273.69 1.30542
8273.85 0.921768
8274.18 0.561172
8274.51 0.404069
8275.18 0.273219
8275.84 0.220703
8277.16 0.178095
8278.48 0.160812
8283.78 0.144074
8289.07 0.154851
8294.36 0.189794
8299.66 0.269573
8302.30 0.344719
8303.63 0.398644
8304.95 0.469299
8306.27 0.564157
8307.60 0.694996
8308.26 0.779802
8308.92 0.881984
8309.58 1.00686
8310.24 1.16088
8310.90 1.35406
8311.57 1.59965
8312.23 1.91703
8312.89 2.33359
8313.55 2.89158
8314.21 3.64826
8314.87 4.68652
8315.54 6.09540
8316.77 9.72130
8318.00 12.1345
8318.62 11.4216
8319.23 9.71635
8320.47 6.09547
8321.80 3.63926
8323.13 2.32702
8324.46 1.59752
8325.79 1.16357
8327.12 0.888834
8328.45 0.706234
8331.12 0.490357
8333.78 0.380027
8336.44 0.335685
8337.77 0.346267
8339.10 0.419589
8339.77 0.529890
8340.43 0.816956
8340.77 1.16014
8341.10 1.92129
8341.27 2.69907
8341.43 4.11199
8341.52 5.27993
8341.60 6.99311
8341.68 9.56646
8341.76 13.4312
8341.88 21.3584
8342.00 26.6432
8342.12 21.3563
8342.24 13.4274
8342.37 7.79761
8342.51 4.90455
8342.64 3.34178
8342.78 2.42881
8343.05 1.47744
8343.32 1.02371
8343.87 0.622698
8344.41 0.456013
8345.50 0.321822
8346.59 0.270050
8348.76 0.232334
8350.94 0.223269
8355.29 0.237880
8359.64 0.285817
8364.00 0.380871
8368.35 0.567042
8370.52 0.725752
8372.70 0.962920
8374.88 1.32590
8377.05 1.88108
8380.03 2.98566
8383.00 3.72030
8385.98 2.97960
8388.95 1.87162
8390.82 1.37876
8392.69 1.03573
8396.44 0.630082
8400.18 0.419641
8403.92 0.299965
8407.66 0.226347
8411.41 0.178211
8418.89 0.121721
8426.38 0.0917563
8433.86 0.0750229
8441.35 0.0679618
8445.09 0.0760288
8446.96 0.115123
8447.90 0.245666
8448.37 0.597939
8448.60 1.29259
8448.72 2.20732
8448.83 4.24063
8448.92 6.75705
8449.00 8.42429
8449.08 6.75691
8449.17 4.24041
8449.27 2.32389
8449.38 1.40404
8449.59 0.668858
8450.02 0.275126
8450.87 0.123508
8452.58 0.0757130
8456.00 0.0622303
8462.83 0.0607992
8469.66 0.0663456
8476.49 0.0786949
8483.33 0.102933
8490.16 0.153501
8493.57 0.200825
8496.99 0.281029
8500.41 0.440662
8502.11 0.628734
8502.97 0.929461
8503.18 1.13222
8503.40 1.53619
8503.61 2.57678
8503.72 3.80880
8503.82 6.24499
8503.91 9.56871
8504.00 11.8018
8504.09 9.59309
8504.18 6.29374
8504.30 3.63612
8504.42 2.44871
8504.67 1.56293
8504.92 1.27940
8505.16 1.17769
8506.15 1.22793
8507.13 1.51094
8508.12 1.97237
8509.11 2.70532
8510.09 3.91739
8511.08 6.03934
8511.57 7.67887
8512.06 9.86472
8513.03 15.7659
8514.00 19.6977
8514.97 15.7603
8515.94 9.85789
8516.69 6.76589
8517.43 4.78552
8518.18 3.51111
8518.92 2.66534
8520.42 1.67013
8521.91 1.13953
8523.40 0.826860
8524.89 0.628640
8527.87 0.402919
8530.86 0.286797
8533.84 0.226138
8536.82 0.227904
8537.57 0.263099
8538.32 0.367906
8538.69 0.502658
8539.06 0.824448
8539.25 1.18035
8539.44 1.89179
8539.62 3.59167
8539.71 5.38772
8539.81 8.56152
8539.90 13.6260
8540.00 16.9834
8540.10 13.6244
8540.19 8.55854
8540.26 6.18553
8540.32 4.56671
8540.45 2.72761
8540.58 1.80296
8540.71 1.28763
8540.97 0.772077
8541.23 0.534615
8541.74 0.329221
8542.26 0.245037
8543.29 0.176609
8544.32 0.149245
8546.39 0.128344
8548.45 0.125902
8550.52 0.141063
8551.55 0.161189
8552.58 0.200113
8553.62 0.283150
8554.65 0.500408
8555.17 0.767847
8555.68 1.38910
8555.94 2.05942
8556.20 3.37654
8556.33 4.55256
8556.46 6.41477
8556.59 9.50315
8556.65 11.7978
8556.71 14.7138
8556.79 18.8417
8556.86 23.4900
8557.00 29.3364
8557.14 23.4889
8557.29 14.7123
8557.43 9.05330
8557.57 5.91183
8557.72 4.09037
8557.86 2.98608
8558.00 2.26729
8558.15 1.78305
8558.43 1.18853
8558.72 0.854739
8559.01 0.649602
8559.58 0.421665
8560.16 0.304782
8560.73 0.237050
8561.88 0.165741
8563.03 0.131076
8564.17 0.111874
8566.47 0.0933460
8571.06 0.0860626
8575.65 0.0985133
8580.25 0.137141
8582.54 0.177265
8584.84 0.248978
8587.13 0.392864
8588.28 0.525117
8589.43 0.744462
8590.58 1.14568
8591.15 1.48267
8591.73 1.99249
8592.30 2.80983
8592.87 4.21697
8593.16 5.31521
8593.45 6.84297
8593.73 8.99519
8594.02 11.9952
8594.51 19.1772
8595.00 23.9638
8595.49 19.1742
8595.98 11.9919
8596.40 7.88723
8596.82 5.39375
8597.24 3.85933
8597.66 2.87725
8598.50 1.75840
8599.35 1.18035
8600.19 0.846657
8601.03 0.637687
8602.71 0.401363
8604.39 0.278094
8606.07 0.205922
8609.44 0.129055
8612.80 0.0910680
8616.17 0.0695474
8622.90 0.0474298
8629.63 0.0374441
8636.35 0.0341019
8639.72 0.0358515
8643.08 0.0448052
8644.77 0.0584433
8646.45 0.0968664
8647.29 0.148157
8648.13 0.282834
8648.55 0.451846
8648.97 0.858023
8649.18 1.31856
8649.39 2.27346
8649.50 3.18103
8649.60 4.71737
8649.71 7.51509
8649.81 12.8531
8649.91 20.5879
8650.00 25.6874
8650.09 20.5876
8650.19 12.8528
8650.30 7.44301
8650.40 4.62227
8650.51 3.09453
8650.62 2.20718
8650.83 1.27432
8651.05 0.828647
8651.48 0.434492
8651.91 0.271921
8652.77 0.142204
8653.63 0.0928381
8655.35 0.0556524
8657.07 0.0423279
8660.52 0.0336619
8663.96 0.0332035
8667.40 0.0389169
8669.12 0.0459689
8670.84 0.0594263
8672.57 0.0883271
8673.43 0.116662
8674.29 0.166886
8675.15 0.268946
8676.01 0.527086
8676.44 0.837334
8676.87 1.53780
8677.08 2.27003
8677.30 3.65436
8677.41 4.84829
8677.51 6.64686
8677.62 9.50246
8677.73 14.0293
8677.80 17.9103
8677.86 22.4082
8678.00 28.0443
8678.14 22.4075
8678.27 14.0286
8678.39 9.27352
8678.50 6.38333
8678.62 4.57623
8678.73 3.42155
8678.96 2.09484
8679.19 1.40871
8679.42 1.00945
8679.64 0.759111
8680.10 0.476192
8680.56 0.328254
8681.02 0.241805
8681.93 0.149774
8682.85 0.104472
8683.76 0.0788840
8685.59 0.0525216
8687.42 0.0398928
8689.25 0.0328718
8692.91 0.0257444
8700.23 0.0206339
8707.55 0.0191384
8722.19 0.0201223
8729.51 0.0246937
8733.17 0.0384065
8735.00 0.0846690
8735.91 0.231811
8736.37 0.617561
8736.60 1.35465
8736.71 2.28542
8736.83 4.27139
8736.91 6.83444
8737.00 8.51934
8737.09 6.83443
8737.17 4.27145
8737.31 2.02910
8737.45 1.12015
8737.73 0.480158
8738.28 0.175835
8739.38 0.0681329
8741.59 0.0369181
8746.02 0.0315209
8750.44 0.0354519
8754.86 0.0449007
8759.28 0.0655196
8761.49 0.0857705
8763.70 0.121958
8765.91 0.196721
8767.02 0.268441
8768.12 0.393510
8769.23 0.642048
8769.78 0.870087
8770.33 1.24800
8770.89 1.94310
8771.16 2.52861
8771.44 3.41856
8771.72 4.86163
8771.99 7.36476
8772.13 9.33835
8772.27 12.1093
8772.41 16.0564
8772.54 21.6479
8772.77 34.6389
8773.00 43.3048
8773.23 34.6371
8773.46 21.6462
8773.68 13.5424
8773.90 8.91408
8774.12 6.20470
8774.34 4.53026
8774.56 3.43862
8774.78 2.69319
8775.22 1.77737
8775.66 1.25852
8776.09 0.939029
8776.97 0.582304
8777.85 0.398958
8778.73 0.292666
8780.49 0.180850
8782.25 0.126499
8784.01 0.0962435
8787.52 0.0658772
8791.04 0.0522163
8794.56 0.0454986
8801.59 0.0413034
8808.62 0.0441527
8815.65 0.0562098
8819.17 0.0717849
8822.69 0.112076
8824.44 0.164342
8826.20 0.302209
8827.08 0.478995
8827.52 0.644265
8827.96 0.923785
8828.40 1.45533
8828.62 1.92010
8828.84 2.64913
8829.06 3.89377
8829.28 6.23534
8829.39 8.23318
8829.50 11.2554
8829.61 15.9750
8829.72 23.3020
8829.86 37.3429
8830.00 46.6307
8830.14 37.2367
8830.28 23.3017
8830.37 17.2068
8830.46 12.9718
8830.63 7.89182
8830.80 5.21670
8830.97 3.68046
8831.15 2.72517
8831.32 2.10149
8831.66 1.36247
8832.01 0.959230
8832.35 0.717441
8833.04 0.454281
8833.73 0.322188
8834.42 0.247145
8835.79 0.170393
8837.17 0.134918
8838.55 0.116712
8841.30 0.102343
8846.81 0.107217
8852.32 0.136690
8857.83 0.201915
8860.59 0.262708
8863.34 0.364753
8866.10 0.556903
8867.47 0.724640
8868.85 0.989798
8870.23 1.44511
8871.61 2.31646
8872.30 3.07619
8872.98 4.24918
8873.67 6.13822
8874.36 9.20580
8875.18 14.6705
8876.00 18.3141
8876.82 14.6788
8877.64 9.22581
8878.36 6.07643
8879.07 4.18257
8879.78 3.02683
8880.50 2.29213
8881.93 1.46949
8883.35 1.05912
8884.78 0.837275
8886.21 0.715268
8887.64 0.654045
8889.07 0.635913
8890.49 0.654203
8891.92 0.709499
8893.35 0.809285
8894.78 0.970030
8896.21 1.22264
8897.63 1.62333
8899.06 2.27158
8900.49 3.32001
8902.25 5.24174
8904.00 6.52009
8904.88 6.13649
8905.76 5.22411
8907.51 3.28667
8908.71 2.36440
8909.91 1.74192
8912.30 1.03320
8914.70 0.678801
8917.09 0.481659
8919.49 0.362052
8921.88 0.284465
8926.67 0.193812
8931.46 0.145513
8936.25 0.117853
8941.04 0.104624
8943.44 0.114545
8944.64 0.166633
8945.23 0.324593
8945.53 0.677333
8945.68 1.21648
8945.83 2.68234
8946.00 5.27569
8946.17 2.68170
8946.35 1.06833
8946.52 0.565569
8946.88 0.266155
8947.59 0.141246
8949.02 0.0987073
8951.87 0.0840546
8957.58 0.0779013
8968.99 0.0811029
8980.41 0.100853
8986.11 0.126023
8987.54 0.139901
8988.97 0.169010
8990.39 0.284969
8990.75 0.384193
8991.11 0.615058
8991.28 0.869203
8991.46 1.37716
8991.64 2.59679
8991.73 3.89469
8991.82 6.20323
8991.91 9.83013
8992.00 12.2656
8992.09 9.83102
8992.18 6.20509
8992.32 3.13662
8992.45 1.82084
8992.73 0.860075
8993.00 0.535440
8993.27 0.391523
8993.81 0.271867
8994.36 0.226518
8995.44 0.196040
8996.53 0.190056
9000.87 0.217159
9005.22 0.276226
9009.57 0.372281
9013.91 0.534831
9016.09 0.660138
9018.26 0.834323
9020.43 1.08374
9022.60 1.45202
9024.78 2.00961
9026.95 2.85446
9029.98 4.55736
9033.00 5.69060
9034.51 5.35509
9036.03 4.55307
9039.05 2.84988
9041.97 1.78568
9044.90 1.17844
9047.82 0.823127
9050.74 0.603634
9056.59 0.363019
9062.44 0.243269
9068.28 0.176279
9074.13 0.136534
9079.98 0.117443
9082.90 0.134203
9084.36 0.219943
9085.09 0.488480
9085.46 1.12612
9085.64 2.18093
9085.73 3.32602
9085.82 5.41647
9085.91 8.61674
9086.00 10.7408
9086.09 8.61634
9086.18 5.41575
9086.29 2.96906
9086.41 1.80594
9086.64 0.869342
9087.09 0.367613
9088.00 0.173262
9088.92 0.128663
9089.83 0.111932
9093.48 0.103503
9095.31 0.119612
9096.22 0.138403
9097.13 0.173854
9098.05 0.249012
9098.50 0.321652
9098.96 0.447972
9099.42 0.697416
9099.87 1.29364
9100.10 1.95988
9100.33 3.32946
9100.44 4.61383
9100.56 6.75629
9100.67 10.5761
9100.73 13.5777
9100.79 17.6777
9100.84 22.6070
9100.89 28.2834
9101.00 35.3025
9101.11 28.2826
9101.21 17.6766
9101.29 12.4151
9101.37 8.96319
9101.45 6.65772
9101.52 5.11868
9101.68 3.25769
9101.83 2.25065
9102.14 1.25720
9102.45 0.810337
9102.76 0.571813
9103.07 0.430755
9103.69 0.278736
9104.31 0.202717
9104.93 0.159291
9106.16 0.113851
9107.40 0.0914638
9108.64 0.0785968
9111.11 0.0646901
9116.06 0.0528491
9121.01 0.0476649
9130.91 0.0463051
9133.39 0.0497164
9135.86 0.0605851
9137.10 0.0757236
9138.34 0.116775
9138.95 0.170157
9139.57 0.305410
9139.88 0.468661
9140.19 0.838704
9140.35 1.22932
9140.50 1.96786
9140.66 3.59354
9140.73 5.14440
9140.81 7.63372
9140.91 12.2099
9141.00 15.2315
9141.10 12.2097
9141.19 7.63353
9141.26 5.24668
9141.34 3.72274
9141.48 2.07995
9141.63 1.31016
9141.78 0.899913
9142.07 0.505075
9142.37 0.329996
9142.95 0.182732
9143.54 0.124473
9144.72 0.0793746
9145.89 0.0626874
9148.24 0.0505955
9150.59 0.0467131
9159.98 0.0476377
9164.68 0.0528669
9169.38 0.0644078
9171.73 0.0772559
9174.08 0.108305
9175.25 0.147212
9176.43 0.247323
9177.01 0.373088
9177.60 0.681580
9177.89 1.03967
9178.19 1.81110
9178.33 2.57967
9178.48 3.94877
9178.63 6.63972
9178.70 8.93906
9178.77 12.3310
9178.83 15.7542
9178.89 19.6605
9179.00 24.5998
9179.11 19.6606
9179.23 12.3316
9179.30 8.97806
9179.37 6.66706
9179.52 3.98897
9179.66 2.60987
9179.81 1.83887
9180.10 1.05834
9180.39 0.698399
9180.97 0.387522
9181.55 0.262551
9182.71 0.166327
9183.88 0.132570
9186.20 0.113422
9188.53 0.114443
9193.18 0.139451
9197.83 0.192967
9202.48 0.300746
9204.81 0.397620
9207.13 0.553799
9209.46 0.827695
9210.62 1.04791
9211.78 1.36666
9212.95 1.84893
9214.11 2.61402
9215.27 3.88607
9215.85 4.82406
9216.44 6.03651
9217.72 9.64991
9219.00 12.0546
9219.64 11.3437
9220.28 9.64343
9221.57 6.03299
9222.70 3.92428
9223.83 2.66133
9224.96 1.89318
9226.10 1.40527
9228.36 0.854745
9230.63 0.572955
9232.89 0.411193
9235.16 0.310428
9239.69 0.197259
9244.22 0.139384
9248.75 0.108063
9253.28 0.102012
9255.55 0.150851
9256.68 0.334972
9256.96 0.493825
9257.25 0.850707
9257.53 1.90978
9257.67 3.37662
9257.74 4.74060
9257.81 6.85022
9257.91 10.9256
9258.00 13.6301
9258.09 10.9250
9258.19 6.84910
9258.31 3.64835
9258.44 2.16794
9258.68 1.00132
9258.93 0.583865
9259.18 0.392442
9259.68 0.227037
9260.18 0.159525
9261.17 0.105321
9262.16 0.0837505
9264.15 0.0655528
9266.14 0.0571705
9274.09 0.0430758
9290.00 0.0337468
9305.90 0.0338830
9309.88 0.0362033
9313.85 0.0422171
9315.84 0.0498327
9317.83 0.0698420
9318.82 0.0959558
9319.82 0.164433
9320.31 0.250990
9320.81 0.463341
9321.06 0.709247
9321.31 1.23591
9321.43 1.76030
9321.56 2.68001
9321.68 4.46205
9321.80 8.18488
9321.90 13.0594
9322.00 16.3362
9322.10 13.0593
9322.20 8.18489
9322.28 5.34790
9322.37 3.65084
9322.54 1.94797
9322.71 1.19287
9322.88 0.807249
9323.22 0.445650
9323.56 0.289025
9324.24 0.160386
9324.92 0.110433
9326.29 0.0726767
9327.65 0.0594144
9330.37 0.0512827
9333.10 0.0504803
9338.55 0.0559200
9344.01 0.0676284
9349.46 0.0879396
9354.91 0.125021
9357.64 0.156321
9360.36 0.205998
9361.72 0.245296
9363.09 0.310449
9364.45 0.492475
9364.79 0.625538
9365.13 0.918075
9365.30 1.22765
9365.47 1.82763
9365.64 3.20856
9365.73 4.61696
9365.81 7.03554
9365.91 11.0491
9366.00 13.7193
9366.09 11.0590
9366.19 7.05555
9366.27 4.64629
9366.36 3.23467
9366.53 1.87494
9366.70 1.29424
9366.87 1.00789
9367.22 0.755962
9367.56 0.663650
9368.24 0.625719
9368.93 0.658754
9370.30 0.821843
9371.67 1.11156
9373.04 1.61272
9373.72 2.00223
9374.41 2.54704
9375.10 3.33432
9375.78 4.50616
9376.47 6.30111
9377.15 9.05689
9378.08 14.4782
9379.00 18.0906
9379.93 14.4741
9380.85 9.05210
9381.74 5.67785
9382.63 3.74567
9383.52 2.61232
9384.41 1.91153
9386.18 1.14062
9387.96 0.755405
9389.74 0.537514
9391.52 0.403128
9395.07 0.253357
9398.63 0.176591
9402.18 0.132352
9409.29 0.0867545
9416.40 0.0665487
9423.51 0.0600092
9427.07 0.0633156
9430.62 0.0798815
9432.40 0.104745
9434.18 0.173554
9435.06 0.263610
9435.95 0.493128
9436.40 0.770493
9436.84 1.40195
9437.06 2.06843
9437.29 3.34330
9437.40 4.45005
9437.51 6.15354
9437.62 8.87495
9437.73 13.3053
9437.80 17.0132
9437.87 21.2386
9438.00 26.5694
9438.14 21.2380
9438.27 13.3046
9438.35 9.86565
9438.43 7.46070
9438.59 4.56109
9438.76 3.02616
9438.92 2.14166
9439.24 1.22961
9439.57 0.801562
9439.89 0.567453
9440.22 0.426823
9440.87 0.273128
9441.51 0.195689
9442.16 0.151332
9443.46 0.105149
9444.76 0.0828583
9446.06 0.0704941
9448.65 0.0581731
9453.84 0.0503143
9459.03 0.0495007
9469.41 0.0562331
9479.80 0.0734604
9490.18 0.110767
9495.37 0.145873
9500.56 0.204981
9505.75 0.315497
9508.34 0.410517
9510.94 0.557951
9513.54 0.803288
9514.83 0.990804
9516.13 1.24975
9517.43 1.61852
9518.73 2.15873
9520.02 2.97053
9521.32 4.18843
9523.16 6.67766
9525.00 8.33493
9525.92 7.84642
9526.85 6.67551
9528.69 4.19119
9529.81 3.12439
9530.92 2.37377
9533.16 1.47982
9535.39 1.02245
9537.62 0.783790
9539.86 0.685376
9542.09 0.755042
9543.21 0.937610
9543.76 1.12362
9544.32 1.44520
9544.88 2.05267
9545.16 2.57179
9545.44 3.36830
9545.72 4.66716
9546.00 6.95475
9546.14 8.78671
9546.28 11.3660
9546.42 15.1104
9546.56 20.4421
9546.67 26.1079
9546.78 32.5195
9547.00 40.5146
9547.11 38.1231
9547.22 32.4568
9547.45 20.4337
9547.64 13.3784
9547.84 9.17171
9548.04 6.59843
9548.23 4.97068
9548.62 3.13005
9549.02 2.19000
9549.41 1.65016
9549.80 1.31542
9550.59 0.945491
9551.37 0.764325
9552.16 0.673498
9553.73 0.636513
9555.30 0.755067
9556.08 0.898073
9556.87 1.14342
9557.66 1.58071
9558.44 2.42444
9558.83 3.15520
9559.23 4.26749
9559.62 6.02514
9560.01 8.80438
9560.51 13.9905
9561.00 17.4457
9561.50 13.9786
9561.99 8.78199
9562.45 5.62743
9562.91 3.78622
9563.37 2.68902
9563.83 2.00276
9564.75 1.23673
9565.67 0.848073
9566.59 0.624934
9567.51 0.485366
9569.35 0.326227
9571.19 0.241586
9573.02 0.190622
9576.70 0.133832
9580.38 0.103748
9584.06 0.0855328
9591.41 0.0653420
9598.77 0.0554958
9606.12 0.0512578
9613.48 0.0522495
9617.16 0.0594466
9619.00 0.0820622
9619.91 0.152581
9620.37 0.339832
9620.60 0.705055
9620.72 1.18096
9620.83 2.22831
9621.00 4.40166
9621.17 2.22726
9621.27 1.24937
9621.37 0.774798
9621.58 0.384525
9621.99 0.173383
9622.82 0.0917385
9624.47 0.0677437
9627.78 0.0661725
9634.39 0.0885559
9637.70 0.117898
9639.35 0.145171
9641.00 0.192196
9642.65 0.286295
9643.48 0.374734
9644.31 0.526623
9645.13 0.823395
9645.55 1.09116
9645.96 1.52904
9646.37 2.31563
9646.58 2.96680
9646.79 3.93088
9646.99 5.44943
9647.20 7.96925
9647.30 9.89629
9647.41 12.4824
9647.51 16.0106
9647.61 20.7843
9647.81 33.2290
9648.00 41.4640
9648.20 33.1611
9648.39 20.7858
9648.52 15.0907
9648.64 11.2069
9648.89 6.68017
9649.15 4.36059
9649.40 3.06166
9649.65 2.26619
9649.90 1.75097
9650.41 1.14618
9650.91 0.821181
9651.42 0.627807
9652.43 0.421084
9653.44 0.320714
9654.45 0.266688
9656.47 0.219394
9660.51 0.217270
9664.55 0.277805
9668.58 0.419839
9670.60 0.550771
9672.62 0.762695
9674.64 1.13372
9675.65 1.43075
9676.66 1.85849
9677.67 2.50120
9678.68 3.50966
9679.69 5.16530
9680.20 6.37313
9680.70 7.91800
9681.85 12.6569
9683.00 15.8142
9683.58 14.8835
9684.15 12.6524
9685.30 7.91276
9686.22 5.35325
9687.14 3.74265
9688.06 2.72174
9688.98 2.05268
9690.81 1.27356
9692.65 0.862643
9694.49 0.622050
9696.33 0.470054
9700.00 0.296637
9700.00 0.902290
10000.0 0.872863
12500.0 0.760030
15000.0 0.682355
17000.0 0.632095
20000.0 0.573258
25000.0 0.502092
30000.0 0.441728
35000.0 0.408253
40000.0 0.381622
50000.0 0.331318
60000.0 0.290951
70000.0 0.258972
80000.0 0.245797
99999.9 0.225524
100000 0.225302
150000 0.179525
200000 0.154826
201280 0.154283
201280 0.154283
250000 0.133593
268221 0.122167
268221 0.122167
283307 0.112706
283307 0.112706
300000 0.102238
308016 0.0985552
308016 0.0985552
350000 0.0792672
398410 0.0666823
398410 0.0666822
400000 0.0662688
406052 0.0648820
406052 0.0648819
450000 0.0548107
461133 0.0530833
475061 0.0509223
475061 0.0509222
500000 0.0470527
539980 0.0430475
580076 0.0390309
580076 0.0390309
592876 0.0377486
592876 0.0377486
593177 0.0377185
593177 0.0377185
600000 0.0370350
600991 0.0369690
600991 0.0369690
626006 0.0353051
626006 0.0353051
654917 0.0333819
654917 0.0333819
700000 0.0303830
719526 0.0296310
800000 0.0265314
832722 0.0255145
832722 0.0255145
861613 0.0246167
871375 0.0243133
871376 0.0243133
876645 0.0241495
876646 0.0241495
898334 0.0234756
898334 0.0234756
900000 0.0234238
980837 0.0215295
990688 0.0212987
990688 0.0212987
1.00000E+06 0.0210805
1.05745E+06 0.0200097
1.05745E+06 0.0200097
1.05817E+06 0.0199962
1.05818E+06 0.0199962
1.07762E+06 0.0196338
1.07762E+06 0.0196338
1.08113E+06 0.0195683
1.08113E+06 0.0195683
1.08897E+06 0.0194223
1.08897E+06 0.0194223
1.09535E+06 0.0193033
1.09535E+06 0.0193033
1.10000E+06 0.0192166
1.11106E+06 0.0189832
1.11106E+06 0.0189832
1.11501E+06 0.0188998
1.11501E+06 0.0188997
1.14187E+06 0.0183329
1.14187E+06 0.0183329
1.14410E+06 0.0182858
1.14410E+06 0.0182858
1.17077E+06 0.0177229
1.17077E+06 0.0177228
1.18778E+06 0.0173639
1.18778E+06 0.0173638
1.20000E+06 0.0171059
1.21980E+06 0.0168015
1.21981E+06 0.0168014
1.28102E+06 0.0158604
1.28102E+06 0.0158604
1.29579E+06 0.0156333
1.30000E+06 0.0155686
1.31184E+06 0.0154122
1.31185E+06 0.0154122
1.31983E+06 0.0153067
1.31983E+06 0.0153067
1.32703E+06 0.0152116
1.32703E+06 0.0152116
1.35836E+06 0.0147978
1.35836E+06 0.0147978
1.36747E+06 0.0146775
1.36747E+06 0.0146775
1.38926E+06 0.0143897
1.38926E+06 0.0143897
1.39850E+06 0.0142677
1.39850E+06 0.0142677
1.40000E+06 0.0142478
1.43932E+06 0.0138465
1.43932E+06 0.0138464
1.44976E+06 0.0137399
1.44976E+06 0.0137399
1.45077E+06 0.0137296
1.45077E+06 0.0137296
1.47491E+06 0.0134832
1.47491E+06 0.0134832
1.49356E+06 0.0132928
1.49356E+06 0.0132928
1.50000E+06 0.0132271
1.54160E+06 0.0128691
1.54160E+06 0.0128691
1.55062E+06 0.0127914
1.55062E+06 0.0127914
1.60000E+06 0.0123664
1.60443E+06 0.0123341
1.63777E+06 0.0120913
1.65584E+06 0.0119596
1.67233E+06 0.0118395
1.67335E+06 0.0118322
1.67335E+06 0.0118322
1.70000E+06 0.0116380
1.80000E+06 0.0110155
1.90000E+06 0.0104770
2.00000E+06 0.0100043
2.50000E+06 0.00810172
3.00000E+06 0.00668618
3.50000E+06 0.00548133
4.00000E+06 0.00446861
4.50000E+06 0.00363181
5.00000E+06 0.00295259
5.39114E+06 0.00253527
5.39115E+06 0.00253527
5.50000E+06 0.00241913
6.00000E+06 0.00197042
6.50000E+06 0.00161417
6.99131E+06 0.00133734
6.99131E+06 0.00133734
7.00000E+06 0.00133244
7.50000E+06 0.00112150
8.00000E+06 0.000857642
8.50000E+06 0.000722319
9.00000E+06 0.000613400
9.50000E+06 0.000527871
1.00000E+07 0.000462199
1.03812E+07 0.000423540
1.05000E+07 0.000411486
1.10000E+07 0.000402207
1.15000E+07 0.000355492
1.20000E+07 0.000365716
1.25000E+07 0.000357127
1.30000E+07 0.000396267
1.35000E+07 0.000432061
1.40000E+07 0.000510023
1.45000E+07 0.000591119
1.50000E+07 0.000696814
1.55000E+07 0.000789060
1.60000E+07 0.000859980
1.70000E+07 0.000888340
1.80000E+07 0.000767977
1.84633E+07 0.000693579
1.84633E+07 0.000693578
1.90000E+07 0.000607387
2.00000E+07 0.000472349