Se-76(n,g) ENDF/B-VII.1
Energy(eV) XS(b)
1.00000E-05 4276.00
1.25000E-05 3824.57
1.50000E-05 3491.34
2.00000E-05 3023.59
2.75000E-05 2578.53
3.50000E-05 2285.62
4.25000E-05 2074.17
5.00000E-05 1912.29
6.25000E-05 1710.40
7.50000E-05 1561.38
0.000100000 1352.19
0.000125000 1209.44
0.000150000 1104.06
0.000200000 956.142
0.000275000 815.400
0.000350000 722.775
0.000425000 655.907
0.000500000 604.716
0.000625000 540.874
0.000750000 493.748
0.00100000 427.597
0.00125000 382.454
0.00150000 349.131
0.00200000 302.355
0.00275000 257.848
0.00350000 228.557
0.00425000 207.411
0.00500000 191.222
0.00625000 171.033
0.00750000 156.130
0.0100000 135.210
0.0125000 120.934
0.0150000 110.395
0.0200000 95.6015
0.0253000 84.9971
0.0314750 76.2016
0.0376500 69.6701
0.0500000 60.4517
0.0625000 54.0651
0.0750000 49.3504
0.100000 42.7316
0.125000 38.2139
0.150000 34.8786
0.200000 30.1957
0.275000 25.7382
0.350000 22.8031
0.500000 19.0595
0.750000 15.5363
1.00000 13.4326
1.50000 10.9315
2.00000 9.43580
2.75000 8.00727
3.50000 7.06284
5.00000 5.85154
7.50000 4.70084
10.0000 4.00605
15.0000 3.16856
20.0000 2.65954
27.5000 2.16612
35.0000 1.83573
50.0000 1.40821
75.0000 1.00324
100.000 0.765198
150.000 0.496674
200.000 0.352323
244.433 0.274456
288.865 0.228180
311.081 0.219681
333.298 0.237843
344.406 0.280000
349.960 0.326234
355.514 0.413836
361.068 0.604900
363.845 0.796314
366.622 1.14519
368.011 1.43842
369.399 1.88470
370.788 2.61231
372.176 3.91849
372.870 5.00149
373.217 5.72711
373.391 6.15271
373.565 6.62868
373.738 7.16392
373.912 7.76833
373.999 8.10025
374.085 8.45434
374.172 8.83262
374.259 9.23684
374.432 10.1359
374.606 11.1744
374.780 12.3844
374.953 13.8038
375.127 15.4860
375.300 17.4984
375.474 19.9333
375.647 22.9154
375.821 26.6253
375.994 31.3133
376.168 37.3608
376.342 45.3335
376.515 56.1474
376.689 71.2991
376.862 93.4048
377.036 127.301
377.209 182.764
377.383 281.013
377.470 359.971
377.557 472.742
377.643 636.696
377.730 873.825
377.865 1397.73
378.000 1746.54
378.135 1396.79
378.270 872.855
378.389 567.739
378.508 384.727
378.627 273.281
378.746 202.378
378.983 122.387
379.221 81.4044
379.459 57.8597
379.697 43.1774
380.172 26.6356
380.648 18.0508
381.123 13.0409
381.599 9.86806
382.074 7.73384
383.025 5.13151
383.976 3.66670
384.927 2.76172
385.878 2.16389
387.780 1.44814
389.682 1.05234
391.584 0.810643
393.486 0.652226
397.290 0.463796
401.094 0.359946
408.703 0.254469
416.311 0.203752
423.919 0.174784
439.135 0.143153
469.568 0.114324
500.000 0.0991231
590.031 0.0760710
680.063 0.0709423
725.078 0.0797162
747.586 0.0915932
770.094 0.115349
792.602 0.168227
803.856 0.221266
815.109 0.317357
820.736 0.397473
823.550 0.451316
824.957 0.482936
826.363 0.518359
827.067 0.537691
827.770 0.558221
828.474 0.580051
829.177 0.603288
829.880 0.628063
830.584 0.654511
831.287 0.682786
831.990 0.713055
833.397 0.780391
834.804 0.858357
836.211 0.949316
837.617 1.05632
839.024 1.18337
840.431 1.33579
841.838 1.52080
843.244 1.74835
844.651 2.03254
846.058 2.39372
847.464 2.86231
848.871 3.48522
850.278 4.33789
851.685 5.54725
853.091 7.34057
854.498 10.1537
855.905 14.9029
856.608 18.5832
857.312 23.7328
858.015 31.1769
858.718 42.3052
859.422 59.4304
860.125 85.8572
861.063 137.248
862.000 171.318
862.938 136.875
863.875 85.4956
864.750 54.2552
865.625 36.0856
866.500 25.2914
867.374 18.5501
869.124 11.0790
870.874 7.31412
872.623 5.17524
874.373 3.85088
877.872 2.36990
881.372 1.60692
884.871 1.16417
888.370 0.885328
891.870 0.699127
898.868 0.477024
905.867 0.367141
909.366 0.348887
912.865 0.386169
914.615 0.470791
915.490 0.562360
916.365 0.733623
917.240 1.09977
917.677 1.45852
918.114 2.09579
918.552 3.39103
918.771 4.60739
918.989 6.67849
919.208 10.6286
919.317 14.0991
919.427 19.5925
919.536 29.0059
919.645 46.8704
919.700 62.2787
919.755 85.8239
919.809 123.079
919.864 182.351
919.932 291.744
920.000 364.714
920.068 291.750
920.136 182.364
920.214 104.993
920.292 65.1266
920.370 43.5509
920.448 30.9319
920.526 23.0217
920.604 17.7736
920.760 11.4995
920.916 8.05308
921.072 5.96578
921.384 3.67850
921.696 2.52008
922.008 1.85418
922.632 1.15728
923.256 0.818216
923.880 0.627496
925.128 0.430264
926.375 0.334009
927.623 0.278715
930.119 0.218518
935.111 0.165108
940.102 0.138324
950.085 0.107914
960.068 0.0895286
980.034 0.0673877
1000.00 0.0544421
1052.47 0.0372324
1104.94 0.0292683
1157.40 0.0253990
1183.64 0.0273545
1190.20 0.0307912
1196.76 0.0412785
1200.03 0.0561667
1201.67 0.0711129
1203.31 0.0984202
1204.95 0.156636
1205.77 0.214234
1206.59 0.318074
1207.00 0.404723
1207.41 0.535631
1207.82 0.746934
1208.23 1.12078
1208.44 1.42619
1208.64 1.87847
1208.85 2.58893
1209.05 3.79738
1209.26 6.09935
1209.36 8.13049
1209.46 11.3132
1209.57 16.8079
1209.67 27.1107
1209.72 35.9359
1209.77 49.3369
1209.82 70.3652
1209.87 103.555
1209.94 165.829
1210.00 206.348
1210.07 164.814
1210.13 102.766
1210.20 60.5268
1210.27 38.1362
1210.34 25.7548
1210.41 18.4857
1210.48 13.8013
1210.56 10.6717
1210.70 6.92354
1210.84 4.83263
1210.98 3.56874
1211.26 2.17430
1211.54 1.46241
1211.83 1.05259
1212.11 0.795440
1212.39 0.624130
1212.96 0.415813
1213.52 0.299474
1214.09 0.227756
1214.65 0.180596
1215.79 0.124222
1216.92 0.0931177
1219.18 0.0617361
1221.44 0.0469683
1223.70 0.0388404
1228.22 0.0305989
1237.27 0.0244191
1246.32 0.0220137
1282.50 0.0188877
1318.69 0.0188082
1327.74 0.0200320
1336.78 0.0241108
1341.30 0.0300540
1343.57 0.0360701
1345.83 0.0471234
1348.09 0.0708303
1349.22 0.0944198
1350.35 0.137223
1350.92 0.173183
1351.48 0.227728
1352.05 0.316635
1352.61 0.475464
1352.90 0.606949
1353.18 0.803972
1353.46 1.11846
1353.74 1.66329
1354.03 2.74160
1354.17 3.71979
1354.31 5.32872
1354.45 8.26882
1354.52 10.7233
1354.59 14.3502
1354.66 20.1767
1354.73 29.8877
1354.80 47.8010
1354.87 81.2741
1354.94 130.146
1355.00 161.930
1355.06 129.337
1355.13 80.6447
1355.19 50.6463
1355.25 33.4302
1355.31 23.3090
1355.37 17.0335
1355.43 12.9322
1355.49 10.1263
1355.62 6.66652
1355.74 4.70801
1355.86 3.49788
1356.10 2.15076
1356.35 1.45367
1356.59 1.04911
1356.84 0.793839
1357.08 0.623170
1357.57 0.414640
1358.05 0.297739
1358.54 0.225575
1359.03 0.177925
1360.00 0.120859
1360.98 0.0893496
1362.93 0.0574989
1364.88 0.0425191
1366.82 0.0342938
1370.72 0.0260030
1378.52 0.0199109
1386.32 0.0176558
1417.50 0.0151322
1448.69 0.0153767
1456.49 0.0164970
1464.28 0.0200566
1468.18 0.0251728
1470.13 0.0303275
1472.08 0.0397795
1474.03 0.0599915
1475.00 0.0800706
1475.98 0.116427
1476.47 0.146921
1476.95 0.193078
1477.44 0.267950
1477.93 0.401373
1478.17 0.511433
1478.42 0.675747
1478.66 0.936706
1478.90 1.38519
1479.15 2.26300
1479.27 3.05297
1479.39 4.32408
1479.51 6.59769
1479.57 8.45289
1479.63 11.1806
1479.69 15.3867
1479.76 22.2406
1479.82 34.0570
1479.88 54.5187
1479.94 87.2294
1480.00 109.040
1480.06 87.2319
1480.12 54.5223
1480.17 39.3605
1480.21 29.2152
1480.29 17.2632
1480.37 11.1833
1480.45 7.77077
1480.53 5.69131
1480.61 4.33939
1480.77 2.75516
1480.93 1.90155
1481.10 1.39111
1481.42 0.839405
1481.74 0.562163
1482.07 0.404082
1482.39 0.305547
1482.71 0.240195
1483.36 0.161154
1484.01 0.117217
1485.30 0.0725189
1486.60 0.0514035
1487.89 0.0397795
1490.48 0.0280697
1495.66 0.0195399
1500.84 0.0164648
1521.56 0.0132175
1563.00 0.0119148
1604.44 0.0115668
1625.16 0.0125934
1630.34 0.0138656
1635.52 0.0175868
1638.11 0.0227940
1640.70 0.0374691
1642.00 0.0575800
1642.64 0.0774234
1643.29 0.113062
1643.94 0.187354
1644.26 0.259101
1644.59 0.384701
1644.91 0.637126
1645.07 0.871077
1645.23 1.26074
1645.40 1.99121
1645.48 2.61805
1645.56 3.58768
1645.64 5.19147
1645.72 8.08192
1645.76 10.4767
1645.80 13.8630
1645.84 18.8503
1645.88 26.1775
1645.94 41.8794
1646.00 52.3484
1646.06 41.8807
1646.12 26.1792
1646.16 18.2607
1646.21 13.1752
1646.25 9.81118
1646.29 7.52860
1646.38 4.75676
1646.47 3.26558
1646.55 2.36447
1646.64 1.79369
1646.81 1.12941
1646.99 0.776209
1647.16 0.566820
1647.50 0.342246
1647.85 0.230234
1648.19 0.166796
1648.89 0.101062
1649.58 0.0694858
1650.27 0.0519740
1651.65 0.0342050
1654.42 0.0212062
1657.18 0.0165603
1662.71 0.0131666
1668.24 0.0119330
1690.36 0.0105811
1734.59 0.00994079
1823.06 0.00939564
2000.00 0.00973489
2059.92 0.0117188
2074.90 0.0135388
2089.87 0.0184879
2097.36 0.0252436
2101.11 0.0319601
2104.85 0.0442098
2106.73 0.0545538
2108.60 0.0703775
2110.47 0.0963939
2112.34 0.143709
2113.28 0.183515
2114.22 0.244084
2115.15 0.342951
2116.09 0.520791
2116.56 0.668538
2117.02 0.891005
2117.49 1.24850
2117.96 1.87699
2118.19 2.38717
2118.43 3.13809
2118.66 4.30790
2118.90 6.27423
2119.01 7.80053
2119.07 8.78846
2119.13 9.95226
2119.19 11.3869
2119.25 13.1168
2119.31 15.3062
2119.36 18.0256
2119.42 21.5848
2119.48 26.1777
2119.54 32.4551
2119.60 40.9609
2119.66 53.2324
2119.71 70.8267
2119.77 97.5315
2119.83 136.626
2119.92 218.717
2120.00 272.422
2120.04 255.947
2120.09 217.676
2120.17 135.808
2120.23 98.6295
2120.28 73.0602
2120.39 43.4738
2120.50 28.1867
2120.61 19.6523
2120.72 14.3879
2120.83 10.9901
2121.05 6.99166
2121.26 4.82082
2121.48 3.52640
2121.92 2.11808
2122.36 1.41217
2122.79 1.00917
2123.23 0.757774
2123.67 0.590524
2124.54 0.388697
2125.42 0.276479
2126.29 0.207660
2127.16 0.162445
2128.91 0.108597
2130.66 0.0790183
2132.41 0.0610370
2134.16 0.0493141
2137.66 0.0354664
2141.15 0.0279295
2148.15 0.0204666
2162.13 0.0152976
2176.12 0.0137024
2232.07 0.0136243
2288.02 0.0163243
2343.97 0.0218496
2399.91 0.0337913
2427.89 0.0455155
2455.86 0.0664017
2462.86 0.0741900
2469.85 0.0835704
2473.35 0.0889965
2476.85 0.0950074
2480.34 0.101690
2483.84 0.109146
2487.34 0.117504
2490.83 0.126912
2494.33 0.137555
2497.83 0.149653
2501.32 0.163492
2504.82 0.179418
2508.32 0.197870
2511.81 0.219404
2518.81 0.274881
2525.80 0.354930
2532.79 0.476408
2539.79 0.673155
2543.28 0.820476
2546.78 1.02131
2550.28 1.30417
2553.77 1.71822
2557.27 2.35348
2560.77 3.38148
2564.26 5.13785
2567.76 8.21190
2571.38 13.1277
2575.00 16.3824
2578.62 13.0803
2582.24 8.16626
2584.54 5.97008
2586.83 4.44761
2591.42 2.65633
2596.01 1.73241
2600.60 1.20918
2605.20 0.888439
2609.79 0.679059
2618.97 0.432785
2628.15 0.299627
2637.33 0.219865
2655.69 0.133375
2674.06 0.0900844
2692.42 0.0654250
2710.78 0.0500889
2729.15 0.0399282
2765.87 0.0277852
2802.60 0.0211661
2876.05 0.0148869
2949.50 0.0127266
3022.96 0.0129171
3096.41 0.0159407
3133.13 0.0202696
3142.32 0.0226715
3151.50 0.0277331
3156.09 0.0337718
3160.68 0.0496679
3162.98 0.0709946
3164.12 0.0919814
3165.27 0.129838
3166.42 0.209481
3166.99 0.287356
3167.57 0.425982
3167.85 0.540363
3168.14 0.711232
3168.43 0.982866
3168.71 1.45299
3169.00 2.37325
3169.14 3.20791
3169.29 4.56091
3169.43 6.99961
3169.50 9.00697
3169.57 11.9329
3169.65 16.5440
3169.72 24.0291
3169.79 37.3172
3169.86 60.9449
3169.93 97.2964
3170.00 121.447
3170.07 96.7433
3170.14 60.5141
3170.19 43.8308
3170.23 32.6024
3170.32 19.3405
3170.41 12.5626
3170.50 8.77848
3170.60 6.43607
3170.69 4.91173
3170.87 3.13081
3171.05 2.16370
3171.23 1.58788
3171.59 0.961344
3171.96 0.647460
3172.32 0.468341
3173.04 0.282535
3173.77 0.192953
3174.50 0.143196
3175.95 0.0927267
3178.85 0.0561793
3181.75 0.0435662
3187.56 0.0353683
3193.36 0.0335215
3216.58 0.0383926
3239.79 0.0510629
3263.01 0.0744586
3274.62 0.0937295
3280.43 0.106543
3286.23 0.122344
3289.13 0.131667
3292.03 0.142140
3294.94 0.153962
3297.84 0.167375
3299.29 0.174768
3300.74 0.182674
3303.64 0.200230
3306.54 0.220505
3309.45 0.244087
3312.35 0.271741
3315.25 0.304429
3318.15 0.343454
3321.06 0.390547
3323.96 0.448068
3326.86 0.519293
3329.76 0.608869
3332.66 0.723549
3335.57 0.873475
3338.47 1.07406
3341.37 1.35005
3344.27 1.74216
3347.17 2.32010
3350.08 3.20644
3352.98 4.61541
3355.88 6.87403
3359.44 10.9836
3363.00 13.7061
3366.57 10.9475
3370.13 6.83558
3372.36 5.02121
3374.58 3.75594
3379.03 2.25659
3383.48 1.47714
3387.93 1.03359
3392.38 0.760680
3396.83 0.582108
3405.73 0.371499
3414.63 0.257325
3423.54 0.188797
3441.34 0.114337
3459.14 0.0769628
3476.94 0.0556114
3494.74 0.0422850
3512.54 0.0334154
3548.14 0.0227162
3583.75 0.0167591
3654.95 0.0107312
3726.16 0.00797266
3797.36 0.00670090
3832.97 0.00655659
3868.57 0.00715648
3886.37 0.00834406
3895.27 0.00960976
3904.17 0.0119836
3913.07 0.0171465
3917.52 0.0223310
3921.97 0.0318286
3924.20 0.0398618
3926.42 0.0521584
3928.65 0.0723756
3930.87 0.109118
3931.99 0.139975
3933.10 0.186866
3934.21 0.263340
3935.32 0.400397
3935.88 0.514159
3936.44 0.684701
3936.99 0.957652
3937.55 1.43469
3938.11 2.38548
3938.38 3.25775
3938.66 4.70825
3938.80 5.82225
3938.94 7.37711
3939.08 9.63417
3939.15 11.1747
3939.22 13.0740
3939.29 15.5231
3939.36 18.6463
3939.43 22.8283
3939.50 28.3873
3939.57 36.1703
3939.64 46.9883
3939.71 62.7054
3939.77 84.7700
3939.83 108.734
3939.89 135.627
3940.00 169.528
3940.06 159.387
3940.11 135.620
3940.23 84.7628
3940.32 57.1296
3940.41 39.9543
3940.50 28.9535
3940.59 21.8231
3940.77 13.4813
3940.95 9.08399
3941.13 6.51312
3941.31 4.88938
3941.67 3.03893
3942.04 2.06787
3942.40 1.49708
3942.76 1.13375
3943.12 0.888422
3943.85 0.588128
3944.57 0.418394
3945.29 0.313233
3946.02 0.243619
3947.47 0.160102
3948.91 0.113829
3950.36 0.0855493
3951.81 0.0670135
3954.71 0.0449989
3957.60 0.0329227
3963.39 0.0208125
3969.19 0.0151655
3974.98 0.0120866
3986.56 0.00902532
4009.73 0.00688926
4032.90 0.00624964
4079.23 0.00623888
4125.56 0.00723372
4171.90 0.00988572
4195.07 0.0126512
4218.23 0.0177519
4229.82 0.0220606
4241.40 0.0286350
4252.98 0.0393793
4264.57 0.0587123
4270.36 0.0747750
4276.15 0.0989583
4281.94 0.137811
4287.73 0.206078
4290.63 0.261485
4292.08 0.298082
4293.53 0.343014
4294.25 0.369416
4294.97 0.399004
4295.70 0.432310
4296.42 0.469980
4297.15 0.512807
4297.87 0.561770
4298.59 0.618091
4299.32 0.683308
4300.04 0.759381
4300.77 0.848833
4302.21 1.08210
4303.66 1.42503
4305.11 1.95666
4305.83 2.33822
4306.56 2.83886
4307.28 3.51100
4308.01 4.43686
4308.73 5.74843
4309.45 7.65955
4310.18 10.5065
4310.90 14.7340
4311.95 23.5351
4313.00 29.3812
4314.06 23.4760
4315.11 14.6502
4315.78 10.7078
4316.45 7.97470
4317.79 4.76141
4319.12 3.10457
4320.46 2.16688
4321.80 1.59151
4323.14 1.21585
4325.81 0.773935
4328.49 0.534782
4331.16 0.391466
4336.51 0.235874
4341.86 0.157828
4347.22 0.113265
4352.57 0.0854637
4357.92 0.0669711
4368.62 0.0446714
4379.32 0.0322592
4390.02 0.0246502
4400.72 0.0196545
4422.13 0.0137149
4443.53 0.0104600
4486.33 0.00722208
4529.14 0.00575763
4571.94 0.00501579
4657.56 0.00447171
4743.17 0.00457581
4828.78 0.00524105
4914.39 0.00716137
4935.79 0.00830912
4957.20 0.0104646
4967.90 0.0124758
4978.60 0.0160567
4989.30 0.0237187
4994.65 0.0315209
5000.00 0.0462602
5002.46 0.0578961
5004.91 0.0756108
5007.36 0.104562
5009.82 0.156789
5011.05 0.200371
5012.27 0.266194
5013.50 0.372530
5014.73 0.560942
5015.34 0.715266
5015.95 0.943826
5016.57 1.30432
5016.87 1.56778
5017.18 1.91866
5017.49 2.40363
5017.79 3.09758
5018.10 4.13845
5018.25 4.86216
5018.41 5.79027
5018.56 7.01476
5018.71 8.64867
5018.87 10.9217
5019.02 14.1483
5019.18 18.9706
5019.33 26.3877
5019.48 38.3057
5019.63 57.6608
5019.82 92.2502
5020.00 115.306
5020.18 92.2432
5020.37 57.6538
5020.54 36.4837
5020.71 24.2122
5020.88 16.9439
5021.05 12.4346
5021.40 7.41275
5021.74 4.89260
5022.08 3.45736
5022.43 2.57143
5023.11 1.57987
5023.80 1.06770
5024.49 0.770436
5025.17 0.582393
5025.86 0.456336
5027.23 0.302812
5028.61 0.216556
5029.98 0.163346
5031.35 0.128241
5034.10 0.0862826
5036.84 0.0631635
5042.34 0.0399488
5047.83 0.0291878
5053.32 0.0234140
5064.31 0.0179183
5086.28 0.0148314
5108.25 0.0148678
5152.18 0.0183227
5196.12 0.0259610
5240.06 0.0419271
5251.05 0.0485150
5256.54 0.0524427
5262.03 0.0568906
5267.53 0.0619554
5270.27 0.0647541
5273.02 0.0677531
5275.76 0.0709717
5278.51 0.0744318
5284.00 0.0821777
5289.50 0.0912299
5294.99 0.101892
5300.48 0.114570
5305.97 0.129792
5311.47 0.148285
5316.96 0.171031
5322.45 0.199420
5327.94 0.235434
5333.43 0.281992
5338.93 0.343460
5344.42 0.426648
5349.91 0.542354
5355.40 0.708364
5360.90 0.954125
5366.39 1.32765
5371.88 1.89608
5379.44 3.03027
5387.00 3.78096
5394.56 3.01929
5402.12 1.88551
5410.13 1.12853
5418.15 0.719154
5426.16 0.489425
5434.18 0.351683
5442.19 0.263806
5450.20 0.204764
5466.23 0.133303
5482.26 0.0935869
5498.29 0.0693589
5530.34 0.0426468
5562.40 0.0290743
5594.45 0.0212755
5626.51 0.0164029
5658.56 0.0131709
5722.67 0.00932903
5786.78 0.00728979
5915.00 0.00562642
6043.22 0.00583073
6107.33 0.00674371
6171.44 0.00871799
6235.55 0.0131455
6267.61 0.0175375
6299.66 0.0253738
6331.72 0.0413718
6347.74 0.0564669
6355.76 0.0675174
6363.77 0.0823117
6367.78 0.0916635
6371.78 0.102746
6373.79 0.109073
6375.79 0.116011
6377.80 0.123645
6379.80 0.132065
6381.80 0.141389
6383.81 0.151741
6385.81 0.163287
6387.81 0.176202
6391.82 0.207111
6395.83 0.246896
6399.83 0.299258
6403.84 0.369929
6407.85 0.468205
6411.85 0.609755
6415.86 0.822150
6419.87 1.15573
6423.87 1.70294
6427.88 2.61375
6432.44 4.17969
6437.00 5.22020
6441.56 4.17207
6446.12 2.60643
6451.51 1.47580
6456.91 0.904937
6462.30 0.600405
6467.69 0.424092
6473.09 0.314321
6478.48 0.241881
6489.27 0.155728
6500.06 0.108661
6510.84 0.0802721
6532.42 0.0493071
6553.99 0.0337382
6575.56 0.0248643
6618.71 0.0157488
6661.86 0.0115373
6705.01 0.00942478
6791.30 0.00819359
6877.60 0.00983629
6920.74 0.0122625
6963.89 0.0169729
7007.04 0.0269798
7028.61 0.0365762
7050.19 0.0531568
7060.97 0.0663518
7066.37 0.0749495
7071.76 0.0853825
7074.46 0.0914552
7077.15 0.0982114
7079.85 0.105756
7082.55 0.114213
7085.24 0.123740
7087.94 0.134518
7090.64 0.146774
7093.33 0.160780
7096.03 0.176893
7098.73 0.195540
7101.42 0.217270
7104.12 0.242774
7109.51 0.309048
7114.91 0.405570
7120.30 0.552602
7125.69 0.788167
7128.39 0.959978
7131.09 1.18521
7133.78 1.48188
7136.48 1.86867
7142.24 2.98789
7148.00 3.73110
7150.88 3.50954
7153.76 2.98165
7159.52 1.86263
7164.67 1.20373
7169.83 0.811898
7174.98 0.574845
7180.13 0.424812
7190.44 0.256349
7200.74 0.170402
7211.05 0.121191
7221.35 0.0905485
7241.96 0.0560930
7262.57 0.0382317
7283.18 0.0278115
7303.79 0.0212091
7324.40 0.0167642
7365.62 0.0113329
7406.84 0.00826267
7448.06 0.00635586
7489.27 0.00508866
7571.71 0.00355793
7654.15 0.00270205
7819.03 0.00183882
7983.90 0.00148362
8148.78 0.00148326
8231.22 0.00174695
8272.44 0.00206102
8313.66 0.00267009
8354.88 0.00401562
8375.49 0.00537275
8396.10 0.00785884
8406.40 0.00995756
8416.71 0.0131647
8427.01 0.0184206
8437.32 0.0279239
8442.47 0.0358607
8447.62 0.0478683
8452.77 0.0672981
8457.93 0.101784
8460.50 0.130067
8463.08 0.172083
8465.65 0.238397
8468.23 0.351976
8470.81 0.570700
8471.45 0.657220
8472.09 0.764793
8472.74 0.900736
8473.38 1.07578
8474.03 1.30613
8474.35 1.44943
8474.67 1.61704
8474.99 1.81461
8475.31 2.04943
8475.96 2.67222
8476.60 3.60671
8477.25 5.07428
8477.57 6.12484
8477.89 7.48153
8478.21 9.23772
8478.53 11.4892
8479.27 18.3812
8480.00 22.9738
8480.37 21.6177
8480.73 18.3772
8481.47 11.4854
8481.97 8.17092
8482.48 5.95186
8482.99 4.46161
8483.49 3.44209
8484.51 2.19987
8485.52 1.51483
8486.53 1.10229
8487.54 0.836326
8489.57 0.527292
8491.60 0.361966
8493.62 0.263651
8495.65 0.200506
8497.67 0.157625
8501.72 0.104786
8505.77 0.0747320
8509.82 0.0560308
8513.88 0.0436119
8521.98 0.0286655
8530.08 0.0203578
8538.18 0.0152690
8546.28 0.0119279
8562.49 0.00795190
8578.69 0.00576591
8594.90 0.00443608
8611.10 0.00356682
8643.51 0.00253592
8675.92 0.00197005
8740.73 0.00140011
8805.55 0.00113259
8870.37 0.000987202
9000.00 0.000851393
9000.00 0.212853
10000.0 0.201000
12500.0 0.175262
15000.0 0.155698
17000.0 0.143847
20000.0 0.129102
25000.0 0.110074
30000.0 0.0967873
35000.0 0.0872119
40000.0 0.0795103
50000.0 0.0684328
60000.0 0.0607691
70000.0 0.0557378
80000.0 0.0518916
99999.9 0.0467293
100000 0.0468343
150000 0.0407644
200000 0.0386452
250000 0.0381103
300000 0.0383134
500000 0.0409597
566528 0.0418931
633264 0.0287595
700000 0.0205023
750000 0.0195689
800000 0.0187342
850000 0.0184500
900000 0.0181860
950000 0.0182136
1.00000E+06 0.0182399
1.06861E+06 0.0186403
1.13721E+06 0.0190238
1.13721E+06 0.0190238
1.18474E+06 0.0191020
1.23226E+06 0.0191774
1.25000E+06 0.0181152
1.29929E+06 0.0172890
1.34858E+06 0.0165291
1.34858E+06 0.0165290
1.42429E+06 0.0149959
1.50000E+06 0.0136738
1.55286E+06 0.0136012
1.60572E+06 0.0135313
1.65858E+06 0.0134641
1.71144E+06 0.0133993
1.71144E+06 0.0133993
1.75000E+06 0.0130701
1.81135E+06 0.0128876
1.81135E+06 0.0128876
1.85851E+06 0.0126447
1.90568E+06 0.0124123
1.95284E+06 0.0121897
2.00000E+06 0.0119763
2.05292E+06 0.0119686
2.10419E+06 0.0118151
2.15546E+06 0.0116671
2.15546E+06 0.0116671
2.19934E+06 0.0114388
2.21518E+06 0.0113953
2.21519E+06 0.0113953
2.29236E+06 0.0111898
2.39429E+06 0.0111619
2.39430E+06 0.0111619
2.46137E+06 0.0110771
2.46137E+06 0.0110771
2.52166E+06 0.0108365
2.52167E+06 0.0108365
2.54811E+06 0.0106652
2.54811E+06 0.0106652
2.60415E+06 0.0103513
2.64032E+06 0.0101512
2.65319E+06 0.0100624
2.66585E+06 0.00996720
2.66586E+06 0.00996717
2.69058E+06 0.00980176
2.70537E+06 0.00968812
2.70537E+06 0.00968810
2.77357E+06 0.00917968
2.84176E+06 0.00870934
2.84176E+06 0.00870933
2.84987E+06 0.00865631
2.85412E+06 0.00862096
2.85412E+06 0.00862093
2.86233E+06 0.00855504
2.86233E+06 0.00855503
2.89769E+06 0.00833076
2.89770E+06 0.00833073
2.90793E+06 0.00826335
2.94968E+06 0.00798702
2.95880E+06 0.00792871
2.98980E+06 0.00772857
2.98980E+06 0.00772855
3.00000E+06 0.00766101
3.00784E+06 0.00761693
3.02334E+06 0.00756459
3.03885E+06 0.00751288
3.05435E+06 0.00746177
3.06985E+06 0.00741128
3.08535E+06 0.00736137
3.10086E+06 0.00731205
3.11636E+06 0.00726330
3.13186E+06 0.00721512
3.14736E+06 0.00716750
3.16287E+06 0.00712042
3.17837E+06 0.00707387
3.19387E+06 0.00702786
3.20937E+06 0.00698236
3.22488E+06 0.00693738
3.24038E+06 0.00689290
3.25588E+06 0.00684891
3.27138E+06 0.00680542
3.28689E+06 0.00676240
3.30239E+06 0.00671985
3.31789E+06 0.00667778
3.33339E+06 0.00663615
3.34890E+06 0.00659498
3.36440E+06 0.00655425
3.37990E+06 0.00651397
3.39540E+06 0.00647410
3.41091E+06 0.00643467
3.42641E+06 0.00639565
3.44191E+06 0.00635704
3.45741E+06 0.00631884
3.47292E+06 0.00628104
3.48842E+06 0.00624363
3.50392E+06 0.00620660
3.51942E+06 0.00616996
3.53493E+06 0.00613370
3.55043E+06 0.00609780
3.56593E+06 0.00606227
3.58143E+06 0.00602710
3.59694E+06 0.00599228
3.61244E+06 0.00595782
3.62794E+06 0.00592370
3.64344E+06 0.00588991
3.65895E+06 0.00585647
3.67445E+06 0.00582335
3.68995E+06 0.00579056
3.70545E+06 0.00575809
3.72096E+06 0.00572593
3.73646E+06 0.00569409
3.75196E+06 0.00566256
3.76746E+06 0.00563133
3.78297E+06 0.00560040
3.79847E+06 0.00556976
3.81397E+06 0.00553942
3.82947E+06 0.00550936
3.84498E+06 0.00547959
3.86048E+06 0.00545009
3.87598E+06 0.00542087
3.89148E+06 0.00539193
3.90699E+06 0.00536325
3.92249E+06 0.00533484
3.93799E+06 0.00530669
3.95349E+06 0.00527880
3.96900E+06 0.00525116
3.98450E+06 0.00522378
4.00000E+06 0.00519664
4.11804E+06 0.00499595
4.23607E+06 0.00480836
4.35411E+06 0.00463269
4.47214E+06 0.00446788
4.60043E+06 0.00429999
4.72871E+06 0.00414277
4.86246E+06 0.00398920
5.00000E+06 0.00384132
5.16624E+06 0.00362629
5.36313E+06 0.00339510
5.56753E+06 0.00317865
5.77972E+06 0.00297600
6.00000E+06 0.00278626
6.05894E+06 0.00272161
6.11787E+06 0.00265907
6.17681E+06 0.00259854
6.23574E+06 0.00253994
6.29699E+06 0.00248101
6.35824E+06 0.00242399
6.41949E+06 0.00236881
6.48074E+06 0.00231540
6.54440E+06 0.00226167
6.60806E+06 0.00220970
6.67171E+06 0.00215940
6.73537E+06 0.00211071
6.80153E+06 0.00206173
6.86769E+06 0.00201435
6.93384E+06 0.00196850
7.00000E+06 0.00192411
7.07615E+06 0.00186114
7.15230E+06 0.00180087
7.22845E+06 0.00174316
7.30460E+06 0.00168787
7.34806E+06 0.00165735
7.39153E+06 0.00162757
7.43499E+06 0.00159848
7.47845E+06 0.00157008
7.52191E+06 0.00154235
7.56538E+06 0.00151526
7.60884E+06 0.00148880
7.65230E+06 0.00146295
7.69576E+06 0.00143768
7.73923E+06 0.00141300
7.78269E+06 0.00138887
7.82615E+06 0.00136529
7.86961E+06 0.00134223
7.91308E+06 0.00131968
7.95654E+06 0.00129764
8.00000E+06 0.00127608
8.01517E+06 0.00126818
8.03033E+06 0.00126035
8.04550E+06 0.00125258
8.06066E+06 0.00124487
8.07583E+06 0.00123722
8.09099E+06 0.00122964
8.10616E+06 0.00122212
8.12132E+06 0.00121465
8.13649E+06 0.00120725
8.15165E+06 0.00119990
8.16682E+06 0.00119261
8.18198E+06 0.00118538
8.19715E+06 0.00117821
8.21231E+06 0.00117109
8.22748E+06 0.00116403
8.24264E+06 0.00115702
8.25781E+06 0.00115007
8.27297E+06 0.00114318
8.28814E+06 0.00113634
8.30330E+06 0.00112955
8.31847E+06 0.00112281
8.33363E+06 0.00111613
8.34880E+06 0.00110949
8.36396E+06 0.00110291
8.37913E+06 0.00109638
8.39429E+06 0.00108991
8.40946E+06 0.00108348
8.42462E+06 0.00107710
8.43979E+06 0.00107076
8.45495E+06 0.00106448
8.47012E+06 0.00105825
8.48528E+06 0.00105206
8.50548E+06 0.00104487
8.52567E+06 0.00103775
8.54587E+06 0.00103070
8.56607E+06 0.00102370
8.58627E+06 0.00101678
8.60646E+06 0.00100991
8.62666E+06 0.00100311
8.64686E+06 0.000996366
8.66705E+06 0.000989685
8.68725E+06 0.000983065
8.70745E+06 0.000976504
8.72764E+06 0.000970002
8.74784E+06 0.000963559
8.76804E+06 0.000957172
8.78823E+06 0.000950843
8.80843E+06 0.000944570
8.85632E+06 0.000929916
8.90422E+06 0.000915567
8.95211E+06 0.000901514
9.00000E+06 0.000887750
9.06085E+06 0.000877964
9.12171E+06 0.000868350
9.18256E+06 0.000858904
9.24342E+06 0.000849622
9.30427E+06 0.000840501
9.36512E+06 0.000831535
9.42598E+06 0.000822723
9.48683E+06 0.000814060
9.56612E+06 0.000808984
9.64541E+06 0.000803980
9.73406E+06 0.000798471
9.82271E+06 0.000793049
9.91135E+06 0.000787712
1.00000E+07 0.000782458
1.00460E+07 0.000786831
1.00598E+07 0.000788145
1.00736E+07 0.000789460
1.00875E+07 0.000790776
1.01013E+07 0.000792090
1.01151E+07 0.000793406
1.01289E+07 0.000794722
1.01427E+07 0.000796039
1.01565E+07 0.000797355
1.01704E+07 0.000798673
1.01842E+07 0.000799990
1.01980E+07 0.000801308
1.02118E+07 0.000802626
1.02256E+07 0.000803945
1.02394E+07 0.000805264
1.02532E+07 0.000806584
1.02671E+07 0.000807903
1.02809E+07 0.000809224
1.02947E+07 0.000810545
1.03085E+07 0.000811866
1.03223E+07 0.000813187
1.03361E+07 0.000814510
1.03500E+07 0.000815831
1.03638E+07 0.000817154
1.03776E+07 0.000818477
1.03914E+07 0.000819800
1.04052E+07 0.000821123
1.04190E+07 0.000822448
1.04328E+07 0.000823772
1.04467E+07 0.000825097
1.04605E+07 0.000826422
1.04743E+07 0.000827748
1.04881E+07 0.000829073
1.05041E+07 0.000831609
1.05201E+07 0.000834148
1.05361E+07 0.000836691
1.05521E+07 0.000839237
1.05681E+07 0.000841788
1.05841E+07 0.000844343
1.06001E+07 0.000846901
1.06161E+07 0.000849462
1.06321E+07 0.000852029
1.06481E+07 0.000854599
1.06641E+07 0.000857173
1.06801E+07 0.000859750
1.06961E+07 0.000862332
1.07121E+07 0.000864916
1.07281E+07 0.000867506
1.07441E+07 0.000870098
1.07601E+07 0.000872695
1.07761E+07 0.000875297
1.07921E+07 0.000877902
1.08080E+07 0.000880510
1.08240E+07 0.000883123
1.08400E+07 0.000885739
1.08560E+07 0.000888360
1.08720E+07 0.000890983
1.08880E+07 0.000893612
1.09040E+07 0.000896244
1.09200E+07 0.000898880
1.09360E+07 0.000901519
1.09520E+07 0.000904163
1.09680E+07 0.000906809
1.09840E+07 0.000909461
1.10000E+07 0.000912115
1.10197E+07 0.000915770
1.10393E+07 0.000919433
1.10590E+07 0.000923104
1.10787E+07 0.000926783
1.10984E+07 0.000930470
1.11180E+07 0.000934166
1.11377E+07 0.000937869
1.11574E+07 0.000941579
1.11770E+07 0.000945298
1.11967E+07 0.000949026
1.12164E+07 0.000952762
1.12360E+07 0.000956506
1.12557E+07 0.000960258
1.12754E+07 0.000964018
1.12950E+07 0.000967787
1.13147E+07 0.000971561
1.13693E+07 0.000982077
1.14238E+07 0.000992656
1.14598E+07 0.000999675
1.14958E+07 0.00100672
1.15318E+07 0.00101379
1.15679E+07 0.00102089
1.16039E+07 0.00102802
1.16399E+07 0.00103518
1.16759E+07 0.00104236
1.17119E+07 0.00104957
1.17479E+07 0.00105681
1.17839E+07 0.00106407
1.18199E+07 0.00107136
1.18560E+07 0.00107868
1.18920E+07 0.00108603
1.19280E+07 0.00109341
1.19640E+07 0.00110081
1.20000E+07 0.00110824
1.20613E+07 0.00110630
1.21225E+07 0.00110437
1.21838E+07 0.00110246
1.22450E+07 0.00110056
1.23063E+07 0.00109867
1.23675E+07 0.00109679
1.24288E+07 0.00109493
1.24900E+07 0.00109308
1.25538E+07 0.00109419
1.26175E+07 0.00109530
1.26813E+07 0.00109640
1.27450E+07 0.00109750
1.28088E+07 0.00109859
1.28725E+07 0.00109968
1.29363E+07 0.00110076
1.30000E+07 0.00110184
1.30625E+07 0.00109658
1.31250E+07 0.00109136
1.31875E+07 0.00108620
1.32500E+07 0.00108108
1.33125E+07 0.00107601
1.33750E+07 0.00107099
1.34375E+07 0.00106602
1.35000E+07 0.00106109
1.35625E+07 0.00105621
1.36250E+07 0.00105137
1.36875E+07 0.00104658
1.37500E+07 0.00104183
1.38125E+07 0.00103712
1.38750E+07 0.00103246
1.39375E+07 0.00102783
1.40000E+07 0.00102325
1.40625E+07 0.00101800
1.41250E+07 0.00101280
1.41875E+07 0.00100765
1.42500E+07 0.00100255
1.43125E+07 0.000997492
1.43750E+07 0.000992486
1.44375E+07 0.000987525
1.45000E+07 0.000982611
1.46250E+07 0.000972919
1.47500E+07 0.000963403
1.48750E+07 0.000954060
1.50000E+07 0.000944884
1.51250E+07 0.000937681
1.52500E+07 0.000930591
1.53750E+07 0.000923613
1.55000E+07 0.000916742
1.56250E+07 0.000909978
1.57500E+07 0.000903316
1.58750E+07 0.000896755
1.60000E+07 0.000890293
1.62500E+07 0.000882127
1.65000E+07 0.000874159
1.67500E+07 0.000866382
1.70000E+07 0.000858787
1.73456E+07 0.000853888
1.76911E+07 0.000849112
1.80000E+07 0.000844943
1.82500E+07 0.000844952
1.85000E+07 0.000844961
1.87500E+07 0.000844969
1.90000E+07 0.000844978
1.92269E+07 0.000847442
1.94538E+07 0.000849884
1.95167E+07 0.000850557
1.97584E+07 0.000853129
2.00000E+07 0.000855676