Se-76(n,tot) ENDF/B-VII.1
Energy(eV) XS(b)
1.00000E-05 4294.40
1.25000E-05 3842.97
1.50000E-05 3509.74
2.00000E-05 3041.99
2.75000E-05 2596.93
3.50000E-05 2304.02
4.25000E-05 2092.57
5.00000E-05 1930.69
6.25000E-05 1728.80
7.50000E-05 1579.78
0.000100000 1370.59
0.000125000 1227.84
0.000150000 1122.46
0.000200000 974.544
0.000275000 833.802
0.000350000 741.176
0.000425000 674.309
0.000500000 623.118
0.000625000 559.275
0.000750000 512.149
0.00100000 445.999
0.00125000 400.856
0.00150000 367.532
0.00200000 320.756
0.00275000 276.249
0.00350000 246.958
0.00425000 225.812
0.00500000 209.623
0.00625000 189.434
0.00750000 174.531
0.0100000 153.611
0.0125000 139.334
0.0150000 128.795
0.0200000 114.002
0.0253000 103.397
0.0314750 94.6010
0.0376500 88.0692
0.0500000 78.8500
0.0625000 72.4626
0.0750000 67.7471
0.100000 61.1267
0.125000 56.6075
0.150000 53.2706
0.200000 48.5846
0.275000 44.1224
0.350000 41.1826
0.500000 37.4296
0.750000 33.8908
1.00000 31.7715
1.50000 29.2394
2.00000 27.7128
2.75000 26.2382
3.50000 25.2479
5.00000 23.9458
7.50000 22.6460
10.0000 21.8051
15.0000 20.6835
20.0000 19.9009
27.5000 19.0156
35.0000 18.3137
50.0000 17.1983
75.0000 15.7849
100.000 14.6771
150.000 12.9701
200.000 11.6523
244.433 10.6464
288.865 9.65172
311.081 9.06980
333.298 8.27773
344.406 7.67820
349.960 7.26757
355.514 6.72739
361.068 5.97767
363.845 5.48986
366.622 4.92337
368.011 4.63229
369.399 4.38413
370.788 4.29390
372.176 4.69250
372.870 5.34933
373.217 5.90065
373.391 6.25706
373.565 6.68069
373.738 7.18525
373.912 7.78683
373.999 8.13016
374.085 8.50574
374.172 8.91691
374.259 9.36692
374.432 10.4037
374.606 11.6560
374.780 13.1786
374.953 15.0397
375.127 17.3338
375.300 20.1847
375.474 23.7626
375.647 28.3021
375.821 34.1462
375.994 41.7798
376.168 51.9492
376.342 65.7822
376.515 85.1257
376.689 113.049
376.862 154.995
377.036 221.195
377.209 332.661
377.383 535.916
377.470 702.735
377.557 944.729
377.643 1302.48
377.730 1829.79
377.865 3034.99
378.000 3932.05
378.135 3259.97
378.270 2111.49
378.389 1417.18
378.508 990.786
378.627 725.942
378.746 554.406
378.983 356.329
379.221 251.638
379.459 189.705
379.697 149.987
380.172 103.516
380.648 78.1293
381.123 62.5794
381.599 52.2676
382.074 45.0198
383.025 35.6421
383.976 29.9324
384.927 26.1382
385.878 23.4550
387.780 19.9405
389.682 17.7580
391.584 16.2777
393.486 15.2096
397.290 13.7713
401.094 12.8443
408.703 11.7065
416.311 11.0189
423.919 10.5449
439.135 9.90480
469.568 9.11970
500.000 8.57354
590.031 7.29903
680.063 5.90395
725.078 4.91194
747.586 4.24789
770.094 3.39430
792.602 2.26258
803.856 1.57862
815.109 0.882632
820.736 0.611704
823.550 0.534053
824.957 0.519356
826.363 0.526316
827.067 0.539592
827.770 0.560460
828.474 0.589837
829.177 0.628757
829.880 0.678400
830.584 0.740088
831.287 0.815323
831.990 0.905800
833.397 1.14060
834.804 1.46360
836.211 1.90006
837.617 2.48360
839.024 3.25974
840.431 4.29066
841.838 5.66335
843.244 7.50093
844.651 9.98260
846.058 13.3742
847.464 18.0835
848.871 24.7557
850.278 34.4554
851.685 49.0211
853.091 71.8291
854.498 109.529
855.905 176.483
856.608 230.238
857.312 307.338
858.015 421.620
858.718 596.922
859.422 874.177
860.125 1315.45
861.063 2217.51
862.000 2914.95
862.938 2449.35
863.875 1607.03
864.750 1066.53
865.625 741.093
866.500 542.120
867.374 414.607
869.124 268.501
870.874 191.544
872.623 145.981
874.373 116.643
877.872 82.0766
881.372 62.9727
884.871 51.1314
888.370 43.1886
891.870 37.5455
898.868 30.1426
905.867 25.5680
909.366 23.9075
912.865 22.5784
914.615 22.0720
915.490 21.8940
916.365 21.8203
917.240 21.9853
917.677 22.2774
918.114 22.8984
918.552 24.2931
918.771 25.6581
918.989 28.0258
919.208 32.5969
919.317 36.6360
919.427 43.0469
919.536 54.0538
919.645 74.9690
919.700 93.0192
919.755 120.609
919.809 164.273
919.864 233.750
919.932 361.986
920.000 447.518
920.068 361.956
920.136 233.693
920.214 142.961
920.292 96.2013
920.370 70.8853
920.448 56.0704
920.526 46.7761
920.604 40.6030
920.760 33.2070
920.916 29.1265
921.072 26.6397
921.384 23.8795
921.696 22.4438
922.008 21.5864
922.632 20.6188
923.256 20.0742
923.880 19.7070
925.128 19.1985
926.375 18.8207
927.623 18.5025
930.119 17.9572
935.111 17.0553
940.102 16.3052
950.085 15.1031
960.068 14.1748
980.034 12.8271
1000.00 11.8899
1052.47 10.3733
1104.94 9.48742
1157.40 8.88353
1183.64 8.64616
1190.20 8.59467
1196.76 8.55262
1200.03 8.54289
1201.67 8.54650
1203.31 8.56397
1204.95 8.61593
1205.77 8.67369
1206.59 8.78303
1207.00 8.87641
1207.41 9.01916
1207.82 9.25158
1208.23 9.66531
1208.44 10.0044
1208.64 10.5073
1208.85 11.2983
1209.05 12.6450
1209.26 15.2121
1209.36 17.4780
1209.46 21.0291
1209.57 27.1609
1209.67 38.6598
1209.72 48.5103
1209.77 63.4689
1209.82 86.9424
1209.87 123.993
1209.94 193.518
1210.00 238.766
1210.07 192.411
1210.13 123.145
1210.20 75.9882
1210.27 50.9889
1210.34 37.1640
1210.41 29.0468
1210.48 23.8155
1210.56 20.3202
1210.70 16.1333
1210.84 13.7970
1210.98 12.3842
1211.26 10.8244
1211.54 10.0268
1211.83 9.56674
1212.11 9.27720
1212.39 9.08358
1212.96 8.84640
1213.52 8.71203
1214.09 8.62755
1214.65 8.57054
1215.79 8.49898
1216.92 8.45573
1219.18 8.40386
1221.44 8.37074
1223.70 8.34522
1228.22 8.30359
1237.27 8.23353
1246.32 8.16976
1282.50 7.93968
1318.69 7.73595
1327.74 7.68927
1336.78 7.64668
1341.30 7.62997
1343.57 7.62499
1345.83 7.62555
1348.09 7.63994
1349.22 7.65997
1350.35 7.70100
1350.92 7.73744
1351.48 7.79423
1352.05 7.88865
1352.61 8.05971
1352.90 8.20232
1353.18 8.41681
1353.46 8.76018
1353.74 9.35634
1354.03 10.5381
1354.17 11.6111
1354.31 13.3768
1354.45 16.6047
1354.52 19.3001
1354.59 23.2837
1354.66 29.6842
1354.73 40.3536
1354.80 60.0376
1354.87 96.8257
1354.94 150.549
1355.00 185.513
1355.06 149.716
1355.13 96.2037
1355.19 63.2284
1355.25 44.3011
1355.31 33.1723
1355.37 26.2712
1355.43 21.7605
1355.49 18.6741
1355.62 14.8676
1355.74 12.7122
1355.86 11.3798
1356.10 9.89576
1356.35 9.12693
1356.59 8.68004
1356.84 8.39753
1357.08 8.20818
1357.57 7.97576
1358.05 7.84432
1358.54 7.76221
1359.03 7.70715
1360.00 7.63923
1360.98 7.59956
1362.93 7.55471
1364.88 7.52859
1366.82 7.51000
1370.72 7.48203
1378.52 7.43822
1386.32 7.39927
1417.50 7.25571
1448.69 7.12191
1456.49 7.09043
1464.28 7.06179
1468.18 7.05106
1470.13 7.04845
1472.08 7.05037
1474.03 7.06368
1475.00 7.08089
1475.98 7.11537
1476.47 7.14568
1476.95 7.19265
1477.44 7.27016
1477.93 7.41001
1478.17 7.52611
1478.42 7.70004
1478.66 7.97701
1478.90 8.45403
1479.15 9.38921
1479.27 10.2316
1479.39 11.5877
1479.51 14.0145
1479.57 15.9954
1479.63 18.9084
1479.69 23.4011
1479.76 30.7235
1479.82 43.3503
1479.88 65.2203
1479.94 100.194
1480.00 123.537
1480.06 100.253
1480.12 65.2944
1480.17 49.0854
1480.21 38.2375
1480.29 25.4555
1480.37 18.9515
1480.45 15.3000
1480.53 13.0743
1480.61 11.6269
1480.77 9.93002
1480.93 9.01502
1481.10 8.46739
1481.42 7.87455
1481.74 7.57575
1482.07 7.40467
1482.39 7.29746
1482.71 7.22587
1483.36 7.13814
1484.01 7.08814
1485.30 7.03462
1486.60 7.00652
1487.89 6.98868
1490.48 6.96553
1495.66 6.93548
1500.84 6.91152
1521.56 6.82668
1563.00 6.66684
1604.44 6.51189
1625.16 6.43653
1630.34 6.41877
1635.52 6.40350
1638.11 6.39926
1640.70 6.40471
1642.00 6.42052
1642.64 6.43848
1643.29 6.47269
1643.94 6.54670
1644.26 6.61937
1644.59 6.74759
1644.91 7.00669
1645.07 7.24749
1645.23 7.64913
1645.40 8.40289
1645.48 9.05013
1645.56 10.0517
1645.64 11.7089
1645.72 14.6966
1645.76 17.1725
1645.80 20.6740
1645.84 25.8318
1645.88 33.4108
1645.94 49.6575
1646.00 60.5009
1646.06 49.6857
1646.12 33.4459
1646.16 25.2534
1646.21 19.9909
1646.25 16.5092
1646.29 14.1464
1646.38 11.2765
1646.47 9.73205
1646.55 8.79838
1646.64 8.20673
1646.81 7.51765
1646.99 7.15080
1647.16 6.93296
1647.50 6.69858
1647.85 6.58094
1648.19 6.51371
1648.89 6.44274
1649.58 6.40727
1650.27 6.38644
1651.65 6.36277
1654.42 6.33897
1657.18 6.32394
1662.71 6.30010
1668.24 6.27856
1690.36 6.19624
1734.59 6.03302
1823.06 5.69770
2000.00 4.91691
2059.92 4.55382
2074.90 4.43180
2089.87 4.26819
2097.36 4.14834
2101.11 4.06721
2104.85 3.95981
2106.73 3.89029
2108.60 3.80462
2110.47 3.69538
2112.34 3.55066
2113.28 3.45934
2114.22 3.35198
2115.15 3.22713
2116.09 3.09164
2116.56 3.03058
2117.02 2.99282
2117.49 3.01882
2117.96 3.21664
2118.19 3.46445
2118.43 3.91944
2118.66 4.76915
2118.90 6.43548
2119.01 7.86105
2119.07 8.82771
2119.13 10.0020
2119.19 11.4934
2119.25 13.3453
2119.31 15.7567
2119.36 18.8372
2119.42 22.9815
2119.48 28.4765
2119.54 36.1926
2119.60 46.9329
2119.66 62.8564
2119.71 86.3348
2119.77 123.046
2119.83 178.609
2119.92 302.041
2120.00 398.181
2120.04 385.441
2120.09 337.659
2120.17 223.912
2120.23 169.259
2120.28 130.545
2120.39 84.1987
2120.50 59.2300
2120.61 44.7587
2120.72 35.5167
2120.83 29.3524
2121.05 21.7735
2121.26 17.4104
2121.48 14.6621
2121.92 11.4495
2122.36 9.67911
2122.79 8.57735
2123.23 7.83314
2123.67 7.30003
2124.54 6.59101
2125.42 6.14435
2126.29 5.83775
2127.16 5.61438
2128.91 5.31000
2130.66 5.11138
2132.41 4.97019
2134.16 4.86375
2137.66 4.71108
2141.15 4.60375
2148.15 4.45441
2162.13 4.25913
2176.12 4.11126
2232.07 3.59646
2288.02 3.02885
2343.97 2.32509
2399.91 1.41810
2427.89 0.884125
2455.86 0.356484
2462.86 0.247295
2469.85 0.160819
2473.35 0.129892
2476.85 0.109899
2480.34 0.103482
2483.84 0.113907
2487.34 0.145249
2490.83 0.202604
2494.33 0.292391
2497.83 0.422706
2501.32 0.604028
2504.82 0.849744
2508.32 1.17732
2511.81 1.60957
2518.81 2.92165
2525.80 5.18714
2532.79 9.19162
2539.79 16.6009
2543.28 22.6471
2546.78 31.3682
2550.28 44.3337
2553.77 64.3319
2557.27 96.6232
2560.77 151.609
2564.26 250.613
2567.76 434.252
2571.38 752.183
2575.00 1013.79
2578.62 871.593
2582.24 584.286
2584.54 446.261
2586.83 346.970
2591.42 225.068
2596.01 158.846
2600.60 119.578
2605.20 94.4624
2609.79 77.3993
2618.97 56.2317
2628.15 43.9480
2637.33 36.0889
2655.69 26.7973
2674.06 21.5830
2692.42 18.2814
2710.78 16.0123
2729.15 14.3572
2765.87 12.0943
2802.60 10.5984
2876.05 8.65910
2949.50 7.32764
3022.96 6.19563
3096.41 5.03121
3133.13 4.36607
3142.32 4.18593
3151.50 4.00125
3156.09 3.90987
3160.68 3.82790
3162.98 3.80195
3164.12 3.80109
3165.27 3.82032
3166.42 3.88955
3166.99 3.96989
3167.57 4.12340
3167.85 4.25446
3168.14 4.45367
3168.43 4.77451
3168.71 5.33507
3169.00 6.43963
3169.14 7.44471
3169.29 9.07673
3169.43 12.0222
3169.50 14.4485
3169.57 17.9867
3169.65 23.5649
3169.72 32.6228
3169.79 48.7085
3169.86 77.3204
3169.93 121.360
3170.00 150.655
3170.07 120.778
3170.14 76.9069
3170.19 56.6967
3170.23 43.0915
3170.32 27.0175
3170.41 18.7990
3170.50 14.2082
3170.60 11.3650
3170.69 9.51343
3170.87 7.34771
3171.05 6.16905
3171.23 5.46521
3171.59 4.69494
3171.96 4.30439
3172.32 4.07762
3173.04 3.83381
3173.77 3.70708
3174.50 3.62888
3175.95 3.53214
3178.85 3.41668
3181.75 3.32950
3187.56 3.17263
3193.36 3.01872
3216.58 2.36359
3239.79 1.62311
3263.01 0.825244
3274.62 0.454583
3280.43 0.301197
3286.23 0.189633
3289.13 0.157207
3292.03 0.146097
3294.94 0.162013
3297.84 0.212240
3299.29 0.253041
3300.74 0.306115
3303.64 0.455692
3306.54 0.676672
3309.45 0.989700
3312.35 1.42238
3315.25 2.01132
3318.15 2.80691
3321.06 3.87868
3323.96 5.32441
3326.86 7.28417
3329.76 9.96300
3332.66 13.6683
3335.57 18.8756
3338.47 26.3340
3341.37 37.2824
3344.27 53.8353
3347.17 79.7522
3350.08 121.952
3352.98 193.283
3355.88 315.555
3359.44 561.209
3363.00 775.172
3366.57 681.984
3370.13 466.877
3372.36 362.454
3374.58 286.084
3379.03 190.542
3383.48 137.532
3387.93 105.595
3392.38 84.8954
3396.83 70.6786
3405.73 52.8035
3414.63 42.2667
3423.54 35.4366
3441.34 27.2410
3459.14 22.5635
3476.94 19.5643
3494.74 17.4837
3512.54 15.9563
3548.14 13.8588
3583.75 12.4762
3654.95 10.7296
3726.16 9.62351
3797.36 8.80275
3832.97 8.43896
3868.57 8.06703
3886.37 7.85352
3895.27 7.72750
3904.17 7.57520
3913.07 7.37067
3917.52 7.23016
3921.97 7.04045
3924.20 6.91507
3926.42 6.75732
3928.65 6.55030
3930.87 6.26339
3931.99 6.07292
3933.10 5.83587
3934.21 5.53302
3935.32 5.13804
3935.88 4.89575
3936.44 4.62222
3936.99 4.32738
3937.55 4.06166
3938.11 4.03157
3938.38 4.32413
3938.66 5.19155
3938.80 6.06747
3938.94 7.49621
3939.08 9.87255
3939.15 11.6458
3939.22 13.9619
3939.29 17.1181
3939.36 21.3623
3939.43 27.3461
3939.50 35.7104
3939.57 48.0204
3939.64 66.0112
3939.71 93.5494
3939.77 134.467
3939.83 181.655
3939.89 238.592
3940.00 331.411
3940.06 328.701
3940.11 294.759
3940.23 204.678
3940.32 149.998
3940.41 113.814
3940.50 89.4309
3940.59 72.9061
3940.77 52.4578
3940.95 40.8743
3941.13 33.6466
3941.31 28.7993
3941.67 22.8264
3942.04 19.3587
3942.40 17.1260
3942.76 15.5814
3943.12 14.4554
3943.85 12.9319
3944.57 11.9544
3945.29 11.2763
3946.02 10.7791
3947.47 10.0991
3948.91 9.65553
3950.36 9.34241
3951.81 9.10872
3954.71 8.78083
3957.60 8.55888
3963.39 8.26976
3969.19 8.08155
3974.98 7.94278
3986.56 7.73815
4009.73 7.44722
4032.90 7.21117
4079.23 6.77207
4125.56 6.29565
4171.90 5.68946
4195.07 5.28486
4218.23 4.75129
4229.82 4.40714
4241.40 3.98443
4252.98 3.44917
4264.57 2.74925
4270.36 2.31545
4276.15 1.81458
4281.94 1.25027
4287.73 0.675691
4290.63 0.446605
4292.08 0.374820
4293.53 0.353683
4294.25 0.370220
4294.97 0.410769
4295.70 0.481195
4296.42 0.588881
4297.15 0.743189
4297.87 0.956074
4298.59 1.24293
4299.32 1.62378
4300.04 2.12487
4300.77 2.78109
4302.21 4.76326
4303.66 8.19756
4305.11 14.3387
4305.83 19.1736
4306.56 25.9133
4307.28 35.5031
4308.01 49.4786
4308.73 70.4024
4309.45 102.626
4310.18 153.448
4310.90 233.760
4311.95 418.779
4313.00 582.867
4314.06 516.667
4315.11 355.920
4315.78 276.304
4316.45 218.188
4317.79 145.746
4319.12 105.689
4320.46 81.5950
4321.80 65.9694
4323.14 55.2301
4325.81 41.7160
4328.49 33.7317
4331.16 28.5483
4336.51 22.3145
4341.86 18.7494
4347.22 16.4622
4352.57 14.8768
4357.92 13.7151
4368.62 12.1267
4379.32 11.0893
4390.02 10.3548
4400.72 9.80405
4422.13 9.02380
4443.53 8.48627
4486.33 7.76264
4529.14 7.26431
4571.94 6.87226
4657.56 6.22815
4743.17 5.64245
4828.78 5.02927
4914.39 4.29464
4935.79 4.06625
4957.20 3.79634
4967.90 3.63354
4978.60 3.43644
4989.30 3.17464
4994.65 2.99758
5000.00 2.76223
5002.46 2.62281
5004.91 2.45331
5007.36 2.24126
5009.82 1.96833
5011.05 1.80186
5012.27 1.61332
5013.50 1.40794
5014.73 1.21643
5015.34 1.15797
5015.95 1.17296
5016.57 1.35615
5016.87 1.57344
5017.18 1.93987
5017.49 2.55290
5017.79 3.58325
5018.10 5.35960
5018.25 6.71100
5018.41 8.54774
5018.56 11.1094
5018.71 14.7142
5018.87 19.9929
5019.02 27.8684
5019.18 40.2298
5019.33 60.1981
5019.48 93.9498
5019.63 151.914
5019.82 264.412
5020.00 358.951
5020.18 311.312
5020.37 210.542
5020.54 143.227
5020.71 102.005
5020.88 76.4715
5021.05 59.9937
5021.40 40.6987
5021.74 30.3607
5022.08 24.1103
5022.43 20.0310
5023.11 15.1200
5023.80 12.3289
5024.49 10.5612
5025.17 9.34930
5025.86 8.47359
5027.23 7.29603
5028.61 6.54419
5029.98 6.02304
5031.35 5.64001
5034.10 5.11188
5036.84 4.76131
5042.34 4.31291
5047.83 4.02517
5053.32 3.81409
5064.31 3.50126
5086.28 3.04244
5108.25 2.64930
5152.18 1.87320
5196.12 1.04445
5240.06 0.260594
5251.05 0.127592
5256.54 0.0839090
5262.03 0.0615936
5267.53 0.0669157
5270.27 0.0823937
5273.02 0.108007
5275.76 0.145164
5278.51 0.195482
5284.00 0.343322
5289.50 0.570165
5294.99 0.900915
5300.48 1.36969
5305.97 2.02320
5311.47 2.92734
5316.96 4.17531
5322.45 5.90302
5327.94 8.31201
5333.43 11.7095
5338.93 16.5731
5344.42 23.6758
5349.91 34.2964
5355.40 50.6364
5360.90 76.5480
5366.39 118.782
5371.88 188.087
5379.44 343.588
5387.00 485.777
5394.56 436.187
5402.12 304.192
5410.13 203.303
5418.15 143.766
5426.16 107.965
5434.18 85.1688
5442.19 69.8109
5450.20 58.9575
5466.23 44.9154
5482.26 36.4026
5498.29 30.7772
5530.34 23.8949
5562.40 19.8874
5594.45 17.2753
5626.51 15.4351
5658.56 14.0620
5722.67 12.1241
5786.78 10.7822
5915.00 8.89113
6043.22 7.34856
6107.33 6.53843
6171.44 5.59742
6235.55 4.38591
6267.61 3.60278
6299.66 2.63762
6331.72 1.44976
6347.74 0.803537
6355.76 0.500832
6363.77 0.251051
6367.78 0.164142
6371.78 0.118303
6373.79 0.116147
6375.79 0.131549
6377.80 0.168019
6379.80 0.229732
6381.80 0.321855
6383.81 0.450500
6385.81 0.623382
6387.81 0.849648
6391.82 1.51158
6395.83 2.56676
6399.83 4.22399
6403.84 6.82581
6407.85 10.9576
6411.85 17.6626
6415.86 28.8880
6419.87 48.4362
6423.87 83.9195
6427.88 149.603
6432.44 280.060
6437.00 404.658
6441.56 370.327
6446.12 262.541
6451.51 170.883
6456.91 119.280
6462.30 89.3193
6467.69 70.6621
6473.09 58.2590
6478.48 49.5639
6489.27 38.3711
6500.06 31.5958
6510.84 27.1071
6532.42 21.5779
6553.99 18.3167
6575.56 16.1594
6618.71 13.4404
6661.86 11.7338
6705.01 10.4948
6791.30 8.59755
6877.60 6.83747
6920.74 5.83039
6963.89 4.61949
7007.04 3.07406
7028.61 2.13761
7050.19 1.12211
7060.97 0.638190
7066.37 0.428015
7071.76 0.259639
7074.46 0.198620
7077.15 0.158539
7079.85 0.144770
7082.55 0.164012
7085.24 0.224711
7087.94 0.337517
7090.64 0.515969
7093.33 0.777279
7096.03 1.14398
7098.73 1.64502
7101.42 2.31852
7104.12 3.21457
7109.51 5.97017
7114.91 10.8031
7120.30 19.4487
7125.69 35.4532
7128.39 48.3208
7131.09 66.3613
7133.78 91.8062
7136.48 127.469
7142.24 246.790
7148.00 366.913
7150.88 374.521
7153.76 344.158
7159.52 249.296
7164.67 182.279
7169.83 138.062
7174.98 109.047
7180.13 89.3606
7190.44 65.2778
7200.74 51.5986
7211.05 42.9880
7221.35 37.1470
7241.96 29.8213
7262.57 25.4602
7283.18 22.5847
7303.79 20.5504
7324.40 19.0358
7365.62 16.9275
7406.84 15.5235
7448.06 14.5150
7489.27 13.7502
7571.71 12.6545
7654.15 11.8927
7819.03 10.8619
7983.90 10.1416
8148.78 9.52268
8231.22 9.18351
8272.44 8.98024
8313.66 8.72738
8354.88 8.37325
8375.49 8.12094
8396.10 7.77111
8406.40 7.53547
8416.71 7.23492
8427.01 6.83515
8437.32 6.27322
8442.47 5.89583
8447.62 5.42098
8452.77 4.80635
8457.93 3.98610
8460.50 3.46931
8463.08 2.86401
8465.65 2.16493
8468.23 1.40753
8470.81 0.801717
8471.45 0.752994
8472.09 0.797345
8472.74 0.986620
8473.38 1.40294
8474.03 2.17975
8474.35 2.76804
8474.67 3.54071
8474.99 4.55192
8475.31 5.87439
8475.96 9.88472
8476.60 16.9072
8477.25 29.5944
8477.57 39.5846
8477.89 53.3629
8478.21 72.4349
8478.53 98.6777
8479.27 191.818
8480.00 286.803
8480.37 293.680
8480.73 270.764
8481.47 197.372
8481.97 155.228
8482.48 124.410
8482.99 102.205
8483.49 86.0664
8484.51 64.8704
8485.52 52.0408
8486.53 43.6525
8487.54 37.8262
8489.57 30.3797
8491.60 25.8860
8493.62 22.9132
8495.65 20.8116
8497.67 19.2543
8501.72 17.1068
8505.77 15.7012
8509.82 14.7116
8513.88 13.9777
8521.98 12.9620
8530.08 12.2913
8538.18 11.8142
8546.28 11.4563
8562.49 10.9521
8578.69 10.6103
8594.90 10.3604
8611.10 10.1673
8643.51 9.88283
8675.92 9.67713
8740.73 9.38357
8805.55 9.16861
8870.37 8.99284
9000.00 8.69813
9000.00 13.8790
10000.0 13.4930
12500.0 12.7347
15000.0 12.1687
17000.0 11.8051
20000.0 11.3608
25000.0 10.7963
30000.0 10.3696
35000.0 10.0302
40000.0 9.75007
50000.0 9.30692
60000.0 8.96498
70000.0 8.68772
80000.0 8.45536
99999.9 8.08052
100000 8.07949
150000 7.98680
200000 7.87614
250000 7.74351
300000 7.59284
500000 6.90557
566528 6.67243
633264 6.42205
700000 6.22595
750000 6.06217
800000 5.91794
850000 5.76982
900000 5.63659
950000 5.50386
1.00000E+06 5.38280
1.06861E+06 5.22241
1.13721E+06 5.07884
1.13721E+06 5.07884
1.18474E+06 4.98383
1.23226E+06 4.89639
1.25000E+06 4.86473
1.29929E+06 4.77909
1.34858E+06 4.70174
1.34858E+06 4.70173
1.42429E+06 4.58836
1.50000E+06 4.48989
1.55286E+06 4.42544
1.60572E+06 4.36568
1.65858E+06 4.31015
1.71144E+06 4.25847
1.71144E+06 4.25847
1.75000E+06 4.22295
1.81135E+06 4.17007
1.81135E+06 4.17007
1.85851E+06 4.13202
1.90568E+06 4.09642
1.95284E+06 4.06307
2.00000E+06 4.03182
2.05292E+06 3.99874
2.10419E+06 3.96891
2.15546E+06 3.94070
2.15546E+06 3.94070
2.19934E+06 3.91813
2.21518E+06 3.91052
2.21519E+06 3.91051
2.29236E+06 3.87437
2.39429E+06 3.83228
2.39430E+06 3.83228
2.46137E+06 3.80787
2.46137E+06 3.80787
2.52166E+06 3.78771
2.52167E+06 3.78771
2.54811E+06 3.77942
2.54811E+06 3.77942
2.60415E+06 3.76292
2.64032E+06 3.75302
2.65319E+06 3.74964
2.66585E+06 3.74638
2.66586E+06 3.74637
2.69058E+06 3.74020
2.70537E+06 3.73663
2.70537E+06 3.73663
2.77357E+06 3.72179
2.84176E+06 3.70779
2.84176E+06 3.70779
2.84987E+06 3.70630
2.85412E+06 3.70553
2.85412E+06 3.70553
2.86233E+06 3.70406
2.86233E+06 3.70406
2.89769E+06 3.69802
2.89770E+06 3.69802
2.90793E+06 3.69634
2.94968E+06 3.68989
2.95880E+06 3.68855
2.98980E+06 3.68423
2.98980E+06 3.68423
3.00000E+06 3.68288
3.00784E+06 3.68187
3.02334E+06 3.68182
3.03885E+06 3.68177
3.05435E+06 3.68172
3.06985E+06 3.68167
3.08535E+06 3.68162
3.10086E+06 3.68158
3.11636E+06 3.68153
3.13186E+06 3.68148
3.14736E+06 3.68144
3.16287E+06 3.68139
3.17837E+06 3.68135
3.19387E+06 3.68131
3.20937E+06 3.68126
3.22488E+06 3.68122
3.24038E+06 3.68118
3.25588E+06 3.68114
3.27138E+06 3.68110
3.28689E+06 3.68106
3.30239E+06 3.68102
3.31789E+06 3.68098
3.33339E+06 3.68094
3.34890E+06 3.68091
3.36440E+06 3.68087
3.37990E+06 3.68083
3.39540E+06 3.68079
3.41091E+06 3.68076
3.42641E+06 3.68072
3.44191E+06 3.68069
3.45741E+06 3.68065
3.47292E+06 3.68062
3.48842E+06 3.68059
3.50392E+06 3.68055
3.51942E+06 3.68052
3.53493E+06 3.68049
3.55043E+06 3.68046
3.56593E+06 3.68043
3.58143E+06 3.68039
3.59694E+06 3.68036
3.61244E+06 3.68033
3.62794E+06 3.68030
3.64344E+06 3.68028
3.65895E+06 3.68025
3.67445E+06 3.68022
3.68995E+06 3.68019
3.70545E+06 3.68016
3.72096E+06 3.68014
3.73646E+06 3.68011
3.75196E+06 3.68008
3.76746E+06 3.68006
3.78297E+06 3.68003
3.79847E+06 3.68000
3.81397E+06 3.67998
3.82947E+06 3.67996
3.84498E+06 3.67993
3.86048E+06 3.67991
3.87598E+06 3.67988
3.89148E+06 3.67986
3.90699E+06 3.67984
3.92249E+06 3.67982
3.93799E+06 3.67980
3.95349E+06 3.67978
3.96900E+06 3.67975
3.98450E+06 3.67974
4.00000E+06 3.67972
4.11804E+06 3.70075
4.23607E+06 3.72163
4.35411E+06 3.74236
4.47214E+06 3.76297
4.60043E+06 3.78419
4.72871E+06 3.80529
4.86246E+06 3.82663
5.00000E+06 3.84809
5.16624E+06 3.89314
5.36313E+06 3.94531
5.56753E+06 3.99818
5.77972E+06 4.05177
6.00000E+06 4.10606
6.05894E+06 4.12124
6.11787E+06 4.13638
6.17681E+06 4.15149
6.23574E+06 4.16659
6.29699E+06 4.18197
6.35824E+06 4.19733
6.41949E+06 4.21267
6.48074E+06 4.22801
6.54440E+06 4.24359
6.60806E+06 4.25916
6.67171E+06 4.27475
6.73537E+06 4.29034
6.80153E+06 4.30611
6.86769E+06 4.32190
6.93384E+06 4.33772
7.00000E+06 4.35359
7.07615E+06 4.36501
7.15230E+06 4.37645
7.22845E+06 4.38792
7.30460E+06 4.39942
7.34806E+06 4.40561
7.39153E+06 4.41180
7.43499E+06 4.41799
7.47845E+06 4.42418
7.52191E+06 4.43037
7.56538E+06 4.43657
7.60884E+06 4.44277
7.65230E+06 4.44898
7.69576E+06 4.45520
7.73923E+06 4.46141
7.78269E+06 4.46764
7.82615E+06 4.47388
7.86961E+06 4.48012
7.91308E+06 4.48637
7.95654E+06 4.49263
8.00000E+06 4.49890
8.01517E+06 4.49926
8.03033E+06 4.49962
8.04550E+06 4.49998
8.06066E+06 4.50034
8.07583E+06 4.50071
8.09099E+06 4.50107
8.10616E+06 4.50144
8.12132E+06 4.50180
8.13649E+06 4.50217
8.15165E+06 4.50254
8.16682E+06 4.50292
8.18198E+06 4.50329
8.19715E+06 4.50366
8.21231E+06 4.50404
8.22748E+06 4.50441
8.24264E+06 4.50479
8.25781E+06 4.50517
8.27297E+06 4.50555
8.28814E+06 4.50594
8.30330E+06 4.50632
8.31847E+06 4.50671
8.33363E+06 4.50709
8.34880E+06 4.50748
8.36396E+06 4.50787
8.37913E+06 4.50826
8.39429E+06 4.50865
8.40946E+06 4.50905
8.42462E+06 4.50944
8.43979E+06 4.50984
8.45495E+06 4.51024
8.47012E+06 4.51064
8.48528E+06 4.51104
8.50548E+06 4.51150
8.52567E+06 4.51196
8.54587E+06 4.51243
8.56607E+06 4.51290
8.58627E+06 4.51338
8.60646E+06 4.51385
8.62666E+06 4.51433
8.64686E+06 4.51481
8.66705E+06 4.51530
8.68725E+06 4.51578
8.70745E+06 4.51627
8.72764E+06 4.51677
8.74784E+06 4.51726
8.76804E+06 4.51776
8.78823E+06 4.51826
8.80843E+06 4.51876
8.85632E+06 4.51986
8.90422E+06 4.52097
8.95211E+06 4.52208
9.00000E+06 4.52321
9.06085E+06 4.51828
9.12171E+06 4.51339
9.18256E+06 4.50856
9.24342E+06 4.50376
9.30427E+06 4.49901
9.36512E+06 4.49431
9.42598E+06 4.48965
9.48683E+06 4.48503
9.56612E+06 4.47903
9.64541E+06 4.47309
9.73406E+06 4.46649
9.82271E+06 4.45998
9.91135E+06 4.45354
1.00000E+07 4.44719
1.00460E+07 4.43940
1.00598E+07 4.43708
1.00736E+07 4.43475
1.00875E+07 4.43243
1.01013E+07 4.43012
1.01151E+07 4.42781
1.01289E+07 4.42550
1.01427E+07 4.42319
1.01565E+07 4.42089
1.01704E+07 4.41860
1.01842E+07 4.41630
1.01980E+07 4.41401
1.02118E+07 4.41173
1.02256E+07 4.40944
1.02394E+07 4.40717
1.02532E+07 4.40489
1.02671E+07 4.40262
1.02809E+07 4.40035
1.02947E+07 4.39808
1.03085E+07 4.39582
1.03223E+07 4.39357
1.03361E+07 4.39131
1.03500E+07 4.38906
1.03638E+07 4.38682
1.03776E+07 4.38457
1.03914E+07 4.38233
1.04052E+07 4.38010
1.04190E+07 4.37786
1.04328E+07 4.37564
1.04467E+07 4.37341
1.04605E+07 4.37119
1.04743E+07 4.36897
1.04881E+07 4.36676
1.05041E+07 4.36423
1.05201E+07 4.36170
1.05361E+07 4.35918
1.05521E+07 4.35666
1.05681E+07 4.35414
1.05841E+07 4.35164
1.06001E+07 4.34913
1.06161E+07 4.34663
1.06321E+07 4.34414
1.06481E+07 4.34165
1.06641E+07 4.33917
1.06801E+07 4.33669
1.06961E+07 4.33422
1.07121E+07 4.33175
1.07281E+07 4.32929
1.07441E+07 4.32683
1.07601E+07 4.32438
1.07761E+07 4.32193
1.07921E+07 4.31949
1.08080E+07 4.31706
1.08240E+07 4.31463
1.08400E+07 4.31220
1.08560E+07 4.30979
1.08720E+07 4.30737
1.08880E+07 4.30497
1.09040E+07 4.30257
1.09200E+07 4.30017
1.09360E+07 4.29778
1.09520E+07 4.29540
1.09680E+07 4.29303
1.09840E+07 4.29066
1.10000E+07 4.28830
1.10197E+07 4.28535
1.10393E+07 4.28241
1.10590E+07 4.27949
1.10787E+07 4.27657
1.10984E+07 4.27366
1.11180E+07 4.27076
1.11377E+07 4.26787
1.11574E+07 4.26499
1.11770E+07 4.26212
1.11967E+07 4.25926
1.12164E+07 4.25642
1.12360E+07 4.25358
1.12557E+07 4.25076
1.12754E+07 4.24795
1.12950E+07 4.24515
1.13147E+07 4.24237
1.13693E+07 4.23456
1.14238E+07 4.22685
1.14598E+07 4.22120
1.14958E+07 4.21566
1.15318E+07 4.21021
1.15679E+07 4.20486
1.16039E+07 4.19960
1.16399E+07 4.19445
1.16759E+07 4.18939
1.17119E+07 4.18443
1.17479E+07 4.17957
1.17839E+07 4.17480
1.18199E+07 4.17012
1.18560E+07 4.16555
1.18920E+07 4.16106
1.19280E+07 4.15668
1.19640E+07 4.15239
1.20000E+07 4.14820
1.20613E+07 4.13644
1.21225E+07 4.12494
1.21838E+07 4.11369
1.22450E+07 4.10269
1.23063E+07 4.09195
1.23675E+07 4.08146
1.24288E+07 4.07122
1.24900E+07 4.06123
1.25538E+07 4.05081
1.26175E+07 4.04066
1.26813E+07 4.03079
1.27450E+07 4.02119
1.28088E+07 4.01188
1.28725E+07 4.00284
1.29363E+07 3.99409
1.30000E+07 3.98563
1.30625E+07 3.97528
1.31250E+07 3.96508
1.31875E+07 3.95505
1.32500E+07 3.94519
1.33125E+07 3.93549
1.33750E+07 3.92597
1.34375E+07 3.91661
1.35000E+07 3.90743
1.35625E+07 3.89843
1.36250E+07 3.88961
1.36875E+07 3.88098
1.37500E+07 3.87254
1.38125E+07 3.86430
1.38750E+07 3.85625
1.39375E+07 3.84842
1.40000E+07 3.84080
1.40625E+07 3.83218
1.41250E+07 3.82375
1.41875E+07 3.81552
1.42500E+07 3.80749
1.43125E+07 3.79965
1.43750E+07 3.79202
1.44375E+07 3.78460
1.45000E+07 3.77739
1.46250E+07 3.76129
1.47500E+07 3.74586
1.48750E+07 3.73113
1.50000E+07 3.71711
1.51250E+07 3.70170
1.52500E+07 3.68688
1.53750E+07 3.67263
1.55000E+07 3.65898
1.56250E+07 3.64593
1.57500E+07 3.63350
1.58750E+07 3.62168
1.60000E+07 3.61051
1.62500E+07 3.57924
1.65000E+07 3.54976
1.67500E+07 3.52208
1.70000E+07 3.49619
1.73456E+07 3.45839
1.76911E+07 3.42301
1.80000E+07 3.39171
1.82500E+07 3.35656
1.85000E+07 3.32252
1.87500E+07 3.28956
1.90000E+07 3.25766
1.92269E+07 3.22889
1.94538E+07 3.20082
1.95167E+07 3.19311
1.97584E+07 3.16390
2.00000E+07 3.13539