Br-79(n,g) ENDF/B-VII.1
Energy(eV) XS(b)
1.00000E-05 553.373
1.25000E-05 494.951
1.50000E-05 451.827
2.00000E-05 391.293
2.75000E-05 333.696
3.50000E-05 295.790
4.25000E-05 268.425
5.00000E-05 247.476
6.25000E-05 221.349
7.50000E-05 202.063
0.000100000 174.992
0.000125000 156.517
0.000150000 142.880
0.000200000 123.738
0.000275000 105.524
0.000350000 93.5368
0.000425000 84.8832
0.000500000 78.2584
0.000625000 69.9964
0.000750000 63.8976
0.00100000 55.3369
0.00125000 49.4947
0.00150000 45.1822
0.00200000 39.1288
0.00275000 33.3690
0.00350000 29.5783
0.00425000 26.8417
0.00500000 24.7467
0.00625000 22.1340
0.00750000 20.2053
0.0100000 17.4980
0.0125000 15.6504
0.0150000 14.2866
0.0200000 12.3721
0.0253000 10.9998
0.0314750 9.86151
0.0376500 9.01626
0.0500000 7.82328
0.0625000 6.99679
0.0750000 6.38665
0.100000 5.53013
0.125000 4.94553
0.150000 4.51395
0.200000 3.90804
0.275000 3.33139
0.350000 2.95180
0.500000 2.46792
0.750000 2.01316
1.00000 1.74233
1.50000 1.42204
2.00000 1.23248
2.75000 1.05457
3.50000 0.940335
5.00000 0.802274
7.50000 0.692311
10.0000 0.652203
15.0000 0.692001
20.0000 0.908290
23.9100 1.34676
25.8650 1.78720
27.8200 2.58375
28.7975 3.24854
29.7750 4.25532
30.7525 5.88944
31.7300 8.81353
32.2188 11.2353
32.7075 14.8764
33.1963 20.7233
33.6850 31.0094
33.9294 39.3746
34.1738 51.7172
34.4181 71.0229
34.6625 103.685
34.7847 129.216
34.9069 165.460
35.0291 219.268
35.1513 303.834
35.2734 447.021
35.3956 714.535
35.4567 941.228
35.5178 1281.84
35.5789 1809.35
35.6400 2629.73
35.7200 4202.45
35.8000 5245.92
35.8800 4191.14
35.9600 2616.50
36.0149 1865.51
36.0697 1360.47
36.1245 1021.10
36.1794 788.074
36.2891 503.913
36.3988 346.958
36.5084 252.349
36.6181 191.329
36.8375 120.407
37.0569 82.5058
37.2763 59.9792
37.4956 45.5350
37.7150 35.7353
38.1538 23.6900
38.5925 16.8633
39.0313 12.6334
39.4700 9.83863
40.3475 6.50615
41.2250 4.68876
42.1025 3.60966
42.9800 2.93802
44.7350 2.26548
46.4900 2.15300
48.2450 2.62720
49.1225 3.26729
50.0000 4.50731
50.8775 7.16193
51.3163 9.73341
51.7550 14.2290
52.1938 23.1320
52.4131 31.2628
52.6325 44.6929
52.8519 69.1558
52.9616 89.6298
53.0713 120.506
53.1809 169.812
53.2906 254.245
53.3455 319.820
53.4003 410.623
53.4552 537.888
53.5100 715.045
53.6050 1142.78
53.7000 1426.94
53.7950 1140.48
53.8900 712.295
53.9801 448.788
54.0701 296.849
54.1602 207.237
54.2502 151.560
54.4304 90.1746
54.6105 59.3901
54.7906 41.9542
54.9707 31.1796
55.3309 19.1529
55.6912 12.9638
56.0514 9.37126
56.4117 7.10379
56.7719 5.58191
57.4924 3.72895
58.2128 2.68556
58.9333 2.03942
59.6538 1.61086
61.0947 1.09359
62.5356 0.803282
65.4175 0.502414
68.2994 0.355114
71.1813 0.270867
76.9450 0.181693
82.7088 0.137417
88.4725 0.112332
100.000 0.0874838
114.437 0.0771598
128.873 0.0785238
143.310 0.0910472
150.528 0.107499
154.137 0.135755
155.039 0.158163
155.942 0.214389
156.393 0.284791
156.618 0.349833
156.844 0.459172
157.069 0.664675
157.182 0.842623
157.295 1.12040
157.408 1.58717
157.521 2.44836
157.577 3.16868
157.633 4.23749
157.690 5.86627
157.746 8.34687
157.823 13.2691
157.900 16.5428
157.977 13.2631
158.054 8.33982
158.115 5.69254
158.176 4.02016
158.237 2.95681
158.298 2.25776
158.421 1.44316
158.543 1.01300
158.665 0.760984
158.787 0.601904
159.031 0.420692
159.276 0.325926
159.520 0.270566
160.009 0.212386
160.986 0.169888
161.963 0.156820
165.872 0.160298
169.781 0.188540
173.690 0.240443
177.598 0.344948
179.553 0.444517
181.507 0.620709
183.462 0.985485
184.439 1.33983
185.416 1.97158
185.905 2.49342
186.393 3.27631
186.882 4.53012
187.371 6.72774
187.615 8.50846
187.859 11.1267
188.104 15.2022
188.226 18.1497
188.348 22.0499
188.470 27.3677
188.592 34.8604
188.714 45.8953
188.836 63.0147
188.959 91.5156
189.020 113.288
189.081 143.298
189.142 186.007
189.203 248.499
189.264 342.088
189.325 481.893
189.413 770.611
189.500 962.863
189.588 770.147
189.675 481.397
189.759 302.693
189.842 200.076
189.925 139.679
190.009 102.212
190.176 60.9754
190.342 40.3494
190.509 28.7147
190.676 21.5772
191.010 13.8041
191.343 10.2420
191.677 9.25008
191.844 9.99529
192.010 12.5814
192.094 15.3587
192.177 20.2267
192.261 29.1727
192.344 46.0452
192.422 71.3193
192.500 88.1593
192.578 70.9550
192.656 45.3350
192.713 32.3875
192.771 23.9131
192.886 14.5783
193.000 10.0221
193.115 7.50158
193.345 4.93233
193.574 3.67937
194.033 2.46828
194.492 1.87300
195.410 1.27280
196.328 0.969252
198.164 0.673226
200.000 0.541174
202.862 0.459744
205.723 0.451388
208.585 0.518302
209.300 0.573822
210.015 0.705816
210.373 0.863739
210.731 1.23782
210.910 1.65884
211.088 2.53991
211.178 3.38560
211.267 4.83470
211.357 7.52230
211.446 12.7642
211.523 20.0822
211.600 24.9434
211.677 20.0787
211.754 12.7624
211.806 9.29229
211.858 6.94327
211.963 4.26290
212.067 2.92391
212.172 2.18198
212.380 1.44602
212.589 1.11232
213.007 0.833876
213.424 0.729475
215.095 0.662492
218.436 0.799643
221.776 1.08313
225.117 1.61133
226.787 2.05528
228.458 2.72867
230.128 3.82049
231.799 5.76443
232.634 7.36324
233.469 9.74732
234.304 13.5287
235.139 20.0536
235.557 25.2536
235.975 32.7725
236.392 44.2102
236.810 62.8024
237.227 95.8657
237.436 122.865
237.645 162.598
237.854 223.952
238.063 324.149
238.271 497.517
238.480 805.796
238.690 1288.52
238.900 1609.20
239.110 1286.23
239.320 803.476
239.527 497.335
239.734 324.704
239.942 224.573
240.149 163.156
240.356 123.302
240.563 96.2072
240.977 62.9944
241.391 44.3019
241.806 32.8039
242.634 20.0200
243.463 13.4672
244.291 9.67517
245.120 7.28794
245.948 5.68965
247.605 3.75111
249.262 2.66672
250.919 2.00067
252.576 1.56339
255.890 1.04555
259.204 0.765650
262.519 0.601290
265.833 0.500920
272.461 0.408096
279.089 0.417819
282.403 0.475693
285.717 0.622907
287.374 0.783726
289.031 1.11215
289.860 1.42964
290.688 2.00418
291.102 2.49942
291.517 3.31336
291.724 3.97503
291.931 5.04072
292.138 7.23596
292.242 9.59161
292.345 14.2449
292.500 23.9926
292.655 16.2599
292.746 13.2678
292.837 12.3141
293.019 13.2867
293.201 16.6232
293.383 22.7317
293.474 27.4350
293.564 33.8891
293.655 43.0229
293.746 56.3997
293.837 76.9312
293.928 110.054
294.019 166.431
294.110 264.651
294.205 422.966
294.300 528.426
294.395 422.766
294.490 264.403
294.583 164.897
294.675 108.332
294.768 75.3446
294.860 55.0143
294.953 41.7871
295.045 32.7686
295.230 21.6881
295.415 15.4389
295.600 11.5883
295.970 7.30384
296.340 5.10894
296.710 3.84218
297.450 2.52315
298.190 1.89894
298.930 1.56809
300.410 1.28359
303.370 1.28605
306.330 1.70041
307.810 2.10400
309.290 2.73683
310.770 3.77759
311.510 4.56236
312.250 5.63819
312.990 7.16630
313.730 9.43749
314.470 13.0199
315.210 19.1470
315.580 23.9850
315.950 30.9173
316.320 41.3344
316.690 57.9788
317.060 86.8311
317.245 109.787
317.430 142.727
317.615 191.905
317.800 268.624
317.985 393.357
318.170 598.790
318.385 957.602
318.600 1196.16
318.815 956.286
319.030 597.458
319.177 426.315
319.325 311.185
319.472 233.770
319.619 180.561
319.913 115.625
320.208 79.7165
320.502 58.0481
320.797 44.0669
321.385 27.7979
321.974 19.0902
322.563 13.9080
323.152 10.5804
323.741 8.31911
324.918 5.53308
326.096 3.94843
327.274 2.96227
328.451 2.30741
330.807 1.51915
333.162 1.08093
335.517 0.812492
337.873 0.636315
342.583 0.427113
347.294 0.313103
352.004 0.245350
356.715 0.203445
366.136 0.165553
370.847 0.165881
375.558 0.184844
380.268 0.243162
382.624 0.306996
384.979 0.426980
386.157 0.529229
387.334 0.685941
388.512 0.942969
389.689 1.40692
390.278 1.79331
390.867 2.37602
391.456 3.31428
392.045 4.96824
392.339 6.31501
392.634 8.30192
392.928 11.4082
393.222 16.6565
393.370 20.7513
393.517 26.5522
393.664 35.1388
393.811 48.5764
393.958 71.1776
394.032 88.6270
394.106 112.961
394.179 147.977
394.253 200.028
394.326 279.535
394.400 401.234
394.500 641.739
394.600 801.926
394.700 641.510
394.800 400.978
394.868 287.294
394.935 210.475
395.003 158.572
395.071 122.759
395.206 78.8482
395.341 54.4876
395.476 39.7407
395.612 30.2104
395.882 19.0947
396.153 13.1350
396.423 9.58291
396.694 7.29994
396.964 5.74750
397.505 3.83343
398.046 2.74377
398.587 2.06532
399.128 1.61464
400.210 1.07180
401.292 0.769858
402.374 0.584739
403.456 0.463096
405.620 0.318125
407.784 0.238248
412.111 0.157765
416.439 0.120243
420.767 0.100226
429.423 0.0830245
438.078 0.0822926
446.734 0.0997573
451.062 0.123626
455.389 0.176593
457.553 0.230686
459.717 0.333961
460.799 0.428129
461.881 0.594069
462.422 0.741620
462.963 1.01454
463.234 1.28041
463.504 1.81492
463.639 2.34604
463.775 3.33922
463.842 4.19929
463.910 5.53303
463.977 7.69797
464.045 11.2723
464.123 17.4413
464.200 21.5706
464.278 17.5204
464.355 11.4328
464.412 8.38703
464.468 6.40514
464.581 4.26616
464.694 3.28286
464.808 2.79669
465.034 2.44701
465.260 2.45928
465.713 3.00868
466.165 4.24179
466.618 6.77206
466.844 9.07538
467.070 12.8344
467.296 19.5466
467.409 25.0403
467.523 33.1432
467.636 45.7049
467.749 66.2856
467.862 102.091
467.975 166.264
468.088 266.075
468.200 332.651
468.313 265.990
468.425 166.166
468.535 103.269
468.645 67.6651
468.755 46.9472
468.865 34.1983
468.975 25.9066
469.085 20.2638
469.305 13.3364
469.525 9.43097
469.745 7.02712
470.185 4.35339
470.625 2.98377
471.065 2.19364
471.946 1.37158
472.826 0.985210
473.706 0.786200
475.466 0.650758
477.226 0.750379
478.106 0.922754
478.987 1.26685
479.867 2.01136
480.307 2.73501
480.747 4.00153
481.187 6.51224
481.407 8.80478
481.627 12.5901
481.847 19.4814
481.957 25.2393
482.067 33.9102
482.177 47.7245
482.287 71.2991
482.342 89.5442
482.397 114.737
482.452 149.921
482.507 198.722
482.604 318.016
482.700 397.578
482.797 317.924
482.893 198.618
482.954 145.681
483.014 108.822
483.135 65.2898
483.257 42.7030
483.378 29.8788
483.499 21.9914
483.620 16.8371
483.862 10.7603
484.104 7.46575
484.347 5.48904
484.831 3.34001
485.316 2.26093
485.800 1.64493
486.285 1.26146
486.769 1.00806
487.738 0.712464
488.707 0.583034
489.192 0.582219
489.676 0.683766
489.919 0.842299
490.161 1.22756
490.282 1.64032
490.403 2.42549
490.464 3.10008
490.524 4.12243
490.585 5.72703
490.645 8.25033
490.723 13.0070
490.800 16.1698
490.877 12.9895
490.955 8.22997
491.025 5.37427
491.096 3.69244
491.167 2.68281
491.237 2.04739
491.379 1.33454
491.520 0.970231
491.662 0.759771
491.803 0.627090
492.085 0.473826
492.651 0.338056
493.216 0.276402
494.347 0.215793
495.477 0.183593
497.739 0.147795
500.000 0.128263
505.023 0.110506
507.534 0.118488
508.162 0.129775
508.790 0.160375
509.104 0.198774
509.418 0.290213
509.575 0.391612
509.732 0.597607
509.810 0.788509
509.889 1.10272
509.967 1.65228
510.046 2.64202
510.123 4.16662
510.200 5.18250
510.277 4.16595
510.354 2.64113
510.428 1.69576
510.502 1.15328
510.575 0.834102
510.649 0.636113
510.796 0.418025
510.943 0.308857
511.238 0.208835
511.532 0.166213
512.121 0.131584
512.710 0.118282
515.066 0.105602
519.777 0.108331
529.199 0.138668
533.911 0.168908
538.622 0.218920
543.333 0.315491
545.689 0.437037
546.278 0.511772
546.866 0.674950
547.161 0.860177
547.455 1.27848
547.603 1.72750
547.750 2.61460
547.823 3.41530
547.897 4.70008
547.971 6.87196
548.044 10.6273
548.122 16.7382
548.200 20.8136
548.278 16.7435
548.356 10.6396
548.419 7.31001
548.482 5.22985
548.545 3.91993
548.608 3.06670
548.734 2.07990
548.860 1.56523
549.113 1.08308
549.365 0.879601
549.869 0.729990
550.374 0.693830
552.392 0.804865
554.410 1.09289
556.428 1.62968
557.437 2.07673
558.446 2.74855
559.455 3.82448
559.960 4.62324
560.464 5.70644
560.969 7.22664
561.473 9.45373
561.978 12.9017
562.482 18.6474
562.734 23.0707
562.987 29.2549
563.239 38.2604
563.491 52.0312
563.743 74.4672
563.996 113.980
564.122 145.554
564.248 190.366
564.374 255.072
564.500 348.093
564.700 556.778
564.900 695.706
565.100 556.386
565.300 347.696
565.450 240.794
565.599 171.509
565.749 126.428
565.898 96.2487
566.197 60.4172
566.496 41.1320
566.795 29.7012
567.094 22.4175
567.692 14.0439
568.290 9.61369
568.888 6.99738
569.486 5.32663
570.084 4.19668
571.281 2.81215
572.477 2.03056
573.673 1.54846
574.869 1.23198
577.261 0.860708
579.653 0.667839
582.045 0.566245
584.438 0.521358
589.222 0.567865
591.614 0.681183
594.006 0.916279
596.399 1.43453
597.595 1.94403
598.791 2.84562
599.987 4.66219
600.585 6.35129
601.183 9.19504
601.482 11.4066
601.781 14.5280
602.080 19.1268
602.379 26.2779
602.678 38.1961
602.977 59.9262
603.127 77.8813
603.276 104.213
603.426 143.760
603.575 203.143
603.788 324.875
604.000 405.922
604.213 324.656
604.425 202.918
604.555 150.068
604.685 112.888
604.945 68.3887
605.204 45.0197
605.464 31.6309
605.724 23.3518
605.984 17.9150
606.503 11.4822
607.023 7.98303
607.542 5.87857
608.581 3.58742
609.620 2.43603
610.659 1.77868
611.699 1.36945
612.738 1.09856
614.816 0.776569
616.894 0.604824
621.050 0.458998
625.206 0.453328
627.284 0.500094
629.363 0.601036
631.441 0.812604
632.480 1.00920
633.519 1.34275
634.558 1.99348
635.077 2.59337
635.597 3.61347
636.117 5.59102
636.376 7.37666
636.636 10.3075
636.766 12.5371
636.896 15.6247
637.026 20.0658
637.156 26.7513
637.285 37.4276
637.350 45.2718
637.415 55.7066
637.480 69.9161
637.545 89.5703
637.610 117.121
637.675 155.484
637.788 248.283
637.900 310.172
638.013 248.270
638.125 155.515
638.246 92.7652
638.368 59.2040
638.489 40.5102
638.610 29.3826
638.731 22.3182
638.853 17.6015
639.095 11.9412
639.337 8.84599
639.580 7.00564
640.065 5.10625
640.550 4.32274
641.035 4.09046
642.005 4.67115
642.974 6.85562
643.459 9.09603
643.944 12.9874
644.187 16.0630
644.429 20.4515
644.672 26.9923
644.914 37.3002
645.157 54.8062
645.278 68.4332
645.399 87.5841
645.520 115.439
645.642 157.335
645.763 222.340
645.884 323.625
646.042 517.032
646.200 645.652
646.359 516.132
646.517 322.330
646.618 235.698
646.718 175.616
646.919 104.973
647.120 68.5099
647.321 47.8642
647.522 35.1963
647.723 26.9263
648.125 17.1863
648.527 11.9125
648.928 8.74731
649.732 5.30494
650.536 3.57248
651.340 2.57928
652.144 1.95689
652.947 1.54086
654.555 1.03551
656.162 0.751116
657.770 0.574792
659.377 0.457683
662.593 0.316150
665.808 0.236787
672.238 0.155326
678.668 0.116838
685.098 0.0965223
697.959 0.0811703
710.819 0.0873506
717.249 0.100600
723.679 0.127292
730.110 0.185009
733.325 0.241639
736.540 0.343120
738.147 0.427469
739.755 0.554975
741.362 0.761702
742.970 1.13126
743.774 1.43708
744.578 1.89639
745.381 2.63259
746.185 3.92309
746.587 4.96846
746.989 6.50424
747.391 8.89118
747.793 12.8897
747.994 15.9857
748.194 20.3363
748.395 26.7155
748.596 36.5591
748.797 52.8066
748.998 81.9679
749.099 105.708
749.199 139.984
749.300 190.594
749.400 265.001
749.550 423.893
749.700 529.738
749.850 423.726
750.000 264.832
750.148 164.053
750.296 107.168
750.444 74.1777
750.592 53.9379
750.739 40.7972
750.887 31.8625
751.183 20.9035
751.479 14.7351
751.774 10.9389
752.366 6.71757
752.957 4.55367
753.549 3.30152
754.140 2.51379
754.731 1.98705
755.914 1.35031
757.097 0.997048
759.463 0.646393
761.828 0.494859
764.194 0.429250
768.925 0.431624
771.291 0.488909
773.656 0.597406
776.022 0.791202
778.388 1.15376
779.570 1.45895
780.753 1.92045
781.936 2.66336
783.119 3.96872
783.710 5.02661
784.302 6.58044
784.893 8.99365
785.484 13.0317
785.780 16.1520
786.076 20.5321
786.372 26.9378
786.667 36.7991
786.963 53.0014
787.259 81.9206
787.407 105.319
787.554 138.927
787.702 188.200
787.850 260.120
788.075 416.085
788.300 519.951
788.525 415.858
788.750 259.886
788.934 174.019
789.119 120.624
789.303 87.1169
789.487 65.3091
789.856 40.1468
790.224 26.9752
790.593 19.3058
790.962 14.4768
791.699 8.99035
792.436 6.11916
793.173 4.43523
793.910 3.36517
794.647 2.64431
796.122 1.76693
797.596 1.28538
799.070 1.06055
799.439 1.07847
799.807 1.21165
799.992 1.39954
800.176 1.82552
800.268 2.24952
800.360 2.98962
800.452 4.38723
800.544 7.16526
800.622 11.0103
800.700 13.5703
800.778 10.9923
800.856 7.12990
800.907 5.34498
800.958 4.12410
801.060 2.70550
801.163 1.98123
801.265 1.57163
801.469 1.15098
801.674 0.947626
802.083 0.754348
802.492 0.658817
804.128 0.488593
807.400 0.344876
810.673 0.292114
811.491 0.302698
812.309 0.354265
812.718 0.429073
813.127 0.621097
813.331 0.847295
813.434 1.04136
813.536 1.34041
813.638 1.83308
813.740 2.71292
813.843 4.45206
813.894 5.95540
813.945 8.15329
814.022 12.9108
814.100 16.0817
814.178 12.9089
814.255 8.15043
814.318 5.56776
814.380 3.94936
814.442 2.92407
814.505 2.25379
814.629 1.47496
814.754 1.06512
814.879 0.825578
815.003 0.674586
815.253 0.503510
815.751 0.365725
816.250 0.322555
816.749 0.325692
817.247 0.393342
817.497 0.489905
817.746 0.718121
817.871 0.960838
817.996 1.42396
818.058 1.82412
818.120 2.43481
818.183 3.40061
818.245 4.93925
818.322 7.77803
818.400 9.66987
818.478 7.77554
818.555 4.93481
818.606 3.63299
818.656 2.73898
818.758 1.70015
818.859 1.17087
818.960 0.873572
819.162 0.573592
819.365 0.434648
819.769 0.314404
820.174 0.265632
820.983 0.228882
821.793 0.218968
823.411 0.229393
825.030 0.274483
826.649 0.386939
827.458 0.502140
828.267 0.711126
829.077 1.14478
829.481 1.55939
829.886 2.27808
830.291 3.68724
830.493 4.96068
830.695 7.04100
830.898 10.7694
830.999 13.8364
831.100 18.3769
831.201 25.4606
831.302 37.1670
831.353 45.9694
831.403 57.8112
831.454 73.8583
831.505 95.3683
831.553 122.051
831.602 152.538
831.700 190.580
831.749 179.362
831.798 152.454
831.896 95.2936
831.970 65.5506
832.045 46.4524
832.119 34.1170
832.194 25.9064
832.343 16.2149
832.492 11.0281
832.641 7.96567
832.790 6.01816
833.088 3.78406
833.386 2.60391
833.684 1.90751
834.280 1.16167
834.876 0.791824
835.472 0.581890
836.664 0.364282
837.856 0.259104
839.048 0.200006
841.432 0.138747
843.816 0.108733
846.201 0.0915706
850.969 0.0738049
855.737 0.0667742
860.505 0.0687513
862.890 0.0770049
865.274 0.103048
866.466 0.139136
867.062 0.174469
867.658 0.237363
868.254 0.366043
868.552 0.487920
868.850 0.697627
869.148 1.10445
869.297 1.46836
869.446 2.05643
869.595 3.09299
869.744 5.15498
869.819 7.02103
869.893 10.0179
869.968 15.0845
870.042 23.8400
870.121 38.1065
870.200 47.6148
870.279 38.1030
870.358 23.8357
870.445 14.0415
870.532 8.85927
870.618 5.99572
870.705 4.29691
870.792 3.22037
870.878 2.50196
871.052 1.63694
871.225 1.15835
871.399 0.867463
871.746 0.547522
872.092 0.385165
872.439 0.291895
873.133 0.194666
873.827 0.148009
874.520 0.122424
875.908 0.0977546
878.683 0.0853483
881.457 0.0921575
884.232 0.118293
885.620 0.146172
887.007 0.197411
888.394 0.305935
889.088 0.412435
889.782 0.603149
890.129 0.760963
890.475 0.997619
890.822 1.37615
891.169 2.03678
891.516 3.34860
891.689 4.55116
891.863 6.54715
892.036 10.2124
892.123 13.3021
892.210 17.9977
892.296 25.5742
892.340 31.1997
892.383 38.7430
892.427 49.1317
892.470 63.6733
892.513 84.4157
892.557 113.698
892.592 145.525
892.628 181.888
892.700 227.240
892.736 213.862
892.772 181.769
892.844 113.598
892.929 64.2164
893.014 39.3229
893.099 26.0639
893.184 18.3997
893.270 13.6248
893.355 10.4774
893.525 6.73209
893.695 4.68468
893.866 3.45005
894.206 2.10174
894.547 1.42177
894.888 1.03244
895.228 0.789062
895.569 0.627091
896.250 0.431901
896.931 0.323643
898.294 0.215082
899.657 0.165834
901.019 0.140909
903.744 0.122326
906.470 0.124082
909.195 0.141155
911.920 0.191492
912.601 0.225191
913.283 0.300765
913.623 0.388429
913.794 0.466023
913.964 0.591853
914.134 0.817125
914.304 1.28115
914.390 1.71958
914.475 2.45690
914.560 3.79222
914.645 6.30882
914.723 9.97449
914.800 12.4178
914.878 9.97688
914.955 6.31424
915.014 4.40566
915.073 3.18141
915.133 2.39024
915.192 1.86526
915.310 1.24645
915.428 0.916798
915.665 0.601640
915.901 0.464719
916.374 0.357763
916.848 0.324632
918.740 0.351258
920.633 0.467964
922.525 0.692660
923.471 0.880913
924.418 1.16412
925.364 1.61745
926.310 2.40828
927.256 3.97480
927.729 5.40695
928.203 7.77633
928.676 12.1033
928.912 15.7336
929.149 21.2188
929.385 30.0080
929.622 45.1150
929.859 73.2754
929.977 96.3260
930.095 128.526
930.298 205.600
930.500 256.940
930.703 205.512
930.905 128.436
931.040 92.4739
931.175 67.9971
931.445 39.8716
931.715 25.7025
931.985 17.7998
932.255 13.0046
932.525 9.89661
933.064 6.26537
933.604 4.31441
934.144 3.15003
935.224 1.89113
936.303 1.26209
937.383 0.903682
938.462 0.680382
939.542 0.531949
941.701 0.353092
943.860 0.253545
946.020 0.192495
948.179 0.152370
952.497 0.104570
956.816 0.0782806
965.453 0.0519675
974.089 0.0399886
982.726 0.0340268
991.363 0.0314962
1000.00 0.0325126
1005.92 0.0403344
1007.40 0.0473699
1008.88 0.0654878
1009.63 0.0888324
1010.00 0.110946
1010.37 0.149297
1010.74 0.225012
1010.92 0.294207
1011.11 0.408790
1011.29 0.618477
1011.38 0.796047
1011.48 1.06239
1011.57 1.49573
1011.66 2.23758
1011.75 3.64932
1011.85 6.42583
1011.92 10.2768
1012.00 12.7965
1012.08 10.2236
1012.16 6.42530
1012.21 4.68619
1012.26 3.48642
1012.35 2.09479
1012.45 1.37821
1012.55 0.972783
1012.65 0.724404
1012.75 0.562336
1012.95 0.371819
1013.15 0.268562
1013.35 0.207211
1013.74 0.140994
1014.14 0.108206
1014.53 0.0900187
1015.33 0.0724103
1016.91 0.0640656
1018.50 0.0700264
1020.08 0.0903368
1020.88 0.111301
1021.67 0.148905
1022.46 0.226437
1022.86 0.300433
1023.25 0.429254
1023.65 0.685387
1023.85 0.919755
1024.05 1.30893
1024.24 2.02388
1024.34 2.62774
1024.44 3.54701
1024.54 5.03403
1024.64 7.62837
1024.74 12.5684
1024.79 16.7461
1024.84 22.5651
1024.92 36.0936
1025.00 45.1201
1025.08 36.0912
1025.16 22.5628
1025.25 13.2858
1025.34 8.37672
1025.43 5.66697
1025.52 4.06064
1025.61 3.04427
1025.70 2.36547
1025.87 1.55215
1026.05 1.09982
1026.23 0.826583
1026.58 0.526142
1026.94 0.375082
1027.29 0.290555
1028.00 0.209573
1028.72 0.186595
1029.43 0.215066
1029.78 0.271438
1029.96 0.326566
1030.14 0.419173
1030.31 0.590925
1030.49 0.951255
1030.58 1.29933
1030.67 1.89570
1030.76 2.99959
1030.85 5.11117
1030.92 8.13779
1031.00 10.1212
1031.08 8.09529
1031.16 5.10938
1031.25 2.94700
1031.34 1.84930
1031.43 1.26168
1031.52 0.920587
1031.61 0.707931
1031.70 0.567441
1031.88 0.400347
1032.07 0.309249
1032.25 0.254612
1032.61 0.196078
1033.34 0.154185
1034.07 0.145309
1035.52 0.163215
1036.98 0.219727
1037.71 0.270901
1038.43 0.350092
1039.16 0.479778
1039.89 0.711212
1040.25 0.901787
1040.62 1.18561
1040.98 1.63458
1041.34 2.40567
1041.71 3.89644
1041.89 5.22466
1042.07 7.36174
1042.25 11.1040
1042.44 18.4697
1042.53 25.0589
1042.62 35.5133
1042.71 52.8947
1042.75 65.5608
1042.80 81.8863
1042.85 105.204
1042.90 131.320
1043.00 163.862
1043.05 153.932
1043.10 130.783
1043.20 81.8684
1043.29 52.1467
1043.39 34.9236
1043.48 24.5167
1043.57 18.0590
1043.76 10.8233
1043.94 7.16161
1044.13 5.07565
1044.31 3.78128
1044.68 2.33330
1045.05 1.58262
1045.42 1.14586
1045.79 0.869804
1046.16 0.684776
1046.90 0.458751
1047.64 0.331776
1048.38 0.253239
1049.12 0.201428
1050.60 0.139344
1052.08 0.105016
1055.03 0.0704011
1057.99 0.0542512
1060.95 0.0455486
1066.86 0.0372810
1078.69 0.0330659
1090.52 0.0342970
1114.18 0.0459641
1126.01 0.0603161
1131.93 0.0809355
1133.41 0.0959675
1134.89 0.133252
1135.63 0.180786
1136.00 0.225806
1136.37 0.303609
1136.74 0.457537
1136.92 0.598213
1137.10 0.829500
1137.29 1.25408
1137.38 1.61323
1137.47 2.15127
1137.57 3.02510
1137.66 4.51706
1137.75 7.30252
1137.84 12.7870
1137.92 20.4838
1138.00 25.5354
1138.08 20.3787
1138.16 12.7858
1138.21 9.18570
1138.26 6.78695
1138.37 4.00376
1138.47 2.60484
1138.58 1.83143
1138.68 1.35712
1138.79 1.05252
1138.99 0.694483
1139.20 0.501499
1139.41 0.387122
1139.83 0.263785
1140.25 0.202483
1140.67 0.168071
1141.51 0.133333
1143.18 0.110128
1144.85 0.104860
1151.55 0.119339
1158.25 0.158353
1161.59 0.204327
1162.43 0.233209
1163.27 0.301060
1163.69 0.386471
1163.90 0.467620
1164.10 0.610040
1164.31 0.897961
1164.42 1.17014
1164.52 1.63078
1164.63 2.52513
1164.68 3.31068
1164.73 4.56500
1164.78 6.79400
1164.81 8.54475
1164.84 11.0595
1164.86 14.8189
1164.88 17.4143
1164.89 20.6934
1164.90 24.8793
1164.91 30.2639
1164.93 37.2033
1164.94 46.0584
1164.96 58.8430
1164.97 73.4253
1165.00 91.6101
1165.02 86.2658
1165.03 73.4237
1165.06 46.0571
1165.08 32.2152
1165.10 23.4788
1165.12 17.6407
1165.15 13.6460
1165.19 8.70934
1165.23 6.07015
1165.27 4.44915
1165.32 3.43214
1165.40 2.23715
1165.49 1.60072
1165.57 1.22327
1165.74 0.819662
1165.91 0.618377
1166.08 0.505001
1166.42 0.390114
1167.10 0.309912
1167.78 0.287153
1170.49 0.300417
1175.92 0.438161
1178.64 0.565816
1181.36 0.791189
1182.71 1.00006
1184.07 1.42452
1184.75 1.89069
1185.09 2.30074
1185.43 2.97115
1185.77 4.21672
1185.94 5.29402
1186.11 6.97413
1186.28 9.84259
1186.45 15.2102
1186.53 19.8286
1186.62 26.8499
1186.70 37.8881
1186.79 55.0947
1186.84 70.3030
1186.89 87.3276
1187.00 108.769
1187.11 87.3554
1187.21 55.1585
1187.29 39.8198
1187.36 29.5849
1187.50 17.8154
1187.65 11.9444
1187.79 8.71652
1187.94 6.76051
1188.08 5.50819
1188.37 4.08272
1188.95 2.95325
1189.53 2.61557
1190.69 2.71641
1191.27 3.14410
1191.56 3.83192
1191.70 4.78838
1191.77 5.73642
1191.84 7.33461
1192.00 11.7432
1192.16 7.50688
1192.28 5.35748
1192.40 4.51175
1192.63 4.00830
1193.11 4.06837
1194.07 4.99009
1195.02 6.54285
1195.98 9.04648
1196.93 13.3533
1197.41 16.7361
1197.89 21.5129
1198.37 28.5281
1198.85 39.2067
1199.32 56.0117
1199.80 82.5486
1200.40 131.672
1201.00 164.206
1201.61 131.075
1202.21 81.7048
1202.61 58.8700
1203.01 43.3554
1203.81 25.4674
1204.61 16.4392
1205.41 11.4019
1206.21 8.33791
1207.01 6.35282
1208.62 4.03026
1210.22 2.78228
1211.82 2.03833
1215.02 1.23905
1218.22 0.853343
1221.42 0.673940
1223.02 0.663513
1224.63 0.788459
1225.43 1.01156
1225.83 1.23849
1226.23 1.64368
1226.63 2.46010
1226.83 3.20943
1227.03 4.45156
1227.23 6.72027
1227.33 8.62218
1227.43 11.4937
1227.53 16.0837
1227.63 23.9519
1227.73 38.5417
1227.78 50.4277
1227.83 66.9857
1227.87 85.9896
1227.91 107.188
1228.00 133.566
1228.09 106.683
1228.17 66.9671
1228.26 41.8936
1228.34 27.7423
1228.42 19.3524
1228.51 14.2285
1228.67 8.56280
1228.84 5.74414
1229.01 4.13820
1229.17 3.14645
1229.51 2.04071
1229.84 1.46735
1230.17 1.13328
1230.84 0.775491
1231.51 0.595949
1232.18 0.491540
1233.51 0.378786
1234.84 0.323610
1236.18 0.305344
1236.84 0.319468
1237.51 0.383739
1237.85 0.474834
1238.01 0.560188
1238.18 0.701191
1238.35 0.959023
1238.51 1.48957
1238.60 1.99593
1238.68 2.83451
1238.76 4.33313
1238.84 7.11380
1238.92 11.2699
1239.00 14.0469
1239.08 11.2670
1239.16 7.10838
1239.21 5.05109
1239.27 3.71383
1239.32 2.81127
1239.38 2.20909
1239.49 1.47478
1239.60 1.07574
1239.71 0.833699
1239.82 0.677916
1240.04 0.497141
1240.49 0.340229
1240.93 0.274456
1241.81 0.217805
1242.70 0.191711
1246.24 0.146917
1253.33 0.107800
1267.50 0.0722238
1281.67 0.0601283
1288.76 0.0687947
1290.53 0.0796411
1292.30 0.109172
1293.19 0.148027
1293.63 0.185238
1294.07 0.250152
1294.51 0.380187
1294.74 0.501016
1294.96 0.703234
1295.18 1.08385
1295.29 1.41248
1295.40 1.91837
1295.51 2.76852
1295.62 4.30213
1295.68 5.59236
1295.73 7.45171
1295.79 10.2357
1295.84 14.4034
1295.92 23.0417
1296.00 28.8147
1296.08 23.0408
1296.16 14.4027
1296.23 9.14241
1296.31 6.12348
1296.38 4.32281
1296.45 3.19431
1296.60 1.93360
1296.74 1.30188
1296.89 0.940292
1297.04 0.718046
1297.33 0.469139
1297.62 0.342032
1297.92 0.269670
1298.50 0.198762
1299.09 0.176084
1299.67 0.193357
1299.97 0.232445
1300.26 0.334016
1300.41 0.448541
1300.55 0.677325
1300.63 0.885105
1300.70 1.21931
1300.77 1.78502
1300.85 2.76384
1300.92 4.37531
1301.00 5.43349
1301.08 4.35216
1301.16 2.76185
1301.24 1.67577
1301.32 1.10160
1301.41 0.777805
1301.49 0.586963
1301.66 0.382834
1301.82 0.284016
1302.16 0.196307
1302.49 0.160691
1303.16 0.135235
1303.82 0.130581
1305.16 0.145344
1306.49 0.188251
1307.83 0.286605
1308.50 0.384336
1309.16 0.559196
1309.50 0.703507
1309.83 0.918160
1310.16 1.25972
1310.50 1.84712
1310.83 2.99479
1311.00 4.02673
1311.16 5.69063
1311.33 8.65924
1311.41 11.0970
1311.50 14.6356
1311.58 20.1545
1311.66 29.0271
1311.71 35.6644
1311.75 44.2449
1311.79 55.9483
1311.83 71.0118
1311.87 91.0645
1311.92 113.397
1312.00 141.572
1312.04 133.104
1312.09 113.389
1312.17 71.0033
1312.24 46.4692
1312.32 31.7970
1312.39 22.7546
1312.46 16.9490
1312.61 10.3399
1312.76 6.92369
1312.90 4.95174
1313.05 3.71751
1313.34 2.32424
1313.63 1.60153
1313.92 1.18235
1314.51 0.751021
1315.09 0.571184
1315.68 0.555910
1315.97 0.647791
1316.11 0.750217
1316.26 0.928611
1316.41 1.25669
1316.55 1.92394
1316.63 2.53230
1316.70 3.51111
1316.77 5.16512
1316.84 8.01677
1316.92 12.6957
1317.00 15.8141
1317.08 12.6846
1317.16 7.99523
1317.22 5.47308
1317.28 3.88112
1317.34 2.86888
1317.40 2.20287
1317.53 1.42477
1317.65 1.01115
1317.78 0.766928
1317.90 0.610851
1318.15 0.429826
1318.40 0.330868
1318.64 0.270366
1319.14 0.200951
1320.13 0.138319
1321.12 0.109038
1323.10 0.0805567
1325.08 0.0666692
1329.04 0.0535351
1333.00 0.0478690
1340.92 0.0450288
1344.89 0.0486061
1346.87 0.0613567
1347.36 0.0730371
1347.86 0.102346
1348.10 0.137484
1348.35 0.216692
1348.48 0.300030
1348.60 0.458406
1348.72 0.803613
1348.79 1.13365
1348.85 1.64864
1348.92 2.60642
1349.00 3.24325
1349.08 2.60637
1349.15 1.64865
1349.20 1.21034
1349.25 0.908547
1349.35 0.559387
1349.45 0.380093
1349.55 0.278846
1349.75 0.176205
1349.95 0.128979
1350.35 0.0882547
1350.74 0.0719528
1352.33 0.0555087
1355.50 0.0563462
1357.09 0.0620445
1358.67 0.0764788
1359.47 0.0944574
1360.26 0.140332
1360.66 0.197721
1360.85 0.250198
1361.05 0.337482
1361.25 0.499640
1361.35 0.636908
1361.45 0.847183
1361.55 1.19038
1361.65 1.79710
1361.75 2.97570
1361.80 3.99161
1361.85 5.42798
1361.92 8.65911
1362.00 10.7712
1362.08 8.61489
1362.16 5.42812
1362.22 3.53912
1362.29 2.41080
1362.36 1.72632
1362.43 1.29215
1362.57 0.803895
1362.71 0.555853
1362.84 0.412543
1362.98 0.323445
1363.26 0.223875
1363.81 0.142997
1364.36 0.112742
1365.46 0.0926032
1366.56 0.0891946
1368.76 0.0992144
1370.97 0.126895
1373.17 0.188794
1374.27 0.249999
1375.37 0.359757
1375.92 0.450699
1376.47 0.586885
1377.02 0.805098
1377.57 1.18547
1378.12 1.94243
1378.40 2.63585
1378.67 3.78728
1378.95 5.91207
1379.09 7.70926
1379.22 10.4237
1379.36 14.8442
1379.50 22.4895
1379.57 28.5693
1379.64 37.1293
1379.71 49.3600
1379.77 66.4414
1379.89 106.322
1380.00 132.923
1380.11 106.310
1380.23 66.4282
1380.31 46.3036
1380.39 33.1525
1380.48 24.5398
1380.56 18.7440
1380.72 11.8257
1380.89 8.08231
1381.06 5.85631
1381.22 4.43380
1381.55 2.79450
1381.89 1.92527
1382.22 1.41103
1382.88 0.860338
1383.55 0.587249
1384.21 0.433314
1385.54 0.276807
1386.86 0.207698
1388.19 0.185180
1388.85 0.196594
1389.52 0.251835
1389.85 0.329877
1390.02 0.402716
1390.18 0.523620
1390.35 0.743071
1390.51 1.19712
1390.60 1.62459
1390.68 2.33969
1390.76 3.61867
1390.84 5.95438
1390.92 9.47791
1391.00 11.8335
1391.08 9.47592
1391.16 5.95081
1391.25 3.39542
1391.34 2.11309
1391.44 1.43188
1391.53 1.04151
1391.62 0.795495
1391.71 0.634619
1391.90 0.441460
1392.08 0.335318
1392.27 0.270796
1392.64 0.199379
1393.38 0.140625
1394.12 0.116641
1395.60 0.0963580
1397.08 0.0877439
1403.00 0.0807608
1408.92 0.0947602
1410.40 0.106802
1411.88 0.136437
1412.62 0.173793
1412.99 0.208983
1413.36 0.269812
1413.73 0.389586
1413.92 0.498847
1414.10 0.679511
1414.29 1.00948
1414.38 1.28838
1414.47 1.70596
1414.57 2.38365
1414.66 3.53981
1414.75 5.72911
1414.84 10.0083
1414.92 16.0170
1415.00 19.9629
1415.08 15.9353
1415.16 10.0080
1415.22 6.73990
1415.29 4.70519
1415.35 3.42682
1415.41 2.59396
1415.54 1.63203
1415.67 1.13091
1415.80 0.836272
1415.92 0.650875
1416.18 0.441087
1416.44 0.331106
1416.69 0.267114
1417.20 0.199624
1418.22 0.149564
1419.24 0.133376
1423.33 0.131566
1427.42 0.154280
1431.50 0.193560
1435.59 0.259879
1439.67 0.383262
1441.72 0.490436
1443.76 0.662545
1445.80 0.990111
1446.82 1.38219
1447.08 1.60094
1447.33 2.01764
1447.46 2.42031
1447.59 3.14860
1447.72 4.71337
1447.78 6.20653
1447.84 8.54955
1447.92 12.8398
1448.00 15.7116
1448.08 12.9014
1448.16 8.67338
1448.26 5.48435
1448.35 3.98263
1448.45 3.22691
1448.55 2.81929
1448.75 2.45915
1448.94 2.35661
1449.73 2.67814
1450.51 3.52616
1451.29 5.02368
1451.69 6.19746
1452.08 7.84975
1452.47 10.2782
1452.86 14.0395
1453.25 20.2717
1453.65 31.5350
1453.84 40.7579
1454.04 54.1657
1454.23 74.0767
1454.43 103.570
1454.72 164.690
1455.00 205.051
1455.29 163.494
1455.58 101.749
1455.84 65.7029
1456.10 44.4073
1456.36 31.5334
1456.61 23.3858
1457.13 14.2443
1457.65 9.59133
1458.16 6.94076
1458.68 5.30626
1459.71 3.52129
1460.74 2.69313
1461.77 2.40234
1462.29 2.48201
1462.81 2.91797
1463.06 3.50288
1463.32 4.85363
1463.45 6.27121
1463.58 8.95332
1463.65 11.2767
1463.71 14.7574
1463.77 20.3249
1463.84 29.0129
1463.88 36.6860
1463.92 45.2319
1464.00 56.0435
1464.08 45.2590
1464.16 29.0693
1464.25 18.5064
1464.33 12.6827
1464.41 9.37324
1464.49 7.37745
1464.66 5.25612
1464.83 4.25638
1465.16 3.45294
1465.49 3.25895
1466.15 3.57201
1466.81 4.56944
1467.47 6.63620
1467.81 8.43334
1468.14 11.1982
1468.47 15.6997
1468.80 23.5860
1468.96 29.8585
1469.13 38.6472
1469.30 51.2992
1469.46 69.1936
1469.73 110.412
1470.00 137.866
1470.27 110.342
1470.54 69.0960
1470.73 48.7215
1470.93 35.2999
1471.12 26.3968
1471.31 20.3432
1471.69 13.0226
1472.08 9.02901
1472.46 6.62903
1472.85 5.08985
1473.62 3.30219
1474.38 2.34478
1475.15 1.77560
1476.69 1.16513
1478.23 0.878961
1479.76 0.778327
1480.53 0.823311
1481.30 1.05706
1481.69 1.39493
1481.88 1.71339
1482.07 2.24782
1482.26 3.23323
1482.36 4.06424
1482.45 5.32441
1482.55 7.34904
1482.65 10.8424
1482.74 17.3788
1482.84 30.2753
1482.92 48.2636
1483.00 60.0475
1483.08 48.0206
1483.16 30.2591
1483.25 17.8323
1483.35 11.3120
1483.44 7.73556
1483.53 5.62400
1483.62 4.29112
1483.71 3.40193
1483.89 2.33204
1484.07 1.73953
1484.26 1.37775
1484.62 0.976878
1484.98 0.768662
1485.35 0.645691
1486.07 0.510950
1487.53 0.396467
1488.98 0.346187
1491.89 0.302652
1494.80 0.290023
1500.62 0.313994
1506.44 0.404079
1512.26 0.619654
1515.17 0.833060
1518.08 1.20788
1519.54 1.51023
1520.99 1.95148
1522.45 2.63034
1523.90 3.75061
1524.63 4.60502
1525.36 5.78721
1526.08 7.48938
1526.81 10.0470
1527.54 14.1228
1528.27 21.0562
1528.99 33.7892
1529.36 44.0835
1529.72 58.2749
1530.36 92.9567
1531.00 115.941
1531.65 92.5752
1532.29 57.7340
1532.91 36.2166
1533.52 23.8934
1534.14 16.6606
1534.76 12.1816
1535.99 7.25836
1537.23 4.79600
1538.46 3.40406
1539.69 2.54538
1542.16 1.58983
1544.63 1.10173
1547.10 0.822440
1552.03 0.541863
1556.97 0.432977
1561.91 0.435601
1564.37 0.504721
1565.61 0.580516
1566.84 0.718733
1568.08 1.00428
1568.69 1.27720
1569.31 1.75330
1569.93 2.70215
1570.24 3.58068
1570.54 5.04933
1570.85 7.80099
1571.01 10.1590
1571.16 13.8115
1571.31 19.8673
1571.39 24.4777
1571.47 30.8247
1571.55 39.8097
1571.62 52.8913
1571.70 72.3609
1571.78 101.296
1571.89 161.658
1572.00 201.823
1572.06 190.011
1572.11 161.648
1572.22 101.289
1572.36 57.2227
1572.49 35.2169
1572.63 23.4211
1572.76 16.6567
1572.89 12.4201
1573.03 9.64873
1573.29 6.34423
1573.56 4.54423
1573.83 3.46264
1574.36 2.29390
1574.89 1.71636
1575.43 1.39916
1576.49 1.10465
1577.56 1.01435
1578.63 1.02672
1580.76 1.27488
1581.83 1.53317
1582.90 1.93676
1583.96 2.58677
1584.50 3.06510
1585.03 3.70348
1585.57 4.58286
1586.10 5.83520
1586.63 7.69884
1587.17 10.6261
1587.70 15.5945
1587.97 19.4574
1588.23 24.8546
1588.50 32.7056
1588.77 44.4894
1589.03 62.7010
1589.30 90.7938
1589.65 144.564
1590.00 180.120
1590.36 143.671
1590.71 89.4386
1591.05 56.2312
1591.38 37.1656
1591.72 25.9487
1592.06 19.0056
1592.73 11.3306
1593.40 7.48759
1594.08 5.30669
1594.75 3.95999
1596.10 2.45408
1597.44 1.67660
1598.79 1.22414
1601.48 0.745162
1604.18 0.509478
1606.87 0.376106
1612.26 0.238083
1617.65 0.172292
1623.03 0.138766
1628.42 0.137694
1629.77 0.155281
1631.11 0.210544
1631.79 0.285898
1632.12 0.357799
1632.46 0.481049
1632.80 0.719466
1632.96 0.930329
1633.13 1.26743
1633.30 1.85656
1633.47 2.99361
1633.55 3.99435
1633.64 5.55578
1633.72 8.09458
1633.81 12.2752
1633.90 19.6014
1634.00 24.4093
1634.10 19.5201
1634.20 12.2729
1634.26 8.82364
1634.33 6.51697
1634.46 3.86255
1634.59 2.52351
1634.72 1.77585
1634.85 1.32178
1634.98 1.02723
1635.24 0.682698
1635.50 0.496734
1635.76 0.386041
1636.28 0.265879
1636.80 0.205304
1637.32 0.170536
1638.36 0.133823
1640.44 0.105120
1642.52 0.0943933
1646.68 0.0956875
1647.72 0.106429
1648.76 0.138436
1649.28 0.181317
1649.80 0.291304
1650.06 0.424481
1650.19 0.542023
1650.32 0.729174
1650.45 1.05181
1650.58 1.67121
1650.65 2.21090
1650.71 3.04453
1650.78 4.38220
1650.84 6.55096
1650.92 10.4362
1651.00 13.0256
1651.08 10.4355
1651.16 6.55006
1651.25 3.81009
1651.33 2.39295
1651.42 1.62391
1651.51 1.17725
1651.60 0.893038
1651.69 0.706150
1651.87 0.480620
1652.04 0.355873
1652.22 0.280688
1652.57 0.198052
1653.28 0.131799
1653.99 0.106325
1655.41 0.0867776
1656.83 0.0794640
1662.50 0.0735358
1668.17 0.0841399
1669.59 0.0954198
1671.01 0.125569
1671.72 0.164967
1672.07 0.202551
1672.43 0.267604
1672.78 0.396222
1672.96 0.513077
1673.14 0.705608
1673.31 1.05506
1673.40 1.34849
1673.49 1.78445
1673.58 2.48528
1673.67 3.66299
1673.76 5.84615
1673.84 9.98372
1673.92 15.9587
1674.00 19.8700
1674.08 15.8776
1674.16 9.98310
1674.25 5.71426
1674.34 3.55952
1674.43 2.38809
1674.52 1.71381
1674.62 1.28781
1674.71 1.00901
1674.89 0.675736
1675.07 0.491976
1675.25 0.381509
1675.62 0.260389
1675.98 0.199314
1676.35 0.164633
1677.08 0.129063
1678.54 0.104347
1680.00 0.0986151
1681.46 0.101222
1682.92 0.115282
1683.65 0.134568
1684.38 0.184621
1684.75 0.247039
1685.11 0.397752
1685.30 0.569428
1685.48 0.928456
1685.57 1.27829
1685.66 1.87342
1685.75 2.97889
1685.84 5.14060
1685.92 8.19869
1686.00 10.2066
1686.08 8.15730
1686.16 5.14074
1686.22 3.43682
1686.29 2.40396
1686.35 1.75877
1686.42 1.34019
1686.55 0.858697
1686.68 0.607357
1686.94 0.369681
1687.20 0.265826
1687.72 0.180360
1688.24 0.147715
1689.28 0.124575
1690.32 0.118387
1694.49 0.128099
1698.65 0.158635
1702.81 0.215807
1706.98 0.333501
1709.06 0.445317
1711.14 0.639223
1713.22 1.02337
1714.26 1.37774
1715.31 1.97448
1716.35 3.10545
1716.87 4.10174
1717.39 5.69142
1717.91 8.47510
1718.17 10.7153
1718.43 13.9806
1718.69 18.9962
1718.95 27.0772
1719.21 40.9013
1719.47 65.2079
1719.74 103.724
1720.00 129.399
1720.27 104.250
1720.53 66.6653
1720.80 43.0107
1721.06 30.3432
1721.32 23.9551
1721.59 21.5037
1721.85 22.3773
1721.98 24.3147
1722.11 27.6707
1722.25 33.0813
1722.38 41.6479
1722.51 55.2032
1722.64 76.1569
1722.73 95.8561
1722.82 118.451
1723.00 146.360
1723.09 137.697
1723.18 117.272
1723.36 74.2920
1723.52 48.4297
1723.69 33.1404
1723.85 23.9097
1724.02 18.0521
1724.34 11.4137
1724.67 7.96368
1725.00 5.92782
1725.33 4.62271
1725.98 3.09221
1726.64 2.24789
1727.29 1.72788
1728.60 1.13871
1729.91 0.828712
1731.22 0.653919
1732.53 0.596465
1732.86 0.630417
1733.19 0.745614
1733.35 0.888126
1733.52 1.19137
1733.60 1.47937
1733.68 1.96165
1733.76 2.82135
1733.84 4.37908
1733.92 6.74263
1734.00 8.31531
1734.08 6.73470
1734.16 4.36344
1734.23 2.86970
1734.31 2.01887
1734.38 1.52128
1734.46 1.21661
1734.61 0.875215
1734.76 0.703228
1735.07 0.539755
1735.37 0.464885
1736.58 0.359255
1739.00 0.313748
1740.21 0.331645
1741.42 0.420295
1742.02 0.549963
1742.33 0.675973
1742.63 0.894001
1742.93 1.32037
1743.08 1.70097
1743.23 2.31518
1743.38 3.40433
1743.54 5.55115
1743.61 7.50025
1743.69 10.5727
1743.76 15.8013
1743.84 24.6369
1743.92 39.4187
1744.00 49.1244
1744.08 39.2235
1744.16 24.6328
1744.22 17.8211
1744.27 13.2466
1744.38 7.92654
1744.48 5.19406
1744.59 3.67520
1744.70 2.74056
1744.80 2.13859
1745.01 1.43129
1745.23 1.04768
1745.44 0.819051
1745.86 0.570209
1746.29 0.445364
1746.71 0.374075
1747.56 0.300361
1749.27 0.247945
1750.97 0.235003
1754.37 0.250828
1757.77 0.311229
1761.17 0.453681
1762.87 0.594765
1764.57 0.843916
1765.42 1.04657
1766.27 1.34433
1767.12 1.80749
1767.97 2.58418
1768.40 3.18564
1768.82 4.03171
1769.25 5.27254
1769.67 7.19007
1770.10 10.3579
1770.31 12.7677
1770.52 16.0587
1770.73 20.7206
1770.95 27.4409
1771.16 37.4277
1771.37 52.0979
1771.69 83.2846
1772.00 104.059
1772.32 83.2529
1772.63 52.0674
1772.82 38.6193
1773.01 29.1301
1773.39 17.7306
1773.78 11.7209
1774.16 8.27505
1774.54 6.13496
1774.92 4.73127
1775.68 3.06571
1776.45 2.15879
1777.21 1.61488
1778.74 1.02657
1780.26 0.739690
1781.79 0.598710
1782.55 0.576823
1783.32 0.624398
1783.70 0.722731
1784.08 0.991486
1784.27 1.31187
1784.46 2.00304
1784.56 2.68501
1784.65 3.86253
1784.75 6.09241
1784.84 10.5661
1784.92 16.7038
1785.00 20.8069
1785.08 16.6977
1785.16 10.5546
1785.23 6.96916
1785.30 4.85130
1785.37 3.55683
1785.44 2.73030
1785.57 1.79338
1785.71 1.30990
1785.85 1.03020
1785.99 0.854168
1786.26 0.652839
1786.82 0.480246
1787.37 0.407144
1788.47 0.342254
1789.58 0.312403
1794.00 0.281310
1798.42 0.331605
1799.52 0.379079
1800.62 0.495928
1801.18 0.640942
1801.45 0.774752
1801.73 1.00090
1802.01 1.43061
1802.14 1.80788
1802.28 2.40663
1802.42 3.43547
1802.56 5.40323
1802.63 7.11191
1802.70 9.74264
1802.76 13.9463
1802.80 16.9936
1802.83 20.7265
1802.88 26.4633
1802.92 33.0093
1803.00 41.0518
1803.08 32.8544
1803.17 20.7293
1803.26 11.9993
1803.36 7.56405
1803.46 5.14458
1803.55 3.74766
1803.65 2.86439
1803.75 2.28563
1803.94 1.59148
1804.13 1.21218
1804.33 0.984069
1804.71 0.738113
1805.48 0.551571
1806.25 0.492049
1807.80 0.475149
1809.34 0.505823
1812.42 0.642425
1815.51 0.905263
1817.05 1.12127
1818.60 1.43944
1820.14 1.93419
1821.68 2.76219
1823.22 4.30365
1823.99 5.62223
1824.77 7.65711
1825.54 11.0187
1826.31 17.0490
1826.69 21.9639
1827.08 29.0505
1827.47 39.5348
1827.85 54.9294
1828.43 87.7889
1829.00 109.663
1829.58 87.7284
1830.15 54.8751
1830.81 31.6232
1831.47 19.6472
1832.13 13.1690
1832.79 9.38710
1833.45 7.01416
1834.11 5.44180
1835.43 3.56786
1836.75 2.54325
1838.07 1.92871
1840.71 1.27037
1843.34 0.958695
1845.98 0.805581
1851.26 0.743209
1853.90 0.804334
1856.54 0.939084
1859.18 1.18592
1860.50 1.37610
1861.82 1.63575
1863.14 1.99872
1864.45 2.52167
1865.77 3.30910
1867.09 4.56197
1867.75 5.48311
1868.41 6.71633
1869.07 8.41295
1869.73 10.8177
1870.39 14.3619
1871.05 19.7760
1871.71 28.3664
1872.37 42.0551
1873.19 67.0858
1874.00 83.6851
1874.82 66.8460
1875.64 41.7198
1876.21 29.7105
1876.77 21.6684
1877.33 16.2744
1877.90 12.5738
1879.03 8.06536
1880.15 5.57577
1881.28 4.07369
1882.41 3.10519
1884.67 1.97753
1886.92 1.37284
1889.18 1.01224
1893.69 0.621687
1898.20 0.425669
1902.72 0.313501
1911.74 0.196933
1920.77 0.142212
1929.79 0.115776
1938.82 0.111272
1943.33 0.131603
1944.46 0.150452
1945.59 0.198572
1946.15 0.259493
1946.43 0.316389
1946.71 0.413377
1947.00 0.599677
1947.14 0.764952
1947.28 1.03000
1947.42 1.49231
1947.56 2.39734
1947.63 3.20977
1947.70 4.47397
1947.77 6.59303
1947.84 10.1009
1947.92 16.1026
1948.00 20.1095
1948.08 16.1026
1948.16 10.1014
1948.24 6.18893
1948.32 4.05119
1948.40 2.82593
1948.48 2.07997
1948.64 1.27306
1948.80 0.875527
1948.96 0.653014
1949.12 0.516752
1949.44 0.366382
1949.76 0.290221
1950.08 0.247250
1950.72 0.204367
1952.00 0.179083
1953.28 0.179688
1955.84 0.212046
1958.40 0.286799
1960.97 0.452109
1962.25 0.615407
1963.53 0.906682
1964.17 1.14662
1964.81 1.50346
1965.45 2.06906
1966.09 3.03950
1966.73 4.92061
1967.05 6.59598
1967.21 7.77330
1967.37 9.29365
1967.53 11.3013
1967.69 14.0230
1967.85 17.8288
1968.01 23.3494
1968.17 31.7107
1968.33 45.0080
1968.49 67.1918
1968.65 104.898
1968.83 167.799
1969.00 209.719
1969.18 167.771
1969.35 104.869
1969.48 73.4139
1969.60 52.7434
1969.73 39.1406
1969.86 29.9519
1970.11 18.9401
1970.37 12.9588
1970.62 9.39296
1970.87 7.11009
1971.38 4.47817
1971.89 3.07647
1972.40 2.24610
1973.41 1.35489
1974.43 0.911624
1975.44 0.660149
1976.46 0.503745
1977.47 0.399881
1979.50 0.274752
1981.54 0.205118
1985.60 0.134419
1989.66 0.101486
1993.72 0.0852260
1997.78 0.0862198
1998.80 0.0962542
1999.81 0.126975
2000.32 0.168383
2000.83 0.274457
2001.08 0.402647
2001.34 0.694216
2001.46 1.00066
2001.59 1.58343
2001.65 2.09091
2001.72 2.85452
2001.78 4.05874
2001.84 5.97174
2001.92 9.52327
2002.00 11.8934
2002.08 9.52266
2002.16 5.97083
2002.24 3.73932
2002.31 2.48459
2002.39 1.74870
2002.46 1.29314
2002.62 0.790149
2002.77 0.540575
2003.07 0.311369
2003.38 0.213657
2003.99 0.133882
2004.60 0.102632
2005.82 0.0781285
2007.04 0.0685155
2011.92 0.0570343
2021.67 0.0537519
2031.43 0.0578794
2041.18 0.0699913
2050.94 0.0980527
2055.82 0.125467
2060.70 0.173407
2065.58 0.269324
2068.02 0.359051
2070.45 0.513275
2072.89 0.816750
2074.11 1.09575
2075.33 1.56331
2076.55 2.44243
2077.16 3.20597
2077.77 4.40269
2078.38 6.43236
2078.69 8.01210
2078.99 10.2332
2079.30 13.4638
2079.60 18.3351
2079.91 25.9136
2080.21 37.7146
2080.61 60.2182
2081.00 75.2116
2081.40 60.2146
2081.79 37.7341
2082.22 22.4911
2082.64 14.3477
2083.07 9.82593
2083.50 7.14479
2083.92 5.44624
2084.35 4.32049
2085.20 2.98784
2086.06 2.29024
2086.91 1.91545
2088.62 1.69542
2090.32 2.03396
2091.18 2.51091
2092.03 3.39713
2092.88 5.14844
2093.31 6.70095
2093.73 9.15147
2094.16 13.3278
2094.37 16.5729
2094.59 21.1295
2094.80 27.7786
2095.01 37.7292
2095.23 53.1296
2095.44 77.0582
2095.72 123.129
2096.00 153.823
2096.28 123.078
2096.56 76.9917
2096.87 45.4061
2097.17 28.6567
2097.48 19.3958
2097.79 13.8983
2098.10 10.4153
2098.40 8.08586
2099.02 5.27731
2099.63 3.72033
2100.24 2.77042
2101.47 1.72054
2102.70 1.18212
2103.93 0.869209
2106.38 0.536187
2108.84 0.370580
2111.29 0.275632
2116.20 0.175740
2121.11 0.127127
2126.02 0.101631
2130.93 0.0975627
2132.16 0.107430
2133.39 0.140063
2134.00 0.185383
2134.62 0.304816
2134.92 0.452986
2135.08 0.586833
2135.23 0.802792
2135.38 1.18864
2135.54 1.95875
2135.61 2.66736
2135.69 3.80043
2135.77 5.76612
2135.84 9.17021
2135.92 14.6433
2136.00 18.2971
2136.08 14.6425
2136.16 9.16896
2136.22 6.25872
2136.28 4.43687
2136.34 3.26634
2136.40 2.49020
2136.53 1.57213
2136.65 1.08748
2136.77 0.799820
2136.89 0.618782
2137.14 0.411005
2137.38 0.300801
2137.63 0.235945
2138.12 0.166093
2139.09 0.111192
2140.07 0.0900010
2142.03 0.0730221
2143.98 0.0659402
2151.81 0.0572161
2159.64 0.0579613
2167.46 0.0659028
2175.29 0.0861471
2179.20 0.105722
2183.11 0.138734
2187.03 0.200860
2188.98 0.255657
2190.94 0.345135
2192.90 0.512533
2193.87 0.662288
2194.85 0.912971
2195.83 1.39803
2196.32 1.84301
2196.81 2.59595
2197.30 4.04295
2197.54 5.33984
2197.79 7.43685
2197.91 9.02737
2198.03 11.1903
2198.15 14.2567
2198.27 18.7892
2198.40 25.9075
2198.52 37.5792
2198.58 46.3301
2198.64 58.0825
2198.70 73.9789
2198.76 95.2958
2198.88 152.343
2199.00 189.933
2199.12 151.853
2199.24 95.3514
2199.34 62.1306
2199.45 42.4127
2199.55 30.2981
2199.66 22.6742
2199.86 14.0438
2200.07 9.66082
2200.28 7.15252
2200.49 5.61733
2200.91 3.94487
2201.32 3.16224
2201.74 2.80244
2202.57 2.74984
2203.41 3.35226
2204.24 4.84331
2204.66 6.18564
2205.08 8.24099
2205.49 11.4590
2205.91 16.4997
2206.46 26.2085
2207.00 32.7249
2207.55 26.3074
2208.09 16.7503
2208.43 12.6523
2208.76 9.90582
2209.10 8.17534
2209.44 7.29036
2209.77 7.32842
2210.11 9.01172
2210.28 11.2552
2210.45 15.7727
2210.53 19.7183
2210.61 25.7297
2210.70 35.1333
2210.78 49.8648
2210.84 63.1057
2210.89 78.2434
2211.00 96.8931
2211.11 77.7336
2211.22 49.4010
2211.31 33.9315
2211.40 24.1978
2211.48 18.0189
2211.57 13.9531
2211.75 9.18880
2211.92 6.64582
2212.10 5.11500
2212.27 4.12205
2212.63 2.94098
2212.98 2.27231
2213.33 1.84892
2214.03 1.34756
2214.73 1.07542
2215.44 0.949541
2215.79 0.962594
2216.14 1.10999
2216.32 1.32023
2216.49 1.79189
2216.58 2.25438
2216.67 3.04928
2216.76 4.51425
2216.84 7.28531
2216.92 11.3350
2217.00 13.9886
2217.08 11.2610
2217.16 7.24727
2217.21 5.43115
2217.26 4.17176
2217.36 2.69930
2217.46 1.93214
2217.55 1.49235
2217.75 1.03668
2217.95 0.815439
2218.35 0.606396
2218.74 0.506039
2219.54 0.401000
2220.33 0.340501
2221.92 0.265886
2223.50 0.219557
2226.67 0.174755
2227.47 0.178552
2228.26 0.206727
2228.66 0.249906
2229.05 0.361956
2229.25 0.493896
2229.45 0.779413
2229.55 1.06149
2229.65 1.55910
2229.74 2.52129
2229.79 3.34661
2229.84 4.50891
2229.92 7.15534
2230.00 8.88812
2230.08 7.11807
2230.16 4.50600
2230.22 3.17050
2230.27 2.29916
2230.39 1.34628
2230.51 0.889377
2230.62 0.642130
2230.85 0.400585
2231.08 0.291600
2231.55 0.197391
2232.01 0.158190
2232.94 0.124539
2233.87 0.109177
2237.57 0.0841892
2244.99 0.0704069
2248.70 0.0748853
2250.55 0.0828532
2252.41 0.0994874
2254.26 0.137063
2255.19 0.174870
2256.11 0.243348
2257.04 0.386211
2257.50 0.524223
2257.97 0.765731
2258.43 1.24922
2258.66 1.69566
2258.89 2.43795
2259.13 3.81882
2259.24 4.99596
2259.36 6.78489
2259.47 9.73348
2259.59 14.9664
2259.71 25.1862
2259.76 33.9299
2259.82 46.3295
2259.87 59.2495
2259.91 73.9939
2260.00 92.3913
2260.09 73.9902
2260.18 46.3252
2260.28 27.5510
2260.37 17.5526
2260.47 11.9032
2260.57 8.56060
2260.66 6.40968
2260.76 4.98152
2260.95 3.25076
2261.14 2.28356
2261.34 1.69637
2261.72 1.04625
2262.11 0.714530
2262.49 0.523865
2263.26 0.323982
2264.03 0.226836
2264.80 0.172616
2266.34 0.117532
2267.88 0.0918987
2269.42 0.0784722
2272.51 0.0678500
2275.59 0.0701328
2277.13 0.0771740
2278.67 0.0921523
2280.21 0.125818
2280.98 0.159428
2281.75 0.219923
2282.52 0.345385
2282.90 0.465442
2283.29 0.674390
2283.67 1.08687
2283.87 1.46395
2284.06 2.08229
2284.25 3.21124
2284.35 4.14850
2284.44 5.55584
2284.54 7.81912
2284.64 11.6332
2284.73 18.6156
2284.78 24.2379
2284.83 32.0017
2284.87 41.0361
2284.92 51.3731
2285.00 64.1185
2285.09 51.1304
2285.17 31.9990
2285.22 23.5594
2285.28 17.6586
2285.38 10.6477
2285.49 6.99316
2285.59 4.92388
2285.70 3.63422
2285.81 2.79617
2286.02 1.79958
2286.23 1.25605
2286.44 0.931084
2286.86 0.577192
2287.28 0.398887
2287.71 0.297202
2288.55 0.191360
2289.40 0.140459
2290.24 0.112256
2291.93 0.0840441
2295.31 0.0649937
2298.69 0.0605726
2305.45 0.0653317
2312.21 0.0826794
2318.97 0.122262
2322.34 0.161116
2325.72 0.230064
2329.10 0.370987
2330.79 0.504891
2332.48 0.736626
2334.17 1.19228
2335.02 1.60627
2335.86 2.28614
2336.71 3.51832
2337.13 4.54503
2337.55 6.08092
2337.97 8.51990
2338.40 12.6387
2338.82 20.1332
2339.03 26.1331
2339.24 34.3786
2339.62 54.9699
2340.00 68.6875
2340.38 54.9512
2340.76 34.3617
2341.20 19.7671
2341.63 12.2704
2342.07 8.20615
2342.51 5.83611
2342.94 4.34790
2343.38 3.36354
2344.25 2.18672
2345.13 1.54207
2346.00 1.15330
2347.74 0.731743
2349.49 0.524165
2351.23 0.411835
2354.73 0.319403
2358.22 0.331269
2359.96 0.381554
2361.71 0.487890
2363.45 0.720480
2364.33 0.946537
2365.20 1.34239
2366.07 2.13405
2366.51 2.86758
2366.95 4.09659
2367.38 6.40216
2367.60 8.38482
2367.82 11.4656
2368.04 16.5972
2368.25 25.9489
2368.36 33.6739
2368.47 45.0007
2368.58 62.0088
2368.69 87.5442
2368.85 139.920
2369.00 174.830
2369.16 139.913
2369.31 87.5463
2369.47 52.8778
2369.63 34.0455
2369.80 23.3240
2369.96 16.9006
2370.12 12.7623
2370.28 9.99304
2370.60 6.63200
2370.92 4.75934
2371.25 3.62333
2371.89 2.39470
2372.54 1.80416
2373.18 1.50895
2374.47 1.37075
2375.76 1.70540
2376.41 2.14259
2377.05 2.94964
2377.70 4.56227
2378.02 6.01303
2378.35 8.34308
2378.51 10.0855
2378.67 12.4280
2378.83 15.6897
2378.99 20.3930
2379.15 27.5124
2379.31 38.6552
2379.47 56.9680
2379.64 87.5235
2379.82 140.062
2380.00 174.822
2380.18 139.727
2380.37 87.4839
2380.50 60.5590
2380.64 43.1243
2380.78 31.7974
2380.91 24.2689
2381.19 15.2868
2381.46 10.4489
2381.73 7.57958
2382.00 5.74854
2382.55 3.63973
2383.10 2.51906
2383.64 1.85597
2384.74 1.14116
2385.83 0.783101
2386.92 0.578116
2389.11 0.363132
2391.29 0.258779
2393.48 0.203528
2395.66 0.192112
2396.21 0.210079
2396.75 0.268050
2397.03 0.343451
2397.30 0.521609
2397.44 0.715044
2397.57 1.09033
2397.64 1.42824
2397.71 1.95193
2397.78 2.80886
2397.84 4.23104
2397.92 6.69407
2398.00 8.33724
2398.08 6.69239
2398.16 4.22784
2398.22 2.86985
2398.28 2.03654
2398.41 1.16600
2398.54 0.766222
2398.66 0.555343
2398.91 0.352868
2399.17 0.263012
2399.67 0.185920
2400.18 0.153492
2401.19 0.124857
2402.20 0.111066
2406.24 0.0867452
2414.31 0.0692368
2422.39 0.0647395
2430.47 0.0679469
2438.55 0.0800449
2446.63 0.110915
2450.67 0.145478
2454.71 0.221364
2456.73 0.304279
2457.74 0.375036
2458.75 0.488059
2459.76 0.694952
2460.26 0.876707
2460.77 1.17520
2461.27 1.73492
2461.52 2.23129
2461.78 3.03350
2462.03 4.48144
2462.15 5.68135
2462.28 7.48547
2462.41 10.3622
2462.53 15.2912
2462.60 19.1258
2462.66 24.4481
2462.72 31.9291
2462.78 42.3774
2462.89 67.3827
2463.00 84.0518
2463.11 67.4370
2463.22 42.4903
2463.29 31.1180
2463.36 23.2970
2463.50 14.2515
2463.64 9.61698
2463.77 7.05390
2463.91 5.50571
2464.05 4.53435
2464.33 3.47407
2464.61 3.02308
2464.89 2.89741
2465.45 3.29515
2465.73 3.82531
2466.01 4.67209
2466.29 6.01420
2466.56 8.21924
2466.70 9.87494
2466.84 12.1019
2466.98 15.2281
2467.12 19.7020
2467.26 26.4619
2467.40 36.9854
2467.54 54.3289
2467.68 82.8887
2467.84 132.440
2468.00 165.463
2468.16 132.404
2468.32 82.8342
2468.50 48.7794
2468.67 30.7565
2468.85 20.8067
2469.02 14.9068
2469.20 11.1720
2469.38 8.67596
2469.73 5.66940
2470.08 4.00505
2470.43 2.99141
2471.14 1.87419
2471.84 1.30569
2472.54 0.978243
2473.95 0.636958
2475.36 0.474303
2476.77 0.387354
2479.58 0.311334
2482.40 0.295652
2485.21 0.316534
2488.03 0.396190
2488.73 0.450001
2489.43 0.570145
2489.79 0.709210
2490.14 1.03213
2490.31 1.39037
2490.49 2.13040
2490.58 2.83133
2490.67 4.01562
2490.75 6.16804
2490.84 10.1904
2490.88 12.9537
2490.92 16.1129
2491.00 20.0015
2491.08 16.0387
2491.16 10.2002
2491.22 7.29346
2491.27 5.40248
2491.38 3.28820
2491.50 2.24638
2491.61 1.68319
2491.83 1.13010
2492.06 0.884483
2492.51 0.687220
2492.96 0.621259
2494.76 0.632365
2496.55 0.769821
2498.35 1.01686
2500.15 1.48305
2501.05 1.89585
2501.95 2.57422
2502.40 3.09826
2502.85 3.83881
2503.30 4.94706
2503.75 6.71543
2504.20 9.82460
2504.42 12.3442
2504.65 16.0156
2504.87 21.6814
2505.10 30.8988
2505.32 46.7869
2505.55 74.7828
2505.77 119.035
2506.00 148.374
2506.23 118.923
2506.46 74.9944
2506.68 46.7530
2506.91 30.9933
2507.14 21.9558
2507.37 16.4923
2507.82 10.6320
2508.28 7.86797
2508.73 6.44717
2509.19 5.72217
2510.10 5.37584
2511.01 5.96329
2511.92 7.41701
2512.83 10.0444
2513.74 14.4287
2514.87 22.6366
2516.00 28.0941
2517.13 22.4712
2518.26 14.1005
2519.20 9.42596
2520.14 6.53873
2521.09 4.73560
2522.03 3.56621
2523.91 2.21682
2525.79 1.50980
2527.68 1.09687
2529.56 0.836210
2533.33 0.539184
2537.09 0.384136
2540.86 0.294860
2548.39 0.208547
2555.93 0.188780
2559.69 0.202044
2563.46 0.241318
2567.23 0.337095
2569.11 0.433905
2570.99 0.607422
2572.88 0.962959
2573.82 1.29977
2574.76 1.87902
2575.70 3.00698
2576.17 4.02028
2576.64 5.66199
2577.11 8.58441
2577.35 10.9758
2577.58 14.4789
2577.82 19.9094
2578.06 28.7347
2578.29 43.9732
2578.53 71.0188
2578.76 113.632
2579.00 141.872
2579.24 113.425
2579.48 71.0080
2579.71 43.8875
2579.95 28.6471
2580.18 19.8402
2580.42 14.4670
2580.65 10.9711
2580.89 8.59769
2581.36 5.70058
2581.83 4.07289
2582.30 3.07888
2583.25 1.98663
2584.19 1.44697
2585.13 1.15909
2587.02 0.950566
2588.90 1.07206
2589.85 1.29737
2590.79 1.74026
2591.73 2.66092
2592.20 3.51309
2592.68 4.91802
2592.91 5.98831
2593.15 7.46632
2593.38 9.58036
2593.62 12.7204
2593.85 17.6771
2594.09 25.9343
2594.21 32.2285
2594.33 40.7780
2594.44 52.4907
2594.56 68.2493
2594.78 109.088
2595.00 136.303
2595.22 109.062
2595.44 68.2155
2595.63 45.0657
2595.81 30.9851
2596.00 22.2601
2596.19 16.6350
2596.56 10.2039
2596.93 6.86486
2597.30 4.93065
2597.67 3.71610
2598.42 2.33822
2599.16 1.61686
2599.91 1.19248
2601.39 0.737706
2602.88 0.510688
2604.37 0.380355
2607.35 0.242597
2610.32 0.173958
2613.30 0.134246
2619.25 0.0916747
2625.20 0.0701871
2631.15 0.0578785
2643.06 0.0460294
2654.96 0.0438332
2666.87 0.0525403
2672.82 0.0667334
2675.80 0.0803930
2678.77 0.104097
2681.75 0.151557
2683.24 0.196410
2684.72 0.274747
2686.21 0.433167
2686.96 0.583044
2687.70 0.842277
2688.44 1.35200
2688.82 1.81589
2689.19 2.58073
2689.56 3.97141
2689.75 5.13376
2689.93 6.88475
2690.12 9.67641
2690.30 14.4462
2690.49 23.2519
2690.58 30.3979
2690.68 40.3246
2690.76 51.7226
2690.84 64.5919
2691.00 80.6552
2691.16 64.4305
2691.33 40.3235
2691.47 26.2599
2691.61 17.8258
2691.75 12.6902
2691.90 9.44144
2692.18 5.74662
2692.47 3.85967
2692.75 2.77280
2693.04 2.09803
2693.61 1.33890
2694.18 0.948274
2694.75 0.723735
2695.89 0.495465
2697.04 0.397213
2698.18 0.358383
2700.46 0.381096
2701.60 0.438592
2702.74 0.540259
2703.89 0.715665
2705.03 1.03452
2706.17 1.68483
2706.74 2.29208
2707.31 3.31660
2707.60 4.11558
2707.88 5.24036
2708.17 6.90470
2708.45 9.48556
2708.74 13.8065
2708.88 17.1178
2709.03 21.6656
2709.17 28.1879
2709.31 37.6870
2709.45 52.0580
2709.60 73.4880
2709.80 117.662
2710.00 146.909
2710.20 117.412
2710.41 73.4687
2710.55 51.6739
2710.69 37.3490
2710.84 27.7947
2710.98 21.3530
2711.27 13.5597
2711.56 9.30434
2711.85 6.75859
2712.14 5.12479
2712.72 3.23406
2713.30 2.22730
2713.87 1.62988
2715.03 0.987365
2716.19 0.668051
2717.34 0.487091
2718.50 0.375274
2719.65 0.302147
2721.96 0.219190
2724.28 0.190127
2725.43 0.201826
2726.01 0.222905
2726.59 0.267218
2727.17 0.367029
2727.46 0.466395
2727.74 0.643492
2728.03 1.00250
2728.18 1.33909
2728.32 1.90371
2728.47 2.97450
2728.54 3.89570
2728.61 5.33135
2728.68 7.73132
2728.76 12.1269
2728.79 15.7754
2728.83 21.1494
2728.86 29.2648
2728.90 41.5289
2728.95 66.7054
2729.00 83.0750
2729.05 66.1762
2729.10 41.5256
2729.16 23.4827
2729.22 14.4011
2729.28 9.56840
2729.34 6.81000
2729.40 5.05904
2729.46 3.90490
2729.58 2.54219
2729.70 1.79036
2729.82 1.34010
2730.06 0.845089
2730.30 0.594796
2730.54 0.450867
2731.01 0.299857
2731.49 0.225959
2731.97 0.184047
2732.93 0.140156
2734.84 0.105970
2736.75 0.0932029
2740.57 0.0874754
2744.39 0.0970185
2748.22 0.127665
2750.13 0.159507
2752.04 0.216535
2753.95 0.333240
2754.91 0.444323
2755.86 0.637634
2756.82 1.02389
2757.30 1.38237
2757.78 1.98756
2758.25 3.13069
2758.49 4.12613
2758.73 5.69105
2758.97 8.34208
2759.21 13.2998
2759.33 17.5261
2759.45 23.8296
2759.57 33.5847
2759.63 40.4228
2759.69 48.7472
2759.77 62.5305
2759.84 78.0879
2760.00 97.5093
2760.08 91.6612
2760.16 77.8886
2760.31 48.7527
2760.47 29.6472
2760.64 19.1335
2760.80 13.1553
2760.96 9.53761
2761.12 7.21550
2761.28 5.64876
2761.60 3.75052
2761.92 2.69082
2762.24 2.04875
2762.89 1.35097
2763.53 1.01522
2764.17 0.847066
2765.46 0.766728
2766.75 0.951321
2767.39 1.19279
2768.03 1.63646
2768.68 2.51536
2769.00 3.29845
2769.32 4.54317
2769.64 6.69229
2769.80 8.38829
2769.96 10.7831
2770.12 14.3345
2770.28 19.7856
2770.45 28.4582
2770.61 42.2640
2770.80 67.6215
2771.00 84.4071
2771.20 67.4695
2771.40 42.2427
2771.55 28.8444
2771.70 20.3600
2771.86 14.9142
2772.01 11.3066
2772.32 7.05839
2772.62 4.80375
2772.93 3.47183
2773.23 2.62895
2773.85 1.66079
2774.46 1.14912
2775.07 0.846382
2776.30 0.520756
2777.52 0.357684
2778.75 0.264155
2781.20 0.165788
2783.65 0.117264
2786.10 0.0895658
2791.01 0.0604556
2795.91 0.0461619
2800.81 0.0381301
2810.62 0.0302487
2820.43 0.0274307
2830.23 0.0275415
2840.04 0.0313864
2844.94 0.0401850
2846.17 0.0475311
2847.39 0.0663976
2848.00 0.0906111
2848.62 0.152647
2848.92 0.228983
2849.23 0.407809
2849.38 0.603527
2849.54 0.995602
2849.61 1.35607
2849.69 1.93203
2849.77 2.93004
2849.84 4.65505
2849.92 7.41992
2850.00 9.25996
2850.08 7.41983
2850.16 4.65502
2850.25 2.73523
2850.33 1.72621
2850.42 1.17225
2850.51 0.845112
2850.69 0.501082
2850.86 0.336527
2851.21 0.189715
2851.56 0.129102
2852.27 0.0809548
2852.97 0.0629829
2855.78 0.0467407
2861.40 0.0499601
2867.03 0.0626686
2872.65 0.0868181
2878.27 0.137271
2881.08 0.185932
2883.90 0.271540
2886.71 0.444404
2888.11 0.606248
2889.52 0.881298
2890.92 1.40631
2891.63 1.86789
2892.33 2.59919
2893.03 3.85605
2893.38 4.84816
2893.74 6.25471
2894.09 8.33577
2894.44 11.5220
2894.79 16.5917
2895.14 24.7294
2895.57 39.5452
2896.00 49.4157
2896.43 39.5325
2896.86 24.7180
2897.33 14.6349
2897.79 9.26640
2898.26 6.28286
2898.73 4.50590
2899.19 3.37593
2899.66 2.62140
2900.59 1.71155
2901.52 1.20770
2902.46 0.902012
2904.32 0.567558
2906.18 0.400746
2908.05 0.308617
2911.78 0.226943
2915.51 0.222056
2917.37 0.250100
2919.24 0.316062
2921.10 0.468240
2922.03 0.620112
2922.97 0.890953
2923.90 1.44184
2924.37 1.95732
2924.83 2.83166
2925.30 4.48890
2925.53 5.93448
2925.76 8.20882
2926.00 12.0632
2926.11 15.0765
2926.23 19.2716
2926.35 25.4159
2926.46 34.5750
2926.58 48.8952
2926.70 70.9906
2926.85 113.683
2927.00 141.891
2927.15 113.374
2927.31 70.9790
2927.42 49.0376
2927.53 34.9576
2927.65 25.7295
2927.76 19.6139
2927.99 12.3243
2928.22 8.41871
2928.45 6.09372
2928.68 4.61279
2929.14 2.91413
2929.59 2.01361
2930.05 1.48291
2930.97 0.914196
2931.88 0.633318
2932.80 0.475175
2934.62 0.315252
2936.45 0.243657
2938.28 0.210410
2941.94 0.202223
2945.60 0.260166
2947.43 0.331142
2949.26 0.464098
2951.09 0.743033
2952.01 1.01043
2952.92 1.47419
2953.84 2.38681
2954.29 3.21616
2954.75 4.57467
2954.98 5.60726
2955.21 7.03248
2955.44 9.07179
2955.67 12.1043
2955.89 16.9038
2956.12 24.9302
2956.24 31.1055
2956.35 39.4511
2956.47 50.9184
2956.58 66.5515
2956.79 106.550
2957.00 133.050
2957.21 106.336
2957.42 66.5422
2957.61 42.6823
2957.80 28.6873
2958.00 20.2370
2958.19 14.9444
2958.57 9.01530
2958.95 6.01289
2959.34 4.29578
2959.72 3.23155
2960.48 2.04590
2961.25 1.44240
2962.01 1.10441
2963.55 0.796862
2965.08 0.765637
2965.84 0.856145
2966.61 1.07160
2967.37 1.55336
2967.76 2.01144
2968.14 2.77777
2968.52 4.19055
2968.71 5.37498
2968.90 7.16378
2969.10 10.0409
2969.29 14.9484
2969.48 24.0312
2969.57 31.4622
2969.67 41.6889
2969.83 66.5787
2970.00 83.1625
2970.17 66.5653
2970.33 41.6680
2970.49 26.0612
2970.65 17.2080
2970.81 12.0185
2970.97 8.80732
2971.29 5.27878
2971.61 3.51286
2971.93 2.51277
2972.25 1.89394
2972.89 1.20074
2973.53 0.840966
2974.17 0.630548
2975.45 0.405090
2976.74 0.292138
2978.02 0.227340
2980.58 0.160706
2983.14 0.134550
2985.70 0.141826
2986.98 0.172864
2987.62 0.207079
2988.26 0.270457
2988.90 0.402622
2989.22 0.528418
2989.54 0.744658
2989.86 1.16201
2990.02 1.53272
2990.18 2.12696
2990.34 3.16151
2990.50 5.17870
2990.58 6.96522
2990.66 9.77073
2990.74 14.3718
2990.82 22.0288
2990.86 28.2402
2990.91 35.1745
2991.00 43.9260
2991.09 35.1730
2991.18 22.0268
2991.25 15.2877
2991.32 10.9123
2991.39 8.06355
2991.45 6.17880
2991.59 3.90129
2991.72 2.68273
2991.86 1.95426
2992.00 1.49297
2992.27 0.961203
2992.54 0.678371
2992.81 0.511817
2993.35 0.333270
2993.89 0.245498
2994.43 0.197110
2995.51 0.152538
2996.60 0.144694
2997.68 0.177845
2998.22 0.233948
2998.76 0.384272
2999.03 0.568939
2999.30 0.992359
2999.44 1.44686
2999.57 2.31921
2999.64 3.09031
2999.71 4.26988
2999.77 6.20479
2999.84 9.31853
2999.92 14.8705
3000.00 18.4995
3000.08 14.7964
3000.16 9.31835
3000.22 6.46458
3000.28 4.61845
3000.34 3.42055
3000.40 2.62048
3000.52 1.67301
3000.64 1.16769
3000.88 0.675253
3001.12 0.455641
3001.60 0.272923
3002.07 0.204008
3003.03 0.163196
3003.99 0.174359
3004.94 0.234711
3005.42 0.300623
3005.90 0.419796
3006.38 0.662143
3006.62 0.886602
3006.86 1.26231
3007.10 1.95902
3007.22 2.55559
3007.34 3.46360
3007.46 4.96202
3007.58 7.59658
3007.70 12.7836
3007.76 17.2315
3007.81 23.5584
3007.86 30.2345
3007.91 37.7054
3008.00 47.1528
3008.09 37.7033
3008.19 23.5555
3008.28 14.7199
3008.37 9.72688
3008.46 6.76740
3008.54 4.95769
3008.72 2.95680
3008.90 1.95678
3009.08 1.39140
3009.26 1.04229
3009.62 0.652643
3009.98 0.451949
3010.33 0.335247
3011.05 0.211734
3011.77 0.150959
3012.48 0.116479
3013.91 0.0805379
3015.35 0.0628611
3016.78 0.0527121
3019.64 0.0418060
3025.37 0.0328015
3031.09 0.0290668
3042.54 0.0264012
3054.00 0.0265519
3065.45 0.0287315
3076.90 0.0338567
3082.63 0.0390036
3088.35 0.0500782
3091.22 0.0631159
3092.65 0.0752853
3094.08 0.0965972
3095.51 0.140387
3096.23 0.182641
3096.94 0.257242
3097.66 0.409290
3098.02 0.552920
3098.37 0.799536
3098.73 1.27666
3098.91 1.70228
3099.09 2.38814
3099.27 3.59203
3099.45 5.97080
3099.54 8.12264
3099.63 11.5133
3099.72 17.1677
3099.76 21.4066
3099.81 26.7757
3099.85 34.3116
3099.90 42.9261
3100.00 53.5557
3100.05 50.3714
3100.10 42.7486
3100.20 26.7740
3100.26 19.3795
3100.32 14.3175
3100.45 8.48988
3100.58 5.50267
3100.71 3.84014
3100.83 2.81908
3100.96 2.16065
3101.22 1.38566
3101.47 0.968286
3101.73 0.718850
3102.24 0.448969
3102.75 0.314183
3103.26 0.237553
3104.27 0.158625
3105.29 0.121218
3106.31 0.100989
3108.35 0.0818171
3112.43 0.0720127
3116.51 0.0739643
3124.67 0.0919575
3132.82 0.129415
3140.98 0.207877
3145.06 0.282886
3149.14 0.413464
3153.22 0.672839
3155.26 0.911471
3157.29 1.30988
3158.31 1.61753
3159.33 2.04867
3160.35 2.67951
3161.37 3.64933
3162.39 5.24412
3163.41 8.08786
3163.92 10.3904
3164.43 13.7012
3164.94 18.5540
3165.45 25.6293
3166.23 40.9744
3167.00 51.1925
3167.78 40.9523
3168.55 25.6101
3169.35 15.5557
3170.15 10.0301
3170.95 6.88444
3171.74 4.98347
3172.54 3.76167
3173.34 2.93825
3174.94 1.93760
3176.53 1.38002
3178.13 1.04068
3181.32 0.670290
3184.52 0.488909
3187.71 0.393521
3194.10 0.329086
3200.48 0.381976
3203.68 0.469297
3206.87 0.639025
3210.06 0.991563
3211.66 1.31937
3212.46 1.55500
3213.25 1.86495
3214.05 2.28376
3214.85 2.86590
3215.65 3.70691
3216.45 4.97964
3217.25 7.02346
3217.65 8.52796
3218.04 10.5384
3218.44 13.2810
3218.84 17.0950
3219.24 22.4648
3219.64 29.9735
3220.32 47.8113
3221.00 59.6472
3221.69 47.6455
3222.37 29.7278
3222.99 19.1484
3223.60 12.8885
3224.22 9.11674
3224.84 6.73865
3226.07 4.07012
3227.30 2.71233
3228.54 1.93486
3229.77 1.45130
3232.24 0.907308
3234.70 0.624966
3237.17 0.460165
3242.10 0.285455
3247.04 0.200371
3251.97 0.154853
3256.90 0.139785
3258.14 0.148520
3259.37 0.182082
3259.99 0.230203
3260.60 0.357588
3260.91 0.515945
3261.22 0.886475
3261.37 1.28973
3261.53 2.09039
3261.60 2.81326
3261.68 3.97123
3261.76 5.92233
3261.84 9.28105
3261.92 14.8484
3262.00 18.5104
3262.08 14.7759
3262.17 9.27960
3262.26 5.30756
3262.36 3.31095
3262.46 2.22919
3262.55 1.60717
3262.74 0.957881
3262.94 0.650821
3263.32 0.378842
3263.71 0.266539
3264.48 0.176079
3265.25 0.140699
3266.79 0.112365
3268.33 0.100698
3274.50 0.0875113
3277.58 0.0896959
3280.67 0.103206
3282.21 0.123501
3282.98 0.143681
3283.75 0.179853
3284.52 0.254689
3284.91 0.326458
3285.29 0.451101
3285.68 0.698205
3285.87 0.923999
3286.06 1.29484
3286.26 1.97358
3286.35 2.53853
3286.45 3.38903
3286.54 4.76166
3286.64 7.08646
3286.74 11.3727
3286.83 19.6644
3286.87 25.1427
3286.92 31.4001
3287.00 39.2165
3287.08 31.3993
3287.17 19.6635
3287.25 12.6092
3287.32 8.46272
3287.40 5.97935
3287.48 4.41888
3287.63 2.67949
3287.78 1.79808
3287.94 1.29557
3288.09 0.983627
3288.40 0.634720
3288.71 0.453755
3289.02 0.348565
3289.63 0.237820
3290.25 0.183872
3290.86 0.153920
3292.09 0.124074
3294.55 0.104889
3297.01 0.102003
3301.94 0.112739
3306.86 0.140637
3311.78 0.199059
3314.24 0.253453
3316.71 0.346300
3319.17 0.529484
3320.40 0.700230
3321.63 0.993454
3322.86 1.57107
3323.47 2.10047
3323.78 2.48206
3324.09 2.98416
3324.40 3.66830
3324.71 4.63047
3324.86 5.26493
3325.01 6.04237
3325.17 7.00837
3325.32 8.21875
3325.47 9.78277
3325.63 11.8331
3325.78 14.5830
3325.94 18.3379
3326.09 23.6788
3326.24 31.4480
3326.40 42.9986
3326.55 60.0113
3326.78 95.8748
3327.00 119.780
3327.11 112.688
3327.23 95.8734
3327.45 60.0210
3327.70 35.1472
3327.95 22.1034
3328.20 14.9544
3328.45 10.7522
3328.70 8.09214
3328.95 6.32868
3329.46 4.21309
3329.96 3.05401
3330.46 2.36183
3331.46 1.62924
3332.46 1.29655
3333.47 1.15111
3335.47 1.16246
3337.48 1.51336
3338.48 1.87638
3339.48 2.46380
3340.48 3.45628
3341.49 5.25348
3341.99 6.72161
3342.49 8.83828
3342.99 11.9540
3343.49 16.5259
3344.25 26.3626
3345.00 32.9120
3345.76 26.3376
3346.51 16.4902
3347.16 10.8879
3347.80 7.47469
3348.45 5.36931
3349.09 4.01709
3350.38 2.47920
3351.67 1.69089
3352.96 1.25126
3354.25 1.02415
3354.89 1.00066
3355.54 1.12505
3355.86 1.34698
3356.18 1.91774
3356.34 2.55868
3356.51 3.84522
3356.59 5.01994
3356.67 6.87910
3356.75 10.0479
3356.83 15.4152
3356.91 24.3323
3357.00 30.1711
3357.09 24.2081
3357.17 15.3859
3357.26 9.56072
3357.35 6.34490
3357.44 4.51096
3357.53 3.40740
3357.71 2.20232
3357.88 1.60385
3358.06 1.26430
3358.24 1.05237
3358.59 0.809862
3359.30 0.598255
3360.01 0.509286
3360.72 0.475191
3361.42 0.506631
3361.78 0.583958
3362.13 0.797407
3362.31 1.04882
3362.49 1.58051
3362.58 2.09310
3362.66 2.95391
3362.75 4.54447
3362.84 7.54304
3362.92 11.9252
3363.00 14.8009
3363.08 11.8610
3363.16 7.53185
3363.24 4.60114
3363.33 3.02331
3363.41 2.14027
3363.50 1.61607
3363.67 1.04815
3363.84 0.771430
3364.18 0.518043
3364.51 0.407610
3365.19 0.310106
3365.87 0.265007
3368.58 0.191226
3374.00 0.139807
3376.70 0.132792
3379.41 0.144562
3380.77 0.169964
3381.45 0.196437
3382.12 0.244530
3382.80 0.344152
3383.14 0.439079
3383.48 0.602559
3383.82 0.922532
3383.99 1.20975
3384.15 1.67672
3384.32 2.51410
3384.41 3.20045
3384.49 4.19943
3384.58 5.76270
3384.66 8.28906
3384.75 12.7231
3384.83 20.5338
3384.92 32.8203
3385.00 40.8636
3385.09 32.6660
3385.17 20.5337
3385.22 15.1057
3385.28 11.3189
3385.38 6.86499
3385.49 4.52398
3385.59 3.20348
3385.70 2.38286
3385.80 1.85083
3386.01 1.21987
3386.22 0.878179
3386.44 0.673483
3386.86 0.452218
3387.28 0.342747
3387.70 0.281900
3388.55 0.223598
3390.23 0.200423
3391.92 0.233682
3393.61 0.335524
3394.45 0.440524
3395.30 0.628134
3396.14 1.00631
3396.56 1.35639
3396.99 1.94204
3397.41 3.02806
3397.62 3.95351
3397.83 5.37457
3398.04 7.70065
3398.25 11.8289
3398.36 15.1673
3398.46 19.8946
3398.57 26.8416
3398.67 36.8188
3398.84 58.9284
3399.00 73.5370
3399.16 58.7791
3399.33 36.8123
3399.47 24.3127
3399.60 16.7193
3399.74 11.9831
3399.88 8.95417
3400.16 5.47950
3400.44 3.67776
3400.71 2.63536
3400.99 1.98163
3401.54 1.24146
3402.10 0.855250
3402.65 0.628932
3403.76 0.388003
3404.87 0.269074
3405.98 0.201665
3408.19 0.131863
3410.41 0.0982249
3412.62 0.0796349
3417.05 0.0621320
3421.48 0.0587351
3423.70 0.0624132
3425.92 0.0726930
3428.13 0.0980743
3429.24 0.124252
3430.35 0.171991
3431.45 0.271984
3432.01 0.368470
3432.56 0.537499
3433.12 0.874278
3433.39 1.18409
3433.67 1.70000
3433.95 2.65108
3434.09 3.46051
3434.22 4.68749
3434.36 6.69530
3434.50 10.1922
3434.64 16.8881
3434.71 22.5123
3434.78 30.5399
3434.83 39.1180
3434.89 48.9154
3435.00 61.0121
3435.11 48.7385
3435.22 30.5375
3435.35 17.4381
3435.48 10.7544
3435.61 7.16347
3435.74 5.07383
3435.87 3.76856
3436.00 2.90481
3436.26 1.87773
3436.52 1.31227
3436.78 0.971578
3437.30 0.597790
3437.82 0.408640
3438.34 0.300390
3439.38 0.187547
3440.42 0.133208
3441.45 0.103345
3443.53 0.0748975
3445.61 0.0666548
3447.68 0.0775875
3448.72 0.100913
3449.76 0.169111
3450.28 0.259412
3450.80 0.489612
3451.06 0.767048
3451.19 1.01078
3451.32 1.39321
3451.45 2.05133
3451.58 3.29957
3451.64 4.37330
3451.71 6.01040
3451.77 8.59242
3451.84 12.6134
3451.92 20.2125
3452.00 25.1967
3452.08 20.1129
3452.16 12.6123
3452.22 8.94851
3452.28 6.53784
3452.33 4.91841
3452.39 3.80594
3452.50 2.44868
3452.61 1.69816
3452.72 1.24532
3452.84 0.952917
3453.06 0.612486
3453.51 0.321441
3453.96 0.203990
3454.85 0.111641
3455.75 0.0765735
3457.54 0.0498256
3459.33 0.0398110
3462.92 0.0325050
3466.50 0.0308545
3470.09 0.0325065
3473.67 0.0397775
3475.46 0.0494680
3477.25 0.0743796
3478.15 0.106088
3479.05 0.187949
3479.49 0.291002
3479.94 0.545228
3480.17 0.842285
3480.39 1.49324
3480.50 2.15010
3480.61 3.34114
3480.67 4.31998
3480.73 5.74833
3480.78 7.88047
3480.84 11.0608
3480.92 17.6820
3481.00 22.1011
3481.08 17.6826
3481.16 11.0624
3481.22 8.02332
3481.27 5.97295
3481.37 3.57416
3481.48 2.34330
3481.58 1.64860
3481.79 0.947167
3482.00 0.622878
3482.41 0.345158
3482.83 0.236501
3483.66 0.162975
3484.49 0.158415
3485.33 0.202366
3485.74 0.254691
3486.16 0.350651
3486.58 0.545661
3486.78 0.725096
3486.99 1.02296
3487.20 1.56816
3487.30 2.02625
3487.41 2.71955
3487.51 3.83158
3487.62 5.74741
3487.72 9.32644
3487.82 16.3755
3487.91 26.2184
3488.00 32.6758
3488.09 26.0994
3488.18 16.3740
3488.25 10.9520
3488.32 7.58972
3488.40 5.48507
3488.47 4.13313
3488.61 2.55851
3488.76 1.73320
3488.90 1.24984
3489.05 0.947829
3489.34 0.604301
3489.63 0.423938
3489.92 0.318582
3490.50 0.206532
3491.08 0.151878
3491.66 0.121647
3492.82 0.0924936
3495.15 0.0790473
3497.47 0.0906622
3499.80 0.129807
3500.96 0.170816
3502.12 0.245193
3502.70 0.307010
3503.28 0.399846
3503.86 0.548388
3504.44 0.807290
3505.02 1.32242
3505.31 1.79649
3505.60 2.58209
3505.89 4.03325
3506.04 5.25714
3506.18 7.12196
3506.33 10.1421
3506.47 15.4198
3506.55 19.6340
3506.62 25.4935
3506.69 33.9992
3506.76 45.9440
3506.82 58.8020
3506.88 73.4990
3507.00 91.8726
3507.06 86.4669
3507.12 73.4962
3507.24 45.9416
3507.37 26.4829
3507.51 16.4923
3507.64 11.0267
3507.77 7.84773
3507.91 5.83701
3508.04 4.51183
3508.31 2.92375
3508.58 2.04727
3508.85 1.51703
3509.39 0.938488
3509.92 0.647599
3510.46 0.483771
3511.54 0.323173
3512.61 0.269691
3513.69 0.303981
3514.22 0.391469
3514.49 0.481209
3514.76 0.638149
3515.03 0.943992
3515.16 1.21377
3515.30 1.64268
3515.43 2.38645
3515.57 3.79719
3515.63 5.01732
3515.70 6.88778
3515.77 9.85963
3515.84 14.6223
3515.92 23.3968
3516.00 29.1597
3516.08 23.2824
3516.17 14.6196
3516.25 9.01250
3516.33 5.91378
3516.41 4.10581
3516.50 3.01461
3516.66 1.82113
3516.83 1.23103
3516.99 0.899757
3517.16 0.696342
3517.49 0.471052
3518.15 0.291905
3518.81 0.228258
3520.13 0.200908
3521.45 0.235791
3522.77 0.346362
3523.43 0.460739
3524.09 0.664713
3524.75 1.07378
3525.08 1.45012
3525.41 2.07536
3525.74 3.22243
3525.90 4.18898
3526.07 5.65619
3526.23 8.01940
3526.40 12.1153
3526.48 15.3556
3526.56 19.8341
3526.64 26.1715
3526.72 35.0845
3526.86 56.0909
3527.00 70.0835
3527.14 56.0865
3527.28 35.0791
3527.37 25.4461
3527.46 18.8905
3527.63 11.2021
3527.81 7.27621
3527.99 5.06736
3528.17 3.71909
3528.35 2.84145
3528.71 1.81369
3529.07 1.25713
3529.42 0.924703
3530.14 0.563254
3530.85 0.381588
3531.57 0.277785
3532.28 0.212801
3533.00 0.169386
3534.43 0.116639
3535.86 0.0869533
3538.72 0.0562158
3541.58 0.0412827
3544.44 0.0328338
3550.16 0.0240519
3561.61 0.0176191
3573.05 0.0160682
3584.49 0.0172357
3595.94 0.0229569
3601.66 0.0305987
3604.52 0.0375966
3607.38 0.0491953
3610.24 0.0707800
3611.67 0.0896454
3613.10 0.120105
3614.53 0.176023
3615.25 0.225032
3615.96 0.305489
3616.68 0.457553
3617.04 0.594795
3617.39 0.823324
3617.75 1.25807
3617.93 1.64353
3618.11 2.26129
3618.29 3.35957
3618.47 5.57378
3618.56 7.62750
3618.64 10.9546
3618.73 16.7235
3618.78 21.2024
3618.82 27.0244
3618.87 34.6187
3618.91 43.1037
3619.00 53.8362
3619.09 43.1229
3619.18 27.0641
3619.25 18.3180
3619.32 12.9127
3619.39 9.44957
3619.46 7.21811
3619.61 4.61646
3619.75 3.25981
3619.89 2.48048
3620.04 2.00199
3620.32 1.49623
3620.61 1.28406
3620.89 1.22446
3621.46 1.40342
3622.04 2.04131
3622.32 2.67969
3622.61 3.75558
3622.89 5.74319
3623.04 7.41295
3623.18 9.91171
3623.32 13.9210
3623.39 16.8839
3623.46 20.7698
3623.54 26.1160
3623.61 33.3956
3623.68 43.5372
3623.75 57.5651
3623.88 92.2012
3624.00 115.047
3624.06 108.228
3624.13 91.8956
3624.25 57.5456
3624.33 42.1959
3624.41 31.5134
3624.57 18.9533
3624.72 12.3936
3624.88 8.68779
3625.04 6.39421
3625.20 4.90283
3625.51 3.14055
3625.83 2.18042
3626.14 1.60335
3626.77 0.975335
3627.40 0.658047
3628.03 0.476120
3628.66 0.361777
3629.29 0.285394
3630.55 0.192498
3631.81 0.140255
3633.06 0.107942
3634.32 0.0865614
3636.84 0.0609279
3639.36 0.0467807
3644.40 0.0327382
3649.43 0.0266105
3654.47 0.0238550
3664.54 0.0232916
3674.61 0.0276023
3684.68 0.0397705
3689.72 0.0527912
3694.76 0.0784544
3697.27 0.103207
3699.79 0.152108
3701.05 0.203354
3701.68 0.247536
3702.31 0.320055
3702.94 0.459072
3703.25 0.585984
3703.57 0.798948
3703.88 1.20587
3704.04 1.56735
3704.20 2.14341
3704.36 3.15705
3704.51 5.13844
3704.59 6.92298
3704.67 9.71674
3704.75 14.4224
3704.79 17.8540
3704.83 22.2831
3704.87 28.5835
3704.91 35.6116
3705.00 44.3587
3705.04 41.6788
3705.09 35.4529
3705.17 22.2930
3705.26 13.7669
3705.35 9.04912
3705.43 6.32233
3705.52 4.65285
3705.69 2.83885
3705.86 1.94308
3706.04 1.44026
3706.21 1.13611
3706.55 0.805387
3706.90 0.644672
3707.24 0.561054
3707.93 0.497860
3709.31 0.544309
3710.68 0.734047
3712.06 1.14220
3712.75 1.51144
3713.44 2.10483
3714.13 3.13593
3714.47 3.95808
3714.82 5.13402
3715.16 6.89366
3715.51 9.62734
3715.85 14.0605
3716.20 21.3389
3716.60 34.1423
3717.00 42.6453
3717.40 34.0991
3717.81 21.3287
3718.16 13.8080
3718.52 9.32580
3718.88 6.61063
3719.24 4.88995
3719.96 2.95606
3720.68 1.96946
3721.39 1.40327
3722.11 1.05113
3723.55 0.655036
3724.98 0.450411
3726.42 0.332050
3727.85 0.258441
3729.29 0.210778
3732.16 0.161461
3735.03 0.162957
3736.46 0.200236
3737.18 0.243035
3737.90 0.322935
3738.62 0.489828
3738.97 0.647922
3739.33 0.916620
3739.69 1.42920
3739.87 1.87910
3740.05 2.58448
3740.23 3.79003
3740.41 6.03963
3740.50 7.96364
3740.59 10.8292
3740.68 15.3310
3740.77 22.2755
3740.83 28.5809
3740.88 35.6582
3741.00 44.4747
3741.12 35.5338
3741.23 22.2719
3741.33 14.6022
3741.44 9.96320
3741.54 7.11882
3741.64 5.29980
3741.84 3.23704
3742.04 2.17837
3742.24 1.56455
3742.44 1.18225
3742.85 0.748617
3743.25 0.522004
3743.65 0.389469
3744.46 0.247844
3745.27 0.177268
3746.07 0.136833
3747.68 0.0939336
3749.30 0.0722606
3750.91 0.0594477
3754.14 0.0451428
3760.59 0.0326379
3767.04 0.0273460
3779.94 0.0250074
3783.16 0.0263053
3786.39 0.0303812
3788.00 0.0359104
3789.61 0.0508611
3790.42 0.0706279
3791.23 0.122610
3791.63 0.188325
3792.03 0.349221
3792.23 0.535067
3792.44 0.930871
3792.54 1.32117
3792.64 2.00717
3792.74 3.32768
3792.79 4.42895
3792.84 6.00110
3792.92 9.59776
3793.00 11.9999
3793.08 9.59758
3793.16 6.00091
3793.23 3.89462
3793.31 2.63838
3793.38 1.87678
3793.45 1.39922
3793.59 0.853216
3793.74 0.575874
3794.02 0.316448
3794.31 0.204622
3794.88 0.112560
3795.46 0.0767135
3796.60 0.0494703
3797.75 0.0396755
3800.04 0.0330883
3802.33 0.0315344
3811.50 0.0362431
3816.09 0.0423902
3820.67 0.0531138
3822.96 0.0627306
3825.25 0.0819373
3826.40 0.103341
3827.55 0.155689
3828.12 0.221005
3828.69 0.385104
3828.98 0.583732
3829.27 1.03983
3829.41 1.53259
3829.55 2.48890
3829.62 3.34399
3829.70 4.66956
3829.77 6.87892
3829.84 10.5113
3829.92 16.7632
3830.00 20.9267
3830.08 16.7636
3830.16 10.5123
3830.21 7.72749
3830.26 5.82021
3830.36 3.54588
3830.46 2.34696
3830.56 1.66995
3830.77 0.975427
3830.97 0.652433
3831.37 0.371676
3831.77 0.258278
3832.57 0.171662
3833.37 0.142311
3834.98 0.128544
3836.58 0.134220
3839.79 0.170711
3843.00 0.243226
3846.21 0.389137
3847.81 0.522374
3849.41 0.742591
3850.22 0.911301
3851.02 1.14613
3851.82 1.48704
3852.62 2.00827
3853.43 2.86023
3853.83 3.50196
3854.23 4.37872
3854.63 5.61058
3855.03 7.39125
3855.43 10.0246
3855.83 13.9201
3856.42 22.0796
3857.00 27.7548
3857.59 23.2486
3858.17 16.9368
3858.54 15.4450
3858.91 17.1707
3859.09 20.1542
3859.28 25.8861
3859.46 36.7945
3859.65 57.5337
3859.83 89.1497
3860.00 109.988
3860.18 88.2413
3860.35 56.0933
3860.50 37.4105
3860.66 26.1414
3860.81 19.1745
3860.96 14.6722
3861.27 9.46117
3861.57 6.70446
3861.87 5.05458
3862.18 3.98706
3862.79 2.71127
3863.40 1.99432
3864.01 1.54385
3865.22 1.02142
3866.44 0.735832
3867.66 0.561336
3870.09 0.367846
3872.53 0.273165
3874.96 0.234761
3876.18 0.241745
3877.40 0.297839
3878.01 0.384244
3878.62 0.616044
3878.92 0.903774
3879.07 1.16040
3879.23 1.57393
3879.38 2.29883
3879.53 3.72675
3879.61 5.00482
3879.68 7.03351
3879.76 10.4084
3879.83 16.1220
3879.92 25.7211
3880.00 32.0005
3880.08 25.5983
3880.17 16.1202
3880.27 9.19071
3880.36 5.71314
3880.46 3.83346
3880.56 2.75428
3880.66 2.07458
3880.76 1.63009
3880.95 1.09964
3881.15 0.807659
3881.35 0.631500
3881.74 0.439788
3882.53 0.289362
3883.32 0.236162
3884.89 0.212589
3886.46 0.241129
3888.04 0.335326
3888.82 0.434854
3889.61 0.615517
3890.40 0.986815
3890.79 1.33768
3891.19 1.93504
3891.58 3.08029
3891.78 4.08888
3891.97 5.68091
3892.17 8.42642
3892.27 10.5776
3892.37 13.6301
3892.46 18.1783
3892.56 25.0853
3892.66 36.0436
3892.76 53.5751
3892.88 85.7131
3893.00 107.149
3893.12 85.7077
3893.24 53.5689
3893.35 34.8002
3893.46 23.6490
3893.56 16.8416
3893.67 12.5016
3893.88 7.57857
3894.09 5.06500
3894.31 3.61342
3894.52 2.71160
3894.94 1.69211
3895.37 1.16245
3895.79 0.853022
3896.64 0.524996
3897.49 0.363643
3898.34 0.272940
3900.04 0.180979
3901.74 0.141372
3903.44 0.132811
3904.29 0.146765
3905.14 0.199796
3905.56 0.273132
3905.99 0.458544
3906.20 0.676266
3906.41 1.14653
3906.52 1.61340
3906.62 2.44281
3906.73 4.06511
3906.78 5.45579
3906.84 7.47388
3906.92 11.9084
3907.00 14.8630
3907.08 11.9074
3907.16 7.47208
3907.22 5.35989
3907.28 3.93563
3907.39 2.32677
3907.50 1.51597
3907.61 1.07040
3907.83 0.624142
3908.06 0.420278
3908.50 0.244209
3908.95 0.172701
3909.84 0.115495
3910.73 0.0931924
3912.51 0.0758920
3914.29 0.0701337
3917.86 0.0710032
3921.42 0.0846243
3924.98 0.121133
3926.77 0.159151
3928.55 0.228693
3929.44 0.286897
3930.33 0.374793
3931.22 0.516286
3932.11 0.765227
3933.00 1.26468
3933.45 1.72830
3933.89 2.50506
3934.34 3.95902
3934.56 5.20859
3934.78 7.13356
3935.01 10.3346
3935.12 12.7572
3935.23 16.0844
3935.34 20.8310
3935.45 27.6669
3935.56 37.7984
3935.67 52.7869
3935.84 84.5123
3936.00 105.473
3936.16 84.2995
3936.33 52.7800
3936.46 35.9668
3936.58 25.2816
3936.71 18.4517
3936.84 13.9430
3937.10 8.66572
3937.35 5.87264
3937.61 4.22436
3937.86 3.18036
3938.37 1.98900
3938.89 1.36063
3939.40 0.991286
3939.91 0.755365
3940.42 0.596202
3941.44 0.400898
3942.47 0.290341
3943.49 0.221754
3944.51 0.176333
3946.56 0.121701
3948.60 0.0914024
3952.69 0.0607689
3956.78 0.0465488
3960.88 0.0390735
3969.06 0.0329193
3977.24 0.0329436
3985.42 0.0393446
3989.51 0.0480261
3991.56 0.0560021
3993.60 0.0695826
3995.65 0.0966161
3996.67 0.122229
3997.70 0.167137
3998.72 0.258670
3999.23 0.345892
3999.74 0.497202
4000.25 0.797156
4000.51 1.07182
4000.76 1.52506
4001.02 2.35829
4001.15 3.06030
4001.28 4.11580
4001.40 5.82641
4001.53 8.79122
4001.60 11.1203
4001.66 14.3788
4001.72 18.9993
4001.79 25.3899
4001.84 32.5448
4001.89 40.5593
4002.00 50.6574
4002.05 47.6356
4002.11 40.5583
4002.21 25.3894
4002.30 16.9992
4002.39 11.7877
4002.48 8.52117
4002.57 6.41682
4002.74 3.96843
4002.92 2.68488
4003.09 1.93722
4003.27 1.46630
4003.62 0.931290
4003.97 0.651102
4004.32 0.487746
4005.02 0.315062
4005.72 0.231488
4006.42 0.185971
4007.82 0.143465
4009.22 0.129263
4010.62 0.128620
4013.42 0.154856
4016.22 0.230168
4017.62 0.306847
4019.02 0.444090
4020.43 0.725166
4021.13 0.991447
4021.83 1.44860
4022.53 2.33612
4022.88 3.12852
4023.23 4.40808
4023.58 6.66126
4023.75 8.48276
4023.93 11.1370
4024.10 15.1814
4024.28 21.6668
4024.45 32.6093
4024.63 51.4725
4024.81 82.4264
4025.00 102.919
4025.19 82.2437
4025.37 51.4671
4025.55 32.2035
4025.73 21.2466
4025.91 14.8152
4026.09 10.8324
4026.27 8.22013
4026.45 6.44605
4026.81 4.26000
4027.17 3.02104
4027.52 2.25892
4028.24 1.40978
4028.96 0.974288
4029.67 0.724000
4031.11 0.466296
4032.54 0.351529
4033.97 0.308203
4034.69 0.313848
4035.41 0.362655
4035.76 0.434144
4036.12 0.611817
4036.30 0.813642
4036.48 1.23389
4036.57 1.63577
4036.66 2.30742
4036.75 3.54206
4036.84 5.85758
4036.92 9.23706
4037.00 11.4943
4037.08 9.23749
4037.16 5.85859
4037.25 3.65771
4037.33 2.44410
4037.41 1.75297
4037.49 1.33435
4037.66 0.884148
4037.83 0.665054
4038.16 0.468774
4038.49 0.390070
4039.15 0.336820
4039.81 0.331277
4041.14 0.376524
4042.46 0.487126
4043.79 0.714194
4044.45 0.919218
4045.11 1.25350
4045.78 1.86530
4046.11 2.39042
4046.44 3.22238
4046.60 3.84297
4046.77 4.69291
4046.94 5.90882
4047.10 7.73375
4047.18 9.02885
4047.27 10.7119
4047.35 12.9533
4047.43 15.9778
4047.52 20.2869
4047.60 26.5524
4047.68 35.8908
4047.76 49.6179
4047.88 78.1838
4048.00 97.1412
4048.06 91.6792
4048.12 78.6417
4048.24 51.0678
4048.32 38.2750
4048.39 29.8127
4048.55 20.5282
4048.71 16.5868
4048.86 15.4009
4049.02 16.0073
4049.18 18.1975
4049.33 22.2115
4049.49 28.4418
4049.75 43.5074
4050.00 53.5111
4050.26 42.7590
4050.51 26.9416
4050.68 19.5863
4050.85 14.5505
4051.19 8.70866
4051.53 5.72638
4051.86 4.04488
4052.20 3.00774
4052.54 2.32731
4053.21 1.52020
4053.89 1.07651
4054.56 0.807060
4055.91 0.508944
4057.27 0.355814
4058.62 0.266743
4061.32 0.172503
4064.02 0.126541
4066.72 0.101288
4072.12 0.0783579
4077.53 0.0748001
4082.93 0.0927263
4085.63 0.123137
4086.98 0.153839
4088.33 0.209248
4089.68 0.324479
4090.36 0.435245
4091.03 0.629035
4091.71 1.01583
4092.05 1.37220
4092.38 1.96451
4092.72 3.06209
4092.89 3.99505
4093.06 5.41372
4093.23 7.73842
4093.40 11.8425
4093.57 19.7966
4093.65 26.5070
4093.73 36.1541
4093.87 57.9556
4094.00 72.3667
4094.13 57.7796
4094.27 36.1515
4094.35 26.3144
4094.44 19.5331
4094.61 11.6157
4094.78 7.56301
4094.96 5.27907
4095.13 3.88347
4095.30 2.97439
4095.64 1.90715
4095.99 1.33116
4096.33 0.986438
4097.02 0.613332
4097.71 0.426405
4098.39 0.320190
4099.77 0.210591
4101.14 0.158814
4102.52 0.131062
4105.27 0.105774
4110.77 0.0985667
4116.27 0.117279
4121.77 0.167474
4124.52 0.217440
4127.27 0.305769
4130.02 0.484771
4131.40 0.653204
4132.77 0.941954
4134.15 1.50121
4134.84 2.00114
4135.53 2.80767
4136.21 4.23195
4136.56 5.38564
4136.90 7.06421
4137.24 9.63473
4137.59 13.7715
4137.93 20.7853
4138.28 32.9014
4138.64 52.6243
4139.00 65.7196
4139.36 52.5579
4139.73 32.8951
4139.98 23.1719
4140.24 16.7598
4140.50 12.5092
4140.76 9.62090
4141.27 6.13850
4141.79 4.23604
4142.31 3.09793
4142.82 2.36794
4143.85 1.52468
4144.89 1.07777
4145.92 0.814711
4147.98 0.537520
4150.05 0.407362
4152.11 0.341945
4156.24 0.302297
4160.37 0.335936
4164.49 0.456327
4166.56 0.586023
4168.62 0.854023
4169.65 1.14150
4170.17 1.38988
4170.69 1.79472
4171.20 2.54904
4171.46 3.21201
4171.72 4.27854
4171.98 6.16605
4172.23 9.98494
4172.36 13.5223
4172.49 19.3584
4172.62 29.6154
4172.75 48.2553
4172.88 76.6620
4173.00 95.6083
4173.13 76.6996
4173.25 48.3341
4173.32 37.1797
4173.39 29.0128
4173.45 23.0809
4173.52 18.7880
4173.66 13.1064
4173.79 9.72868
4174.06 6.16260
4174.33 4.47712
4174.60 3.57214
4174.87 3.05488
4175.41 2.56964
4176.49 2.48283
4177.58 2.92865
4178.66 3.83865
4179.74 5.44667
4180.82 8.33375
4181.36 10.5874
4181.90 13.6081
4182.95 21.6599
4184.00 27.0070
4185.06 21.5851
4186.11 13.4881
4187.07 8.65978
4188.03 5.81882
4188.99 4.11149
4189.95 3.03745
4191.87 1.83631
4193.79 1.22560
4195.72 0.876410
4197.64 0.659070
4201.48 0.414716
4205.32 0.288286
4209.16 0.215297
4213.00 0.172617
4214.93 0.169029
4215.89 0.205672
4216.37 0.324277
4216.61 0.575185
4216.73 0.926293
4216.85 1.77063
4216.92 2.75404
4217.00 3.39707
4217.08 2.73956
4217.16 1.76857
4217.27 0.963218
4217.38 0.608813
4217.60 0.338932
4218.04 0.200901
4218.92 0.145870
4220.69 0.121790
4224.22 0.103957
4231.29 0.0867388
4238.36 0.0812326
4245.43 0.0864197
4252.50 0.108414
4256.03 0.131921
4259.56 0.173120
4263.10 0.252377
4264.86 0.322508
4266.63 0.435934
4268.40 0.641885
4269.28 0.819334
4270.17 1.10357
4271.05 1.62205
4271.49 2.07245
4271.93 2.79626
4272.37 4.10615
4272.60 5.21354
4272.82 6.91982
4273.04 9.75270
4273.26 14.9366
4273.37 19.2799
4273.48 25.6570
4273.59 35.3526
4273.70 50.1296
4273.85 79.5884
4274.00 99.0862
4274.15 79.5487
4274.30 50.4716
4274.42 34.5688
4274.54 24.7330
4274.67 18.5545
4274.79 14.5515
4274.91 11.8706
4275.03 10.0240
4275.27 7.80222
4275.51 6.68137
4275.76 6.18267
4276.00 6.08770
4276.24 6.30718
4276.48 6.82127
4276.72 7.65031
4276.97 8.86529
4277.21 10.5907
4277.45 13.0399
4277.69 16.5055
4277.94 21.4492
4278.18 28.4234
4278.59 45.1069
4279.00 56.1851
4279.21 52.8611
4279.41 44.9362
4279.82 28.1692
4280.31 16.0757
4280.79 9.93357
4281.28 6.64018
4281.76 4.72349
4282.24 3.52457
4282.73 2.72937
4283.70 1.77723
4284.66 1.25201
4285.63 0.932184
4287.57 0.578741
4289.50 0.397746
4291.44 0.292635
4295.31 0.181385
4299.18 0.126691
4303.05 0.0958826
4310.80 0.0647211
4318.54 0.0514748
4326.28 0.0486157
4330.15 0.0529281
4334.03 0.0695695
4335.96 0.0935488
4336.93 0.117256
4337.90 0.159707
4338.87 0.247131
4339.35 0.330476
4339.83 0.474860
4340.32 0.757910
4340.56 1.01394
4340.80 1.43265
4341.04 2.18389
4341.16 2.80285
4341.29 3.72174
4341.41 5.15737
4341.53 7.54015
4341.65 11.7570
4341.77 19.3944
4341.83 24.8212
4341.88 31.0270
4342.00 38.7893
4342.12 31.0261
4342.23 19.3933
4342.37 11.0853
4342.50 6.84561
4342.64 4.56708
4342.77 3.24840
4342.91 2.41707
4343.04 1.87043
4343.31 1.21494
4343.58 0.854422
4343.85 0.637326
4344.39 0.399681
4344.93 0.279475
4345.46 0.210749
4346.54 0.139293
4347.62 0.105082
4348.69 0.0863946
4350.85 0.0685446
4355.15 0.0602177
4359.46 0.0666327
4363.77 0.0885874
4365.92 0.111523
4368.07 0.153120
4370.23 0.239996
4371.31 0.324187
4372.38 0.472917
4373.46 0.775176
4374.00 1.06000
4374.54 1.54603
4375.07 2.48178
4375.34 3.30900
4375.61 4.63111
4375.88 6.92392
4376.02 8.75703
4376.15 11.3688
4376.29 15.3000
4376.42 21.3910
4376.55 31.3786
4376.69 47.7205
4376.84 76.3099
4377.00 95.3611
4377.08 89.7562
4377.16 76.3055
4377.31 47.7163
4377.42 34.0564
4377.53 24.9331
4377.63 18.7318
4377.74 14.5055
4377.95 9.31324
4378.16 6.43906
4378.38 4.70397
4378.59 3.58345
4379.02 2.28130
4379.44 1.58230
4379.87 1.16648
4380.72 0.719216
4381.57 0.497071
4382.42 0.372025
4384.12 0.245767
4385.83 0.189876
4387.53 0.164523
4390.94 0.160365
4394.34 0.209498
4396.05 0.268338
4397.75 0.378071
4399.45 0.607328
4400.30 0.826384
4401.15 1.20437
4402.01 1.94151
4402.43 2.60337
4402.86 3.67365
4403.07 4.47709
4403.28 5.57305
4403.50 7.11766
4403.71 9.38125
4403.92 12.8565
4404.14 18.4864
4404.35 28.1176
4404.45 35.3675
4404.56 44.9020
4404.78 71.8149
4405.00 89.7533
4405.22 71.8077
4405.44 44.8947
4405.68 26.6259
4405.92 16.8896
4406.15 11.4452
4406.39 8.21228
4406.63 6.14897
4406.87 4.77231
4407.34 3.10613
4407.82 2.18231
4408.29 1.61943
4409.24 0.999805
4410.19 0.684545
4411.14 0.503392
4413.04 0.314400
4414.94 0.223916
4416.84 0.174692
4420.63 0.128895
4424.43 0.114791
4428.23 0.119969
4430.13 0.132420
4432.03 0.163023
4432.98 0.199559
4433.93 0.289997
4434.40 0.401769
4434.88 0.675051
4435.12 0.993835
4435.35 1.68698
4435.47 2.38699
4435.59 3.63902
4435.65 4.68144
4435.71 6.17239
4435.77 8.38133
4435.83 11.6483
4435.91 18.5495
4436.00 23.1493
4436.09 18.5506
4436.17 11.6509
4436.26 7.41828
4436.34 4.99115
4436.42 3.53327
4436.50 2.63508
4436.66 1.63369
4436.83 1.13248
4437.15 0.670847
4437.48 0.475251
4438.13 0.320475
4438.78 0.266039
4440.08 0.238395
4441.38 0.246540
4443.98 0.309258
4446.58 0.437996
4449.18 0.701583
4450.48 0.945124
4451.78 1.35061
4452.43 1.66309
4453.08 2.09946
4453.73 2.73465
4454.38 3.70679
4455.03 5.29189
4455.36 6.47960
4455.68 8.09133
4456.01 10.3327
4456.33 13.5246
4456.66 18.1499
4456.98 24.8251
4457.49 39.6694
4458.00 49.5637
4458.51 39.6765
4459.02 24.8508
4459.56 15.0025
4460.09 9.65488
4460.63 6.65249
4461.16 4.86284
4461.70 3.73256
4462.23 2.99357
4463.31 2.17777
4464.38 1.91607
4464.91 1.98307
4465.45 2.25207
4465.98 2.90228
4466.25 3.50654
4466.52 4.46311
4466.79 6.07057
4467.05 8.97010
4467.32 14.7078
4467.46 19.6626
4467.59 26.8233
4467.80 42.6064
4468.00 53.0577
4468.21 42.4792
4468.41 26.7362
4468.61 16.9311
4468.81 11.3039
4469.00 7.99429
4469.20 5.93949
4469.59 3.66960
4469.99 2.52307
4470.38 1.86624
4470.78 1.45416
4471.56 0.981682
4472.35 0.727126
4473.14 0.571442
4474.71 0.393823
4476.29 0.296400
4477.87 0.235379
4481.02 0.163709
4484.17 0.123641
4487.32 0.0986202
4493.62 0.0705151
4499.92 0.0574297
4506.23 0.0547098
4509.38 0.0591252
4512.53 0.0743035
4514.10 0.0941687
4515.68 0.144916
4516.47 0.209185
4517.25 0.373483
4517.65 0.577265
4517.85 0.762523
4518.04 1.06796
4518.24 1.62377
4518.34 2.09177
4518.44 2.79059
4518.54 3.91889
4518.63 5.83266
4518.73 9.36931
4518.83 16.2380
4518.87 20.8066
4518.92 26.0339
4519.00 32.4796
4519.09 25.9134
4519.17 16.2407
4519.25 10.6019
4519.32 7.21741
4519.40 5.15482
4519.47 3.84183
4519.62 2.36004
4519.77 1.60458
4519.92 1.16776
4520.07 0.896089
4520.37 0.592931
4520.97 0.349817
4521.57 0.263985
4522.77 0.227224
4523.96 0.270010
4525.16 0.404084
4525.76 0.541759
4526.36 0.786620
4526.96 1.27732
4527.26 1.73004
4527.56 2.48065
4527.86 3.86606
4528.01 5.03780
4528.16 6.80844
4528.31 9.68930
4528.38 11.8312
4528.46 14.6719
4528.53 18.6295
4528.61 24.1973
4528.68 32.1449
4528.75 43.2466
4528.82 55.4395
4528.88 69.1356
4529.00 86.3780
4529.06 81.2285
4529.12 69.1320
4529.25 43.2423
4529.33 31.3949
4529.41 23.3326
4529.56 13.8945
4529.72 9.02694
4529.88 6.30004
4530.04 4.62224
4530.20 3.53597
4530.51 2.25533
4530.83 1.56377
4531.15 1.14958
4531.78 0.700159
4532.42 0.474715
4533.05 0.345846
4533.68 0.265320
4534.32 0.211638
4535.59 0.146696
4536.85 0.110348
4539.39 0.0731486
4541.93 0.0554705
4544.46 0.0458023
4549.53 0.0367364
4554.61 0.0344879
4559.68 0.0391071
4562.21 0.0480252
4563.48 0.0572632
4564.75 0.0741991
4566.02 0.109967
4567.28 0.206899
4567.92 0.333345
4568.24 0.452663
4568.55 0.657045
4568.87 1.05067
4569.03 1.40136
4569.19 1.95969
4569.35 2.93789
4569.50 4.83218
4569.58 6.50615
4569.66 9.12907
4569.74 13.4181
4569.82 20.5306
4569.91 32.8824
4570.00 40.9863
4570.09 32.7369
4570.18 20.5296
4570.25 14.1337
4570.32 10.0659
4570.39 7.42247
4570.45 5.65423
4570.59 3.54528
4570.73 2.42134
4570.86 1.75122
4571.00 1.32762
4571.27 0.838890
4571.55 0.580530
4571.82 0.427954
4572.36 0.264786
4572.91 0.183812
4573.46 0.138042
4574.55 0.0908422
4575.64 0.0683649
4576.73 0.0560220
4578.91 0.0438644
4583.28 0.0361948
4587.64 0.0352008
4596.37 0.0403276
4605.10 0.0538175
4613.83 0.0839193
4618.19 0.113451
4622.55 0.165795
4626.92 0.272280
4629.10 0.372829
4631.28 0.545889
4633.46 0.883390
4634.56 1.18811
4635.10 1.40476
4635.65 1.68685
4636.19 2.06492
4636.74 2.58522
4637.28 3.33056
4637.83 4.44269
4638.37 6.20160
4638.92 9.16123
4639.19 11.4300
4639.47 14.5330
4639.74 18.8191
4640.01 24.6696
4640.51 39.4089
4641.00 49.2359
4641.50 39.4285
4641.99 24.7199
4642.46 15.6447
4642.93 10.4329
4643.40 7.37899
4643.87 5.50561
4644.82 3.50537
4645.76 2.64093
4646.70 2.41887
4647.64 2.93883
4648.11 3.78433
4648.58 5.64077
4648.82 7.40275
4649.05 10.2926
4649.29 15.2981
4649.52 24.1700
4649.76 38.2479
4650.00 47.5616
4650.24 38.1194
4650.48 24.0420
4650.72 14.9964
4650.96 9.92856
4651.20 6.98023
4651.43 5.17635
4651.91 3.19547
4652.39 2.20204
4652.86 1.63185
4653.34 1.27412
4654.29 0.861310
4655.25 0.636891
4656.20 0.498840
4658.11 0.340338
4660.01 0.253395
4661.92 0.199348
4665.73 0.137184
4669.54 0.103938
4673.36 0.0845490
4680.98 0.0670271
4688.61 0.0685624
4692.42 0.0784018
4696.23 0.100347
4700.05 0.150342
4701.95 0.200246
4703.86 0.289427
4705.77 0.471759
4706.72 0.643786
4707.67 0.938535
4708.63 1.50707
4709.10 2.01369
4709.58 2.82701
4709.82 3.43484
4710.06 4.25580
4710.29 5.40404
4710.53 7.07087
4710.77 9.61214
4711.01 13.6507
4711.25 20.4152
4711.49 31.9741
4711.74 51.1339
4712.00 63.8491
4712.26 51.1024
4712.52 32.0805
4712.80 18.9300
4713.09 12.0719
4713.37 8.39656
4713.66 6.38177
4713.95 5.41226
4714.23 5.47245
4714.37 6.14642
4714.52 7.74587
4714.66 11.4264
4714.73 14.9141
4714.80 20.2148
4714.90 31.0095
4715.00 38.0773
4715.10 30.6581
4715.20 19.7451
4715.31 11.9463
4715.42 7.91220
4715.53 5.68367
4715.65 4.34775
4715.87 2.89480
4716.09 2.14968
4716.54 1.40895
4716.99 1.04209
4717.89 0.671251
4718.78 0.482788
4719.68 0.369016
4720.58 0.293875
4722.37 0.202522
4724.16 0.150759
4725.96 0.118510
4729.54 0.0822198
4733.13 0.0637552
4736.71 0.0537415
4743.89 0.0468321
4751.06 0.0532001
4754.65 0.0638522
4758.23 0.0852061
4761.82 0.131945
4763.61 0.178086
4765.40 0.260518
4766.30 0.328472
4767.20 0.429816
4768.09 0.591033
4768.99 0.869718
4769.89 1.41638
4770.33 1.91036
4770.78 2.71836
4771.01 3.33223
4771.23 4.17335
4771.46 5.37151
4771.68 7.15237
4771.90 9.93946
4772.13 14.5772
4772.24 18.0809
4772.35 22.8168
4772.46 29.2698
4772.58 37.9895
4772.79 60.8190
4773.00 75.9408
4773.11 71.4149
4773.21 60.7005
4773.43 37.9867
4773.60 25.2273
4773.78 17.3784
4773.96 12.4980
4774.14 9.35817
4774.49 5.74437
4774.85 3.86344
4775.20 2.77333
4775.56 2.08954
4776.27 1.31721
4776.98 0.917793
4777.69 0.689476
4779.11 0.467321
4780.53 0.407791
4781.24 0.431500
4781.95 0.513219
4782.66 0.717906
4783.01 0.922846
4783.37 1.28102
4783.72 1.97671
4783.90 2.59646
4784.08 3.58079
4784.26 5.29295
4784.43 8.57226
4784.52 11.4535
4784.61 15.9222
4784.70 23.1276
4784.75 28.2391
4784.79 34.7014
4784.84 44.4095
4784.90 55.4870
4785.00 69.1395
4785.05 65.0575
4785.11 55.2731
4785.21 34.6928
4785.30 23.0140
4785.39 15.9084
4785.48 11.4372
4785.57 8.57947
4785.74 5.28131
4785.92 3.57211
4786.10 2.57360
4786.27 1.94622
4786.63 1.23537
4786.98 0.861527
4787.33 0.641890
4788.04 0.405493
4788.75 0.286908
4789.45 0.218384
4790.87 0.145124
4792.28 0.107947
4793.70 0.0860935
4796.52 0.0626633
4799.35 0.0525101
4802.18 0.0533764
4803.59 0.0627850
4805.01 0.0942244
4805.71 0.137965
4806.42 0.253995
4806.78 0.399706
4807.13 0.748161
4807.31 1.13946
4807.48 1.94711
4807.57 2.71322
4807.66 3.98236
4807.75 6.25142
4807.84 10.4661
4807.92 16.7939
4808.00 20.9545
4808.08 16.7120
4808.17 10.4653
4808.22 7.49375
4808.28 5.48795
4808.39 3.20454
4808.50 2.06528
4808.61 1.43370
4808.84 0.805235
4809.06 0.517635
4809.51 0.271423
4809.96 0.171930
4810.85 0.0935541
4811.75 0.0636620
4813.54 0.0405780
4815.33 0.0316097
4818.92 0.0242664
4822.50 0.0213482
4829.67 0.0224056
4831.46 0.0263508
4833.25 0.0381703
4834.15 0.0543381
4835.05 0.0976666
4835.49 0.153166
4835.94 0.291132
4836.17 0.452755
4836.39 0.806859
4836.50 1.16360
4836.61 1.80872
4836.73 3.10608
4836.78 4.24866
4836.84 5.90713
4836.92 9.44449
4837.00 11.8036
4837.08 9.44430
4837.16 5.90689
4837.22 4.17487
4837.28 3.04044
4837.39 1.75467
4837.51 1.12291
4837.62 0.778400
4837.85 0.434907
4838.08 0.279535
4838.54 0.146901
4839.00 0.0937240
4839.92 0.0520871
4840.83 0.0365211
4842.67 0.0250912
4844.50 0.0214696
4848.17 0.0241046
4850.01 0.0446235
4850.93 0.114008
4851.39 0.304314
4851.62 0.687392
4851.73 1.20778
4851.84 2.39625
4851.92 3.82210
4852.00 4.77147
4852.08 3.82201
4852.16 2.39613
4852.25 1.38952
4852.33 0.868537
4852.51 0.421433
4852.87 0.165189
4853.57 0.0613377
4854.99 0.0278578
4857.83 0.0185348
4863.50 0.0180275
4866.33 0.0208353
4869.17 0.0294215
4870.58 0.0412322
4872.00 0.0734816
4872.71 0.116099
4873.42 0.227426
4873.77 0.366650
4874.13 0.699587
4874.31 1.07259
4874.48 1.84244
4874.57 2.57284
4874.66 3.78326
4874.75 5.98201
4874.84 10.0377
4874.92 16.0378
4875.00 20.0320
4875.08 16.0376
4875.16 10.0373
4875.25 6.04869
4875.34 3.89287
4875.42 2.65787
4875.51 1.92171
4875.68 1.12641
4875.85 0.739174
4876.19 0.389233
4876.53 0.242185
4877.21 0.123768
4877.89 0.0782967
4879.26 0.0438897
4880.62 0.0313815
4883.35 0.0224447
4886.08 0.0195893
4896.99 0.0195923
4902.45 0.0224143
4907.90 0.0287448
4910.63 0.0359093
4913.36 0.0534956
4914.73 0.0758630
4916.09 0.134740
4916.77 0.210839
4917.45 0.405746
4917.79 0.644048
4918.14 1.19998
4918.31 1.80586
4918.48 2.99959
4918.56 4.08967
4918.65 5.81547
4918.73 8.71342
4918.82 13.6784
4918.86 17.5178
4918.91 21.9018
4919.00 27.2992
4919.09 21.8063
4919.18 13.6783
4919.27 8.75798
4919.35 5.89422
4919.43 4.17052
4919.52 3.08316
4919.68 1.86138
4919.85 1.24480
4920.18 0.671990
4920.52 0.425953
4921.18 0.225369
4921.85 0.148348
4923.18 0.0919488
4924.51 0.0754476
4925.84 0.0750965
4927.17 0.0938692
4927.84 0.122577
4928.50 0.198836
4928.84 0.293645
4929.17 0.518533
4929.34 0.768280
4929.50 1.27202
4929.59 1.73699
4929.67 2.49958
4929.75 3.82706
4929.84 6.20838
4929.92 9.93736
4930.00 12.3879
4930.08 9.88937
4930.17 6.20846
4930.23 4.33074
4930.29 3.12399
4930.41 1.79519
4930.53 1.14982
4930.65 0.803064
4930.89 0.462926
4931.13 0.310541
4931.61 0.181750
4932.09 0.130869
4933.05 0.0926464
4934.02 0.0801054
4937.87 0.0796138
4941.72 0.102153
4945.57 0.147199
4947.49 0.184882
4949.42 0.241200
4951.34 0.330412
4953.27 0.483728
4954.23 0.605425
4955.19 0.780419
4956.15 1.04531
4957.12 1.47192
4957.60 1.79056
4958.08 2.22232
4958.56 2.82713
4959.04 3.70663
4959.52 5.04673
4960.00 7.18500
4960.48 10.7769
4960.97 16.9349
4961.48 27.0896
4962.00 33.8403
4962.52 27.0705
4963.04 16.9463
4963.63 9.74337
4964.23 6.05886
4964.83 4.08827
4965.43 2.96836
4966.03 2.33019
4966.62 2.07746
4966.92 2.17286
4967.22 2.65206
4967.37 3.25465
4967.52 4.46617
4967.60 5.54929
4967.67 7.20733
4967.74 9.90312
4967.82 14.1944
4967.91 22.0464
4968.00 27.2703
4968.09 21.9884
4968.18 14.0787
4968.28 8.75537
4968.38 5.89378
4968.47 4.25949
4968.57 3.28057
4968.76 2.20996
4968.95 1.67147
4969.34 1.15065
4969.72 0.900317
4970.49 0.648188
4971.26 0.512856
4972.80 0.360367
4974.34 0.273801
4977.43 0.179861
4980.51 0.133133
4983.59 0.109690
4986.67 0.105479
4988.21 0.116797
4989.75 0.158622
4990.52 0.217723
4991.29 0.375272
4991.67 0.573655
4992.06 1.05294
4992.25 1.59657
4992.44 2.72512
4992.54 3.81378
4992.64 5.64665
4992.73 8.99620
4992.83 15.3967
4992.87 19.7009
4992.92 24.6104
4993.00 30.6415
4993.09 24.4958
4993.17 15.3961
4993.23 11.3005
4993.28 8.49398
4993.39 5.12944
4993.49 3.38045
4993.60 2.39210
4993.81 1.37479
4994.03 0.902147
4994.45 0.490683
4994.88 0.323073
4995.73 0.191560
4996.59 0.143079
4998.29 0.110744
5000.00 0.106139
5003.17 0.132063
5004.75 0.166801
5006.33 0.232738
5007.92 0.372672
5008.71 0.508033
5009.50 0.744610
5010.29 1.21512
5010.69 1.64644
5011.08 2.35945
5011.48 3.66784
5011.68 4.76893
5011.88 6.43854
5012.07 9.12403
5012.17 11.1091
5012.27 13.7696
5012.37 17.4122
5012.47 22.5003
5012.57 29.7022
5012.67 39.7109
5012.75 50.9193
5012.83 63.5632
5013.00 79.3231
5013.08 74.5857
5013.17 63.4074
5013.33 39.7070
5013.45 28.3578
5013.56 20.7123
5013.68 15.5695
5013.79 12.0597
5014.02 7.73145
5014.24 5.34635
5014.47 3.89986
5014.70 2.96979
5015.15 1.88399
5015.61 1.30256
5016.06 0.956298
5016.97 0.583042
5017.88 0.396823
5018.79 0.291272
5020.61 0.183270
5022.43 0.135028
5024.25 0.118805
5025.16 0.126584
5026.07 0.166711
5026.52 0.226489
5026.98 0.387272
5027.21 0.589310
5027.32 0.772348
5027.43 1.06819
5027.55 1.60111
5027.60 2.03867
5027.66 2.67198
5027.72 3.66948
5027.77 5.31051
5027.83 8.17858
5027.89 13.3226
5027.94 21.2869
5028.00 26.5693
5028.06 21.2858
5028.11 13.3210
5028.15 9.65921
5028.19 7.19528
5028.26 4.28211
5028.33 2.79738
5028.40 1.96303
5028.48 1.45416
5028.55 1.12307
5028.70 0.734692
5028.84 0.525105
5028.99 0.399547
5029.28 0.263100
5029.57 0.194371
5029.86 0.154841
5030.45 0.113193
5031.62 0.0808893
5032.78 0.0687280
5035.12 0.0613482
5037.46 0.0647151
5039.79 0.0811837
5040.96 0.0997455
5042.13 0.134486
5043.30 0.208320
5043.88 0.280237
5044.46 0.407270
5045.05 0.663430
5045.34 0.902073
5045.63 1.30495
5045.92 2.06340
5046.07 2.72033
5046.22 3.74635
5046.36 5.46693
5046.51 8.63305
5046.58 11.2733
5046.65 15.1790
5046.73 21.1067
5046.76 25.0943
5046.80 29.9608
5046.85 38.4357
5046.90 47.9277
5047.00 59.9086
5047.05 56.3179
5047.10 47.9263
5047.20 29.9592
5047.28 21.0058
5047.35 15.1125
5047.42 11.2287
5047.49 8.60204
5047.64 5.45039
5047.79 3.74529
5047.93 2.71928
5048.08 2.06598
5048.37 1.30745
5048.66 0.903914
5048.95 0.664602
5049.53 0.407350
5050.11 0.279498
5050.70 0.206924
5051.86 0.132018
5053.02 0.0963419
5054.19 0.0768924
5056.52 0.0587104
5058.84 0.0539786
5061.17 0.0622766
5062.34 0.0786973
5063.50 0.126162
5064.08 0.188962
5064.66 0.349776
5064.95 0.544471
5065.25 0.990512
5065.39 1.46597
5065.54 2.37494
5065.61 3.17457
5065.68 4.41557
5065.76 6.41884
5065.83 9.63205
5065.91 15.4345
5066.00 19.2466
5066.09 15.3629
5066.17 9.63152
5066.23 7.08468
5066.28 5.33465
5066.39 3.24217
5066.49 2.13617
5066.60 1.50973
5066.81 0.865610
5067.02 0.564928
5067.45 0.302077
5067.87 0.194472
5068.72 0.109274
5069.57 0.0769531
5071.27 0.0527062
5072.97 0.0440733
5076.38 0.0385514
5079.78 0.0378978
5086.58 0.0419027
5093.38 0.0516282
5100.18 0.0713248
5103.58 0.0893222
5106.98 0.119820
5110.38 0.180078
5112.08 0.236735
5113.78 0.335470
5115.48 0.534527
5116.33 0.722055
5117.18 1.04455
5118.03 1.67225
5118.45 2.23686
5118.88 3.15568
5119.09 3.84875
5119.30 4.79333
5119.52 6.13779
5119.73 8.11214
5119.84 9.47867
5119.94 11.1866
5120.05 13.3712
5120.15 16.2087
5120.26 19.9911
5120.37 25.0030
5120.47 31.7409
5120.58 40.7199
5120.69 52.1946
5120.79 65.1828
5121.00 81.3946
5121.11 76.5417
5121.21 65.0564
5121.42 40.7188
5121.55 30.1062
5121.68 22.6963
5121.94 13.7824
5122.19 9.09911
5122.45 6.42260
5122.71 4.76046
5122.96 3.67282
5123.47 2.38285
5123.99 1.68109
5124.50 1.26101
5125.53 0.806569
5126.55 0.581826
5127.58 0.457491
5129.63 0.339521
5131.69 0.299223
5133.74 0.298579
5135.79 0.339475
5136.82 0.427344
5137.33 0.634453
5137.59 1.05844
5137.72 1.66156
5137.84 3.17420
5137.92 4.87756
5138.00 5.99873
5138.08 4.88198
5138.16 3.18315
5138.27 1.82119
5138.38 1.20974
5138.59 0.746232
5139.03 0.520974
5139.90 0.466399
5141.65 0.533592
5143.39 0.669711
5145.13 0.886696
5146.88 1.24245
5148.62 1.86418
5149.49 2.35482
5150.37 3.04337
5151.24 4.02300
5152.11 5.40817
5153.56 8.62773
5155.00 10.7671
5156.45 8.60780
5157.90 5.37971
5158.96 3.75999
5160.02 2.69942
5161.08 2.00354
5162.14 1.53455
5164.25 0.973977
5166.37 0.670838
5168.49 0.491685
5170.61 0.381374
5172.73 0.330296
5173.78 0.391184
5174.05 0.463226
5174.31 0.636202
5174.58 1.18803
5174.71 1.99833
5174.78 2.79043
5174.84 4.08034
5174.92 6.38302
5175.00 7.92058
5175.08 6.37956
5175.16 4.07351
5175.27 2.16594
5175.39 1.32362
5175.62 0.696447
5175.85 0.477074
5176.08 0.376526
5176.99 0.246825
5178.83 0.186773
5182.49 0.146249
5184.33 0.141543
5186.16 0.158552
5187.08 0.192519
5188.00 0.292170
5188.46 0.423490
5188.91 0.751663
5189.14 1.13838
5189.37 1.98067
5189.49 2.83050
5189.60 4.34589
5189.66 5.60430
5189.72 7.39738
5189.77 10.0429
5189.83 13.9367
5189.92 22.2329
5190.00 27.7575
5190.09 22.2317
5190.17 13.9348
5190.24 9.24013
5190.31 6.36618
5190.39 4.58649
5190.46 3.45276
5190.60 2.14260
5190.74 1.46099
5191.03 0.815873
5191.32 0.534600
5191.89 0.300169
5192.46 0.206994
5193.61 0.133156
5194.75 0.103806
5197.05 0.0787364
5199.34 0.0670142
5203.92 0.0548194
5208.50 0.0485630
5217.67 0.0476643
5219.96 0.0521232
5222.25 0.0642011
5223.40 0.0792702
5224.55 0.117336
5225.12 0.165061
5225.69 0.284706
5225.98 0.429201
5226.27 0.760515
5226.41 1.11486
5226.55 1.80521
5226.69 3.37730
5226.77 4.96899
5226.84 7.62915
5226.92 12.1736
5227.00 15.1986
5227.08 12.1745
5227.16 7.63116
5227.22 5.32734
5227.28 3.82351
5227.40 2.18243
5227.52 1.39793
5227.64 0.977609
5227.88 0.566881
5228.12 0.383765
5228.60 0.232841
5229.08 0.177527
5230.03 0.149921
5230.99 0.169178
5231.94 0.237583
5232.42 0.308734
5232.90 0.435683
5233.38 0.690790
5233.62 0.926304
5233.86 1.31934
5234.09 2.04581
5234.21 2.66606
5234.33 3.60755
5234.45 5.15553
5234.57 7.86282
5234.69 13.1503
5234.75 17.6487
5234.81 24.0062
5234.86 30.8395
5234.91 38.4834
5235.00 48.0083
5235.10 38.3200
5235.19 24.0052
5235.30 13.9197
5235.40 8.68167
5235.51 5.83013
5235.62 4.16786
5235.72 3.11103
5235.83 2.41424
5236.04 1.57383
5236.26 1.10922
5236.47 0.828981
5236.90 0.521492
5237.32 0.365695
5237.75 0.276745
5238.60 0.184691
5239.45 0.141531
5240.31 0.119001
5242.01 0.101130
5243.72 0.101918
5245.42 0.120557
5246.28 0.144563
5247.13 0.201894
5247.56 0.270270
5247.98 0.432511
5248.20 0.617323
5248.41 1.01299
5248.52 1.40569
5248.62 2.09406
5248.73 3.44899
5248.78 4.59745
5248.83 6.27726
5248.92 9.95748
5249.00 12.4318
5249.08 9.96019
5249.17 6.28281
5249.25 3.96688
5249.33 2.65661
5249.49 1.41313
5249.65 0.896428
5249.81 0.642093
5250.13 0.413277
5250.45 0.321174
5251.09 0.259324
5251.74 0.252615
5253.02 0.300925
5254.30 0.418941
5255.59 0.666712
5256.23 0.895595
5256.87 1.27501
5257.52 1.96875
5257.84 2.54911
5258.16 3.42457
5258.48 4.82239
5258.80 7.21492
5258.96 9.07856
5259.12 11.6421
5259.28 15.2553
5259.44 20.2502
5259.72 32.3917
5260.00 40.4871
5260.28 32.3878
5260.56 20.2459
5260.77 13.9241
5260.98 9.86219
5261.20 7.24099
5261.41 5.49755
5261.84 3.44120
5262.26 2.34145
5262.69 1.69243
5263.11 1.27985
5263.97 0.806754
5264.82 0.557073
5265.67 0.409823
5267.37 0.252598
5269.08 0.175199
5270.78 0.132013
5274.19 0.0900542
5277.60 0.0759770
5281.00 0.0837448
5282.71 0.104517
5284.41 0.165047
5285.26 0.245133
5286.11 0.453498
5286.54 0.713903
5286.75 0.951328
5286.97 1.34353
5287.18 2.05875
5287.29 2.66176
5287.39 3.56435
5287.50 5.02353
5287.61 7.50750
5287.71 12.1173
5287.82 21.1173
5287.86 27.0461
5287.91 33.8197
5288.00 42.1656
5288.09 33.6734
5288.18 21.1197
5288.25 14.6832
5288.32 10.5466
5288.39 7.83300
5288.45 6.00432
5288.59 3.81810
5288.72 2.63367
5288.85 1.92908
5288.99 1.47903
5289.26 0.961564
5289.53 0.688266
5289.79 0.529345
5290.33 0.364808
5291.40 0.261132
5292.48 0.270157
5293.55 0.370998
5294.09 0.483882
5294.62 0.687915
5295.16 1.09957
5295.43 1.47717
5295.69 2.10220
5295.96 3.24158
5296.10 4.19501
5296.23 5.63202
5296.36 7.92378
5296.50 11.8396
5296.63 19.0661
5296.70 24.9270
5296.77 33.0619
5296.83 42.3789
5296.88 52.8331
5297.00 65.9957
5297.12 52.8303
5297.23 33.0580
5297.32 23.1497
5297.40 16.6987
5297.49 12.3921
5297.57 9.51228
5297.74 6.03003
5297.91 4.13510
5298.08 3.00394
5298.25 2.27904
5298.59 1.44294
5298.92 0.996425
5299.26 0.732164
5299.94 0.447031
5300.61 0.304657
5301.29 0.223602
5302.64 0.139174
5303.99 0.0981928
5305.34 0.0752245
5308.04 0.0518912
5310.74 0.0417561
5313.44 0.0395661
5316.14 0.0577609
5317.49 0.133620
5317.83 0.202946
5318.17 0.368415
5318.33 0.553751
5318.50 0.934899
5318.67 1.88896
5318.76 2.94419
5318.84 4.91709
5318.92 7.83375
5319.00 9.80733
5319.08 7.83351
5319.16 4.91672
5319.25 2.81331
5319.34 1.74888
5319.53 0.836233
5319.71 0.487318
5319.90 0.321496
5320.27 0.175553
5320.64 0.115270
5322.12 0.0486708
5325.08 0.0292760
5331.00 0.0254250
5333.96 0.0274668
5336.92 0.0339184
5338.40 0.0420379
5339.88 0.0626300
5340.62 0.0887608
5341.36 0.155824
5341.73 0.239188
5342.10 0.440035
5342.28 0.667404
5342.47 1.14403
5342.56 1.60426
5342.65 2.38272
5342.75 3.81674
5342.84 6.62779
5342.92 10.5605
5343.00 13.2215
5343.08 10.5608
5343.16 6.62844
5343.26 3.69321
5343.36 2.24536
5343.46 1.48705
5343.56 1.05668
5343.75 0.613032
5343.95 0.405078
5344.35 0.224338
5344.74 0.151572
5345.53 0.0963377
5346.32 0.0786058
5347.90 0.0752851
5349.47 0.0933823
5351.05 0.141114
5351.84 0.189436
5352.63 0.275955
5353.42 0.453438
5353.81 0.621688
5354.21 0.909889
5354.60 1.46853
5354.80 1.96507
5354.99 2.76349
5355.19 4.16038
5355.39 6.90623
5355.49 9.37501
5355.59 13.2477
5355.68 19.7464
5355.73 24.4927
5355.78 30.6172
5355.84 39.2811
5355.89 49.0033
5356.00 61.2721
5356.11 49.0019
5356.22 30.6157
5356.29 22.0107
5356.36 16.1670
5356.51 9.49895
5356.66 6.11839
5356.80 4.24717
5356.95 3.10404
5357.09 2.36842
5357.38 1.50559
5357.67 1.04216
5357.96 0.765641
5358.55 0.466833
5359.13 0.317697
5359.71 0.232891
5360.87 0.145433
5362.04 0.103907
5363.20 0.0814506
5365.53 0.0607301
5370.18 0.0603202
5371.35 0.0715835
5372.51 0.102966
5373.09 0.143677
5373.68 0.247396
5373.97 0.373472
5374.26 0.665586
5374.40 0.981765
5374.55 1.59839
5374.69 3.01628
5374.77 4.46634
5374.84 6.89511
5374.92 10.9906
5375.00 13.7442
5375.08 10.9908
5375.16 6.89564
5375.24 4.39133
5375.31 2.92854
5375.47 1.52411
5375.62 0.928731
5375.77 0.629659
5376.07 0.355527
5376.38 0.239238
5376.98 0.145423
5377.59 0.110667
5380.02 0.0850967
5382.45 0.100007
5384.88 0.138712
5386.09 0.172653
5387.31 0.224512
5388.52 0.308556
5389.74 0.457075
5390.35 0.578378
5390.95 0.757326
5391.56 1.03802
5392.17 1.51251
5392.78 2.41169
5393.08 3.19506
5393.38 4.42089
5393.69 6.49944
5393.84 8.11289
5393.99 10.3565
5394.14 13.6226
5394.29 18.5153
5394.45 26.0611
5394.60 37.6422
5394.80 60.2611
5395.00 75.2332
5395.10 70.7899
5395.20 60.1375
5395.40 37.6381
5395.53 27.6515
5395.65 20.7286
5395.90 12.4955
5396.16 8.18703
5396.41 5.74048
5396.66 4.22742
5396.91 3.24027
5397.41 2.07219
5397.91 1.43850
5398.41 1.05798
5399.41 0.644784
5400.41 0.437414
5401.41 0.319466
5402.42 0.246256
5403.42 0.198114
5405.42 0.141650
5407.42 0.112714
5411.43 0.0930200
5415.43 0.107109
5417.44 0.131554
5419.44 0.180109
5421.44 0.284120
5422.45 0.384115
5423.45 0.556690
5424.45 0.891935
5424.95 1.19131
5425.45 1.67252
5425.95 2.51791
5426.20 3.20005
5426.45 4.18581
5426.70 5.68525
5426.95 8.06074
5427.20 12.0201
5427.45 18.7421
5427.73 29.9712
5428.00 37.4540
5428.27 29.9676
5428.55 18.7382
5428.87 10.7417
5429.18 6.64224
5429.50 4.43197
5429.82 3.14262
5430.13 2.33587
5430.45 1.80133
5431.08 1.16387
5431.72 0.813484
5432.35 0.601511
5433.62 0.369646
5434.89 0.252500
5436.15 0.185619
5437.42 0.144184
5438.69 0.117286
5441.22 0.0884472
5443.76 0.0851826
5445.03 0.100539
5446.29 0.154994
5446.93 0.231067
5447.56 0.430757
5447.88 0.676886
5448.20 1.25238
5448.35 1.87977
5448.51 3.11392
5448.59 4.22273
5448.67 5.99006
5448.75 8.94782
5448.83 14.0380
5448.91 22.4168
5449.00 28.0475
5449.09 22.4160
5449.17 14.0366
5449.27 8.04125
5449.37 4.98530
5449.47 3.32319
5449.57 2.36471
5449.77 1.36235
5449.97 0.887553
5450.36 0.467525
5450.76 0.293683
5451.55 0.154468
5452.35 0.100654
5453.94 0.0586631
5455.53 0.0421773
5458.70 0.0283289
5461.88 0.0221108
5468.23 0.0160306
5474.59 0.0129319
5487.29 0.00981432
5500.00 0.00846636
5500.00 1.46835
6000.00 1.40738
7000.00 1.30955
8000.00 1.23480
10000.0 1.12190
12500.0 1.01904
15000.0 0.947758
17000.0 0.897143
20000.0 0.836516
25000.0 0.760481
30000.0 0.698906
35000.0 0.648558
40000.0 0.606008
50000.0 0.538393
60000.0 0.486129
70000.0 0.445423
80000.0 0.412275
90000.0 0.384884
99999.9 0.361901
100000 0.363499
150000 0.288562
200000 0.248870
209747 0.243366
209747 0.243366
219875 0.236129
250000 0.195538
264640 0.182657
300000 0.146105
310417 0.139139
310418 0.139139
349460 0.118418
388503 0.102520
402580 0.0971344
451290 0.0823692
500000 0.0710401
529887 0.0672073
550852 0.0645704
571816 0.0621298
592781 0.0598644
613745 0.0577562
635309 0.0562350
656873 0.0548026
678436 0.0534513
700000 0.0521740
717783 0.0516485
735566 0.0511409
753349 0.0506503
771132 0.0501757
800000 0.0485625
803844 0.0483627
823189 0.0468705
842533 0.0454575
871267 0.0438427
900000 0.0423350
922340 0.0414869
944419 0.0406336
966497 0.0398169
983249 0.0391071
1.00000E+06 0.0384217
1.05208E+06 0.0368397
1.06646E+06 0.0364775
1.09350E+06 0.0357003
1.09350E+06 0.0357003
1.12672E+06 0.0347882
1.13887E+06 0.0345662
1.13887E+06 0.0345661
1.14616E+06 0.0343485
1.14617E+06 0.0343484
1.19113E+06 0.0332545
1.19113E+06 0.0332544
1.20713E+06 0.0328870
1.20714E+06 0.0328869
1.23721E+06 0.0322156
1.23721E+06 0.0322155
1.25000E+06 0.0319035
1.29967E+06 0.0311554
1.34933E+06 0.0304519
1.39359E+06 0.0300990
1.41293E+06 0.0299554
1.41293E+06 0.0299554
1.50000E+06 0.0294899
1.51411E+06 0.0294581
1.52079E+06 0.0294303
1.52079E+06 0.0294303
1.53203E+06 0.0293949
1.53204E+06 0.0293949
1.59523E+06 0.0292944
1.59523E+06 0.0292944
1.63372E+06 0.0292846
1.69186E+06 0.0291693
1.75000E+06 0.0290583
1.81250E+06 0.0284687
1.87500E+06 0.0279105
1.93750E+06 0.0273809
2.00000E+06 0.0268778
2.11237E+06 0.0254374
2.22475E+06 0.0241430
2.33712E+06 0.0229735
2.44949E+06 0.0219118
2.51482E+06 0.0213383
2.58015E+06 0.0207939
2.64548E+06 0.0202766
2.71081E+06 0.0197842
2.78311E+06 0.0192664
2.85541E+06 0.0187749
2.92770E+06 0.0183078
3.00000E+06 0.0178633
3.11186E+06 0.0169812
3.22371E+06 0.0161716
3.34391E+06 0.0153731
3.46410E+06 0.0146402
3.59326E+06 0.0139173
3.72242E+06 0.0132537
3.86121E+06 0.0125993
4.00000E+06 0.0119986
4.07344E+06 0.0116148
4.29322E+06 0.0105736
4.51300E+06 0.00967109
4.75650E+06 0.00880418
5.00000E+06 0.00805266
5.01649E+06 0.00799517
5.03299E+06 0.00793827
5.04948E+06 0.00788196
5.06597E+06 0.00782624
5.08246E+06 0.00777108
5.09895E+06 0.00771650
5.11545E+06 0.00766247
5.13194E+06 0.00760899
5.14843E+06 0.00755605
5.16492E+06 0.00750366
5.18142E+06 0.00745179
5.19791E+06 0.00740044
5.21440E+06 0.00734960
5.23089E+06 0.00729928
5.24738E+06 0.00724945
5.26388E+06 0.00720012
5.28037E+06 0.00715128
5.29686E+06 0.00710292
5.31335E+06 0.00705504
5.32984E+06 0.00700762
5.34634E+06 0.00696067
5.36283E+06 0.00691418
5.37932E+06 0.00686814
5.39581E+06 0.00682254
5.41231E+06 0.00677739
5.42880E+06 0.00673267
5.44529E+06 0.00668838
5.46178E+06 0.00664451
5.47827E+06 0.00660107
5.49477E+06 0.00655803
5.51126E+06 0.00651541
5.52775E+06 0.00647319
5.55727E+06 0.00639861
5.58678E+06 0.00632528
5.61630E+06 0.00625318
5.64581E+06 0.00618227
5.67533E+06 0.00611252
5.70484E+06 0.00604392
5.73436E+06 0.00597643
5.76388E+06 0.00591004
5.79339E+06 0.00584472
5.82291E+06 0.00578045
5.85242E+06 0.00571721
5.88194E+06 0.00565497
5.91145E+06 0.00559371
5.94097E+06 0.00553342
5.97049E+06 0.00547407
6.00000E+06 0.00541565
6.05164E+06 0.00529165
6.10327E+06 0.00517150
6.15491E+06 0.00505506
6.20654E+06 0.00494219
6.25818E+06 0.00483273
6.30981E+06 0.00472657
6.36145E+06 0.00462358
6.41308E+06 0.00452364
6.48645E+06 0.00438667
6.55981E+06 0.00425531
6.63318E+06 0.00412928
6.70654E+06 0.00400831
6.77991E+06 0.00389214
6.85327E+06 0.00378054
6.92664E+06 0.00367327
7.00000E+06 0.00357013
7.01563E+06 0.00354388
7.03125E+06 0.00351788
7.04688E+06 0.00349212
7.06250E+06 0.00346661
7.07813E+06 0.00344135
7.09375E+06 0.00341632
7.10938E+06 0.00339153
7.12500E+06 0.00336697
7.14063E+06 0.00334265
7.15625E+06 0.00331855
7.17188E+06 0.00329468
7.18750E+06 0.00327103
7.20313E+06 0.00324760
7.21875E+06 0.00322439
7.23438E+06 0.00320139
7.25000E+06 0.00317861
7.26563E+06 0.00315604
7.28125E+06 0.00313368
7.29688E+06 0.00311152
7.31250E+06 0.00308957
7.32813E+06 0.00306782
7.34375E+06 0.00304626
7.35938E+06 0.00302491
7.37500E+06 0.00300374
7.39063E+06 0.00298277
7.40625E+06 0.00296200
7.42188E+06 0.00294140
7.43750E+06 0.00292100
7.45313E+06 0.00290078
7.46875E+06 0.00288074
7.48438E+06 0.00286088
7.50000E+06 0.00284120
7.51563E+06 0.00282169
7.53125E+06 0.00280236
7.54688E+06 0.00278320
7.56250E+06 0.00276421
7.57813E+06 0.00274539
7.59375E+06 0.00272674
7.60938E+06 0.00270825
7.62500E+06 0.00268992
7.64063E+06 0.00267175
7.65625E+06 0.00265375
7.67188E+06 0.00263590
7.68750E+06 0.00261821
7.70313E+06 0.00260067
7.71875E+06 0.00258328
7.73438E+06 0.00256605
7.75000E+06 0.00254896
7.76563E+06 0.00253203
7.78125E+06 0.00251523
7.79688E+06 0.00249859
7.81250E+06 0.00248208
7.82813E+06 0.00246572
7.84375E+06 0.00244950
7.85938E+06 0.00243342
7.87500E+06 0.00241747
7.89063E+06 0.00240166
7.90625E+06 0.00238599
7.92188E+06 0.00237045
7.93750E+06 0.00235504
7.95313E+06 0.00233975
7.96875E+06 0.00232460
7.98438E+06 0.00230958
8.00000E+06 0.00229468
8.05562E+06 0.00223963
8.11124E+06 0.00218626
8.16685E+06 0.00213451
8.22247E+06 0.00208433
8.27809E+06 0.00203566
8.33371E+06 0.00198843
8.38932E+06 0.00194261
8.44494E+06 0.00189813
8.48528E+06 0.00186669
8.54962E+06 0.00182425
8.61396E+06 0.00178307
8.67830E+06 0.00174313
8.74264E+06 0.00170436
8.80698E+06 0.00166673
8.87132E+06 0.00163020
8.93566E+06 0.00159472
9.00000E+06 0.00156026
9.06265E+06 0.00153644
9.12530E+06 0.00151314
9.21568E+06 0.00148041
9.30607E+06 0.00144871
9.39645E+06 0.00141798
9.48683E+06 0.00138819
9.54685E+06 0.00137790
9.60686E+06 0.00136775
9.66688E+06 0.00135773
9.72690E+06 0.00134785
9.78691E+06 0.00133810
9.84693E+06 0.00132848
9.90694E+06 0.00131899
9.96696E+06 0.00130963
1.00000E+07 0.00130452
1.00505E+07 0.00129776
1.01011E+07 0.00129107
1.01516E+07 0.00128444
1.02021E+07 0.00127789
1.02526E+07 0.00127140
1.03032E+07 0.00126497
1.03537E+07 0.00125861
1.04042E+07 0.00125231
1.04462E+07 0.00124712
1.04881E+07 0.00124198
1.05302E+07 0.00124376
1.05723E+07 0.00124553
1.06143E+07 0.00124730
1.06564E+07 0.00124906
1.06985E+07 0.00125082
1.07406E+07 0.00125257
1.07826E+07 0.00125432
1.08247E+07 0.00125607
1.08247E+07 0.00125607
1.09124E+07 0.00125969
1.10000E+07 0.00126329
1.11223E+07 0.00125744
1.12446E+07 0.00125169
1.13668E+07 0.00124602
1.14891E+07 0.00124044
1.16168E+07 0.00124308
1.17446E+07 0.00124570
1.18723E+07 0.00124830
1.20000E+07 0.00125087
1.20625E+07 0.00124297
1.21250E+07 0.00123517
1.21875E+07 0.00122745
1.22500E+07 0.00121982
1.23125E+07 0.00121228
1.23750E+07 0.00120482
1.24375E+07 0.00119744
1.25000E+07 0.00119015
1.25625E+07 0.00118293
1.26250E+07 0.00117580
1.26875E+07 0.00116874
1.27500E+07 0.00116176
1.28125E+07 0.00115485
1.28750E+07 0.00114802
1.29375E+07 0.00114127
1.30000E+07 0.00113458
1.30625E+07 0.00112752
1.31250E+07 0.00112054
1.31875E+07 0.00111364
1.32500E+07 0.00110681
1.33125E+07 0.00110005
1.33750E+07 0.00109337
1.34375E+07 0.00108676
1.35000E+07 0.00108021
1.35625E+07 0.00107374
1.36250E+07 0.00106734
1.36875E+07 0.00106100
1.37500E+07 0.00105473
1.38125E+07 0.00104852
1.38750E+07 0.00104238
1.39375E+07 0.00103631
1.40000E+07 0.00103029
1.41250E+07 0.00102098
1.42500E+07 0.00101183
1.43750E+07 0.00100285
1.45000E+07 0.000994020
1.46046E+07 0.000986750
1.47092E+07 0.000979584
1.48546E+07 0.000969793
1.50000E+07 0.000960193
1.51204E+07 0.000955019
1.52407E+07 0.000949914
1.53611E+07 0.000944876
1.54814E+07 0.000939904
1.56018E+07 0.000934996
1.57221E+07 0.000930151
1.58425E+07 0.000925368
1.59628E+07 0.000920646
1.59721E+07 0.000920283
1.59814E+07 0.000919921
1.59907E+07 0.000919559
1.60000E+07 0.000919198
1.60313E+07 0.000918572
1.60625E+07 0.000917948
1.60938E+07 0.000917325
1.61250E+07 0.000916704
1.61563E+07 0.000916084
1.61875E+07 0.000915466
1.62188E+07 0.000914850
1.62500E+07 0.000914235
1.62813E+07 0.000913622
1.63125E+07 0.000913011
1.63438E+07 0.000912401
1.63750E+07 0.000911792
1.64063E+07 0.000911185
1.64375E+07 0.000910580
1.64688E+07 0.000909976
1.65000E+07 0.000909374
1.65313E+07 0.000908774
1.65625E+07 0.000908175
1.65938E+07 0.000907577
1.66250E+07 0.000906981
1.66563E+07 0.000906386
1.66875E+07 0.000905793
1.67188E+07 0.000905202
1.67500E+07 0.000904612
1.67813E+07 0.000904023
1.68125E+07 0.000903436
1.68438E+07 0.000902850
1.68750E+07 0.000902266
1.69063E+07 0.000901683
1.69375E+07 0.000901102
1.69688E+07 0.000900522
1.70000E+07 0.000899944
1.70313E+07 0.000899842
1.70625E+07 0.000899739
1.70938E+07 0.000899637
1.71250E+07 0.000899535
1.71563E+07 0.000899434
1.71875E+07 0.000899332
1.72188E+07 0.000899231
1.72500E+07 0.000899130
1.72813E+07 0.000899029
1.73125E+07 0.000898928
1.73438E+07 0.000898828
1.73750E+07 0.000898727
1.74063E+07 0.000898627
1.74375E+07 0.000898527
1.74688E+07 0.000898427
1.75000E+07 0.000898328
1.75313E+07 0.000898229
1.75625E+07 0.000898129
1.75938E+07 0.000898030
1.76250E+07 0.000897932
1.76563E+07 0.000897833
1.76875E+07 0.000897734
1.77188E+07 0.000897636
1.77500E+07 0.000897538
1.77813E+07 0.000897440
1.78125E+07 0.000897343
1.78438E+07 0.000897245
1.78750E+07 0.000897148
1.79063E+07 0.000897050
1.79375E+07 0.000896953
1.79688E+07 0.000896857
1.80000E+07 0.000896760
1.80625E+07 0.000897361
1.81250E+07 0.000897961
1.81875E+07 0.000898558
1.82500E+07 0.000899155
1.83125E+07 0.000899749
1.83750E+07 0.000900342
1.84375E+07 0.000900933
1.85000E+07 0.000901523
1.85625E+07 0.000902111
1.86250E+07 0.000902697
1.86875E+07 0.000903282
1.87500E+07 0.000903866
1.88125E+07 0.000904447
1.88750E+07 0.000905027
1.89375E+07 0.000905606
1.90000E+07 0.000906183
1.91117E+07 0.000908351
1.92233E+07 0.000910512
1.93204E+07 0.000912385
1.94175E+07 0.000914252
1.95146E+07 0.000916114
1.96117E+07 0.000917970
1.97087E+07 0.000919821
1.98058E+07 0.000921666
1.99029E+07 0.000923506
2.00000E+07 0.000925341