Rb-85(n,g) ENDF/B-VII.1
Energy(eV) XS(b)
1.00000E-05 24.8182
1.25000E-05 22.1981
1.50000E-05 20.2640
2.00000E-05 17.5491
2.75000E-05 14.9659
3.50000E-05 13.2659
4.25000E-05 12.0386
5.00000E-05 11.0990
6.25000E-05 9.92727
7.50000E-05 9.06232
0.000100000 7.84820
0.000125000 7.01964
0.000150000 6.40803
0.000200000 5.54952
0.000275000 4.73264
0.000350000 4.19504
0.000425000 3.80694
0.000500000 3.50982
0.000625000 3.13928
0.000750000 2.86576
0.00100000 2.48182
0.00125000 2.21981
0.00150000 2.02640
0.00200000 1.75491
0.00275000 1.49660
0.00350000 1.32659
0.00425000 1.20386
0.00500000 1.10991
0.00625000 0.992734
0.00750000 0.906239
0.0100000 0.784828
0.0125000 0.701973
0.0150000 0.640813
0.0200000 0.554963
0.0253000 0.493425
0.0314750 0.442386
0.0376500 0.404487
0.0500000 0.351000
0.0625000 0.313948
0.0750000 0.286598
0.100000 0.248207
0.125000 0.222009
0.150000 0.202671
0.200000 0.175527
0.275000 0.149702
0.350000 0.132706
0.500000 0.111047
0.750000 0.0906931
1.00000 0.0785629
1.50000 0.0641796
2.00000 0.0556101
2.75000 0.0474618
3.50000 0.0421037
5.00000 0.0352829
7.50000 0.0288869
10.0000 0.0250865
15.0000 0.0206015
20.0000 0.0179495
27.5000 0.0154550
35.0000 0.0138410
50.0000 0.0118475
75.0000 0.0101295
100.000 0.00931574
137.735 0.00922825
156.602 0.0106174
161.319 0.0119445
166.035 0.0155286
168.394 0.0203734
169.573 0.0251534
170.752 0.0338041
171.931 0.0520453
172.521 0.0699331
173.111 0.101948
173.405 0.128411
173.700 0.168061
173.995 0.231340
174.290 0.341468
174.585 0.558909
174.732 0.757085
174.879 1.08382
175.027 1.67720
175.101 2.17224
175.174 2.91637
175.248 4.09905
175.322 6.11041
175.395 9.79848
175.469 16.8862
175.535 27.0816
175.600 33.9097
175.666 27.0915
175.731 16.8987
175.779 11.8215
175.826 8.49584
175.873 6.30743
175.921 4.82894
176.016 3.05649
176.110 2.09327
176.205 1.51876
176.300 1.15082
176.490 0.725834
176.679 0.499950
176.869 0.366062
177.248 0.222193
177.627 0.150704
178.006 0.110113
178.386 0.0848878
178.765 0.0681541
179.523 0.0480443
180.282 0.0368952
181.798 0.0256470
183.315 0.0204206
184.832 0.0176250
187.866 0.0150217
193.933 0.0138865
200.000 0.0147600
205.768 0.0171286
211.535 0.0224291
214.419 0.0278596
217.303 0.0390959
218.744 0.0513020
219.465 0.0620361
220.186 0.0799937
220.907 0.115184
221.268 0.148059
221.628 0.204808
221.989 0.317217
222.169 0.420780
222.349 0.594286
222.529 0.918338
222.620 1.19676
222.710 1.62847
222.800 2.34527
222.890 3.64522
222.935 4.71499
222.980 6.27230
223.025 8.60115
223.070 12.0635
223.135 19.2363
223.200 24.0046
223.265 19.2427
223.330 12.0723
223.375 8.60401
223.420 6.27734
223.465 4.71861
223.510 3.65263
223.600 2.35403
223.691 1.63831
223.781 1.20764
223.871 0.930276
224.051 0.608570
224.231 0.437365
224.411 0.336245
224.772 0.229073
225.132 0.177924
225.493 0.151078
226.213 0.129460
227.655 0.137456
229.097 0.187396
229.817 0.234308
230.538 0.307603
231.259 0.428624
231.980 0.647261
232.340 0.829012
232.701 1.10252
233.061 1.54145
233.421 2.31128
233.782 3.85002
233.962 5.27137
234.142 7.64960
234.322 12.0673
234.413 15.8411
234.503 21.6518
234.593 31.2026
234.683 48.2603
234.773 81.9235
234.818 111.085
234.863 153.643
234.897 196.842
234.932 246.125
235.000 307.888
235.069 246.048
235.137 153.549
235.184 109.526
235.231 79.9659
235.278 60.0523
235.324 46.3970
235.418 29.7125
235.512 20.4938
235.605 14.9249
235.699 11.3301
235.886 7.14849
236.074 4.90889
236.261 3.57622
236.448 2.72024
236.636 2.13844
237.010 1.42134
237.385 1.01338
237.760 0.759502
238.134 0.590946
238.884 0.388026
239.633 0.275261
240.383 0.206189
241.132 0.160855
242.631 0.106928
244.129 0.0773039
245.628 0.0593084
247.127 0.0475697
250.124 0.0337045
253.121 0.0261566
259.116 0.0186851
265.111 0.0153008
271.105 0.0135458
283.095 0.0120281
307.074 0.0117312
331.053 0.0128235
355.031 0.0149626
379.010 0.0186054
402.989 0.0255021
414.979 0.0337836
417.976 0.0388565
420.973 0.0505590
422.472 0.0652238
423.221 0.0792751
423.971 0.104215
424.720 0.155711
425.095 0.205285
425.469 0.292349
425.844 0.467213
426.031 0.629621
426.219 0.903144
426.406 1.41680
426.500 1.86045
426.593 2.55045
426.687 3.70378
426.781 5.81005
426.828 7.55916
426.874 10.1260
426.921 13.9925
426.968 19.8182
427.034 31.6872
427.100 39.6008
427.166 31.6919
427.232 19.8242
427.298 12.2407
427.363 7.98235
427.429 5.52283
427.495 4.01751
427.561 3.04303
427.626 2.38108
427.758 1.57081
427.889 1.11544
428.020 0.835470
428.283 0.524410
428.546 0.365060
428.809 0.272871
429.334 0.176083
429.860 0.129117
430.386 0.102967
431.437 0.0766731
433.539 0.0585620
435.641 0.0535220
444.050 0.0582448
452.459 0.0817258
454.562 0.0953194
456.664 0.122738
457.715 0.153340
458.241 0.180985
458.766 0.228137
459.292 0.321752
459.555 0.409272
459.817 0.559108
460.080 0.849881
460.212 1.11089
460.343 1.53497
460.474 2.28934
460.540 2.90579
460.606 3.81376
460.672 5.21755
460.737 7.51423
460.803 11.4984
460.869 18.5973
460.934 29.7047
461.000 37.0996
461.066 29.6919
461.132 18.6050
461.181 12.8733
461.231 9.18023
461.281 6.78206
461.330 5.18501
461.429 3.29298
461.529 2.27822
461.628 1.67850
461.727 1.29709
461.926 0.860105
462.125 0.630300
462.323 0.495674
462.720 0.354210
463.117 0.287360
463.515 0.252654
464.309 0.225393
465.898 0.237520
467.486 0.303139
469.075 0.456935
469.869 0.609910
470.664 0.884408
471.061 1.11170
471.458 1.45284
471.855 1.99877
472.252 2.95290
472.650 4.85195
472.848 6.59823
473.047 9.50425
473.245 14.8650
473.345 19.4092
473.444 26.3517
473.543 37.6372
473.593 46.0752
473.643 57.4662
473.692 73.2747
473.742 95.6267
473.791 127.800
473.841 173.897
473.921 278.360
474.000 348.062
474.080 278.300
474.159 173.829
474.210 127.042
474.260 94.6114
474.361 56.5217
474.462 36.8657
474.563 25.7484
474.664 18.9270
474.765 14.4782
474.967 9.24083
475.169 6.40829
475.370 4.71059
475.774 2.86875
476.178 1.94554
476.582 1.41906
476.986 1.09120
477.389 0.873684
478.197 0.612743
479.004 0.469145
480.619 0.327351
482.234 0.265417
483.849 0.236306
487.080 0.220475
493.540 0.260729
500.000 0.374474
503.235 0.475152
506.470 0.629677
509.705 0.881588
512.940 1.33120
514.558 1.70123
516.175 2.25307
517.793 3.12823
519.410 4.63784
520.219 5.84046
521.028 7.57838
521.836 10.2208
522.645 14.5118
523.454 22.1333
523.858 28.3487
524.263 37.4807
524.667 51.5592
525.071 74.4939
525.476 114.041
525.880 184.078
526.290 294.407
526.700 367.705
527.110 293.866
527.520 183.549
527.990 105.576
528.460 65.4089
528.931 43.6654
529.401 30.9522
529.871 22.9825
530.341 17.6973
531.281 11.3815
532.221 7.91518
533.162 5.81915
535.042 3.53238
536.923 2.39690
538.803 1.80439
539.744 1.67358
540.684 1.75834
541.154 2.03159
541.389 2.32745
541.624 2.86164
541.859 3.92371
541.977 4.87804
542.094 6.41467
542.212 9.09755
542.329 14.3194
542.388 18.9357
542.447 26.1471
542.506 37.9357
542.564 57.4022
542.632 91.2859
542.700 113.888
542.768 91.2788
542.836 57.3823
542.885 40.4651
542.934 29.3383
542.983 22.0093
543.032 17.0623
543.130 11.1162
543.228 7.87830
543.326 5.94240
543.424 4.69879
543.621 3.25410
543.817 2.47718
544.013 2.00974
544.405 1.49196
545.190 1.05173
545.975 0.854216
547.545 0.654174
549.115 0.540388
552.254 0.400936
555.394 0.314158
561.672 0.211206
567.951 0.154056
574.230 0.119829
580.509 0.100342
583.649 0.0968624
586.788 0.104038
588.358 0.120481
589.143 0.138298
589.928 0.171598
590.712 0.242638
591.105 0.312043
591.497 0.434905
591.890 0.683303
592.086 0.915096
592.282 1.30706
592.478 2.04669
592.576 2.68882
592.675 3.69415
592.773 5.38587
592.871 8.51545
592.920 11.1429
592.969 15.0428
593.018 21.0165
593.067 30.1489
593.134 48.2130
593.200 60.2329
593.267 48.1887
593.333 30.1548
593.393 19.4636
593.453 13.1294
593.513 9.29893
593.573 6.88173
593.692 4.16891
593.812 2.78742
593.932 1.99614
594.051 1.50399
594.290 0.950413
594.530 0.663499
594.769 0.496119
595.248 0.318685
595.726 0.231445
596.205 0.182130
597.162 0.131074
598.119 0.106306
599.077 0.0922735
600.991 0.0774778
604.820 0.0656906
608.649 0.0612926
616.307 0.0608467
623.965 0.0699359
631.623 0.0969636
635.451 0.126176
639.280 0.180852
641.195 0.227381
643.109 0.298685
645.024 0.415665
646.938 0.627047
647.896 0.803298
648.853 1.06947
649.810 1.49885
650.767 2.25789
651.246 2.87759
651.724 3.79448
652.203 5.23332
652.682 7.67747
653.160 12.3245
653.400 16.3926
653.639 22.8179
653.878 33.7698
653.998 42.3416
654.117 54.4340
654.237 72.1273
654.357 98.9504
654.476 141.040
654.596 207.374
654.748 331.609
654.900 414.305
655.052 331.461
655.204 207.222
655.327 139.430
655.450 97.0396
655.573 70.2922
655.696 52.8101
655.942 32.5480
656.187 21.9021
656.433 15.6871
656.679 11.7686
657.171 7.30826
657.662 4.96999
658.154 3.59698
658.646 2.72335
659.137 2.13387
660.121 1.41251
661.104 1.00504
662.087 0.752665
663.071 0.585621
665.037 0.385207
667.004 0.274125
668.971 0.206171
670.937 0.161570
674.871 0.108442
678.804 0.0791287
682.737 0.0611973
686.670 0.0493913
694.537 0.0352123
702.404 0.0272671
718.137 0.0190311
733.870 0.0150859
749.603 0.0131563
765.336 0.0131961
773.203 0.0160598
775.170 0.0185995
777.136 0.0250516
778.119 0.0333571
779.103 0.0553124
779.594 0.0837476
779.840 0.110581
780.086 0.156667
780.332 0.245997
780.455 0.325816
780.578 0.454734
780.701 0.681830
780.824 1.13321
780.885 1.54176
780.946 2.19627
781.008 3.30342
781.069 5.21086
781.135 8.33116
781.200 10.4077
781.265 8.32684
781.331 5.21190
781.400 3.13481
781.469 2.00711
781.537 1.37250
781.606 0.991641
781.675 0.747912
781.744 0.583984
781.882 0.385449
782.020 0.274893
782.157 0.207441
782.433 0.133004
782.708 0.0951898
782.984 0.0734923
783.535 0.0510396
784.637 0.0349569
785.738 0.0303098
787.942 0.0308541
790.146 0.0388587
792.350 0.0588652
793.452 0.0792968
794.554 0.116617
795.105 0.147949
795.656 0.195519
796.207 0.272790
796.758 0.410619
797.033 0.524152
797.309 0.693618
797.584 0.962679
797.859 1.42719
798.135 2.33371
798.273 3.14977
798.410 4.47580
798.548 6.83650
798.617 8.76493
798.686 11.5986
798.755 15.9799
798.824 23.1226
798.893 35.4945
798.961 57.4639
799.031 91.9655
799.100 114.924
799.169 91.9181
799.239 57.4720
799.288 40.5729
799.337 29.3681
799.386 21.9193
799.435 16.8466
799.533 10.7109
799.631 7.35432
799.729 5.34021
799.827 4.04720
800.023 2.54857
800.219 1.74913
800.415 1.27462
800.611 0.970219
800.807 0.763693
801.199 0.509418
801.591 0.364894
801.984 0.275000
802.376 0.215316
803.160 0.143480
803.944 0.103547
804.728 0.0790753
805.513 0.0629975
807.081 0.0438424
808.649 0.0332910
811.786 0.0226437
814.923 0.0176287
818.060 0.0148627
824.334 0.0120614
836.882 0.0100276
849.429 0.00938194
874.524 0.00935448
899.619 0.0103036
924.715 0.0124963
949.810 0.0174330
962.357 0.0225087
974.905 0.0325118
981.179 0.0421216
987.453 0.0599689
990.589 0.0759581
993.726 0.102851
996.863 0.155319
998.432 0.203843
1000.00 0.286624
1000.85 0.358958
1001.70 0.467610
1002.55 0.642400
1003.40 0.951190
1003.82 1.20479
1004.24 1.58128
1004.67 2.17894
1005.09 3.20688
1005.52 5.21604
1005.73 7.02099
1005.94 9.95844
1006.05 12.1681
1006.15 15.1937
1006.26 19.4793
1006.37 25.8023
1006.47 35.6005
1006.58 51.6825
1006.68 79.7086
1006.74 101.280
1006.79 130.051
1006.90 208.102
1007.00 260.172
1007.11 208.083
1007.21 130.046
1007.29 88.3039
1007.38 61.9211
1007.46 45.1358
1007.54 34.0961
1007.71 21.2306
1007.87 14.4410
1008.04 10.4829
1008.21 8.00443
1008.54 5.27962
1008.87 4.06931
1009.20 3.92864
1009.37 4.47631
1009.53 6.05614
1009.62 7.73536
1009.70 10.7510
1009.78 16.5728
1009.86 28.1847
1009.93 44.2854
1010.00 54.7961
1010.07 43.9234
1010.14 27.9581
1010.22 16.6105
1010.29 10.7663
1010.37 7.55040
1010.45 5.63924
1010.60 3.59921
1010.75 2.58866
1010.91 2.00534
1011.06 1.63666
1011.37 1.19926
1011.99 0.787774
1012.60 0.590423
1013.84 0.398276
1015.07 0.307790
1017.54 0.232515
1020.00 0.214857
1022.47 0.227472
1024.94 0.268306
1027.40 0.361998
1028.02 0.411130
1028.64 0.504663
1028.95 0.603267
1029.25 0.821184
1029.41 1.05922
1029.56 1.55211
1029.64 2.02398
1029.72 2.83381
1029.79 4.34348
1029.87 7.31560
1029.94 11.4770
1030.00 14.1985
1030.07 11.4195
1030.13 7.33446
1030.18 5.36632
1030.22 4.06817
1030.31 2.57235
1030.40 1.82937
1030.49 1.42064
1030.67 1.02140
1030.84 0.847224
1031.20 0.717714
1031.55 0.688214
1032.98 0.805828
1034.40 1.09576
1035.82 1.62792
1036.53 2.06485
1037.24 2.70993
1037.96 3.71885
1038.67 5.42269
1039.02 6.75311
1039.38 8.63083
1039.73 11.4147
1040.09 15.7512
1040.44 23.0473
1040.80 36.4443
1040.98 47.6565
1041.16 64.2707
1041.33 89.5471
1041.51 127.801
1041.76 204.706
1042.00 256.034
1042.25 204.597
1042.49 127.693
1042.76 74.7812
1043.03 46.9940
1043.30 31.6360
1043.57 22.5809
1043.84 16.8357
1044.11 13.0153
1044.65 8.41676
1045.19 5.87055
1045.73 4.32534
1046.82 2.62403
1047.90 1.76040
1048.98 1.26338
1050.06 0.951581
1051.14 0.743273
1053.30 0.490912
1055.46 0.349827
1057.63 0.263021
1059.79 0.205846
1064.11 0.137612
1068.44 0.100072
1072.76 0.0773049
1077.09 0.0625431
1085.73 0.0454585
1094.38 0.0367354
1111.68 0.0302287
1128.98 0.0316276
1146.28 0.0412310
1154.92 0.0517690
1163.57 0.0707281
1172.22 0.109636
1176.55 0.151303
1178.71 0.206061
1179.25 0.242995
1179.79 0.328243
1180.06 0.429170
1180.19 0.518564
1180.33 0.663284
1180.46 0.920724
1180.60 1.44350
1180.67 1.93304
1180.73 2.72914
1180.80 4.15018
1180.87 6.69225
1180.94 10.6233
1181.00 13.1915
1181.07 10.5626
1181.13 6.69735
1181.17 4.93635
1181.21 3.74345
1181.30 2.31897
1181.38 1.58423
1181.46 1.17234
1181.63 0.751712
1181.79 0.557232
1182.12 0.392206
1182.45 0.328961
1183.11 0.288042
1183.77 0.282948
1186.41 0.344418
1189.06 0.474207
1191.70 0.710530
1193.02 0.905202
1194.34 1.19468
1195.66 1.65242
1196.98 2.43674
1197.64 3.05870
1198.30 3.95103
1198.96 5.29644
1199.62 7.45630
1200.28 11.2342
1200.61 14.2585
1200.94 18.6283
1201.27 25.2132
1201.60 35.6158
1201.93 52.8207
1202.26 81.7785
1202.63 131.269
1203.00 164.406
1203.37 131.173
1203.74 81.6857
1204.03 55.4424
1204.32 38.9023
1204.61 28.3573
1204.90 21.4074
1205.48 13.2848
1206.06 8.97849
1206.64 6.44790
1207.22 4.84875
1208.38 3.02159
1209.54 2.05984
1210.70 1.49430
1211.86 1.13395
1213.02 0.890501
1215.34 0.592290
1217.66 0.423849
1219.99 0.319550
1222.31 0.250681
1226.95 0.168592
1231.59 0.124528
1236.23 0.104171
1237.39 0.106028
1238.55 0.120335
1239.13 0.143101
1239.71 0.206063
1240.00 0.286281
1240.14 0.359622
1240.29 0.480576
1240.43 0.699907
1240.51 0.883965
1240.58 1.15605
1240.65 1.59288
1240.72 2.32088
1240.80 3.66222
1240.87 6.16768
1240.94 9.83831
1241.00 12.2310
1241.07 9.77925
1241.13 6.16763
1241.20 3.73746
1241.27 2.42955
1241.34 1.67876
1241.41 1.23283
1241.54 0.750398
1241.68 0.515749
1241.82 0.383602
1241.95 0.303196
1242.22 0.213568
1242.77 0.140825
1243.32 0.112444
1244.41 0.0906859
1245.50 0.0839085
1246.59 0.0851034
1247.69 0.100396
1248.23 0.124304
1248.78 0.189404
1249.05 0.271453
1249.19 0.346278
1249.32 0.467919
1249.46 0.688014
1249.60 1.13515
1249.67 1.55913
1249.73 2.25344
1249.80 3.47891
1249.87 5.71622
1249.94 9.14139
1250.00 11.3801
1250.07 9.08622
1250.13 5.71624
1250.21 3.29339
1250.28 2.05409
1250.36 1.38691
1250.44 0.998074
1250.59 0.593820
1250.74 0.402403
1250.89 0.296451
1251.04 0.232629
1251.34 0.162187
1251.95 0.105496
1252.56 0.0833238
1253.77 0.0655491
1254.98 0.0581158
1259.83 0.0473202
1269.53 0.0400814
1288.92 0.0371564
1308.32 0.0423197
1327.71 0.0568088
1337.41 0.0700437
1347.11 0.0906185
1356.80 0.124388
1366.50 0.184764
1371.35 0.234401
1376.20 0.308256
1381.05 0.424942
1383.47 0.510422
1385.90 0.624961
1388.32 0.783365
1390.75 1.01082
1393.17 1.35376
1395.59 1.90429
1398.02 2.86583
1399.23 3.63612
1400.44 4.74904
1401.65 6.42582
1402.87 9.07382
1404.08 13.4499
1405.29 20.8016
1406.65 33.2624
1408.00 41.5302
1409.36 33.1813
1410.71 20.7233
1412.12 12.5037
1413.53 8.01445
1414.94 5.47439
1416.36 3.94236
1417.77 2.96044
1419.18 2.29921
1422.00 1.49628
1424.82 1.04850
1427.65 0.774825
1433.29 0.472402
1438.94 0.318476
1444.58 0.230212
1450.23 0.177090
1453.05 0.165955
1454.46 0.189704
1454.81 0.217778
1455.16 0.290491
1455.34 0.377172
1455.52 0.566584
1455.61 0.756865
1455.69 1.09923
1455.78 1.78180
1455.83 2.37785
1455.87 3.25607
1455.94 5.14065
1456.00 6.37092
1456.07 5.10973
1456.13 3.25495
1456.18 2.29601
1456.23 1.68402
1456.33 1.00702
1456.42 0.682823
1456.52 0.507562
1456.71 0.336546
1456.91 0.259283
1457.30 0.193030
1457.68 0.165514
1459.24 0.131086
1462.34 0.111327
1468.55 0.0909664
1480.96 0.0716623
1487.17 0.0724442
1490.27 0.0781990
1493.38 0.0920120
1496.48 0.125356
1498.03 0.159882
1499.58 0.223477
1500.36 0.277064
1501.14 0.358549
1501.91 0.490928
1502.69 0.726862
1503.08 0.920857
1503.46 1.20987
1503.85 1.66745
1504.24 2.45452
1504.63 3.97998
1504.82 5.34283
1505.02 7.54202
1505.21 11.4097
1505.40 19.0742
1505.50 25.9809
1505.60 37.0215
1505.70 55.5631
1505.79 86.8942
1505.90 139.190
1506.00 173.571
1506.11 138.644
1506.21 86.8773
1506.29 59.6941
1506.37 42.2386
1506.45 30.9817
1506.53 23.4987
1506.69 14.6783
1506.85 9.98639
1507.01 7.19723
1507.17 5.43444
1507.49 3.40420
1507.81 2.32947
1508.13 1.69754
1508.44 1.29401
1508.76 1.02087
1509.40 0.685244
1510.04 0.495335
1510.68 0.377202
1511.32 0.298941
1512.59 0.204623
1513.87 0.152048
1516.43 0.0982536
1518.98 0.0723860
1521.53 0.0577618
1526.64 0.0422585
1536.86 0.0293717
1547.07 0.0235839
1567.51 0.0180847
1587.94 0.0159943
1608.37 0.0166055
1618.59 0.0185729
1628.80 0.0229755
1639.02 0.0332801
1644.13 0.0438632
1649.23 0.0633731
1651.79 0.0798839
1654.34 0.105141
1656.90 0.146563
1659.45 0.221516
1660.73 0.284144
1662.00 0.378982
1663.28 0.532595
1664.56 0.805855
1665.20 1.03059
1665.83 1.36485
1666.47 1.89512
1667.11 2.80662
1667.43 3.53376
1667.75 4.57974
1668.07 6.16538
1668.39 8.73017
1668.55 10.6545
1668.71 13.2767
1668.87 16.9677
1669.03 22.3266
1669.19 30.5745
1669.35 43.7814
1669.51 66.3615
1669.67 105.369
1669.83 168.902
1670.00 210.957
1670.17 168.464
1670.34 105.336
1670.44 77.7317
1670.54 58.5199
1670.74 35.4930
1670.95 23.3778
1671.15 16.4250
1671.36 12.1235
1671.56 9.29684
1671.97 5.95039
1672.38 4.12762
1672.79 3.03644
1673.60 1.85820
1674.42 1.29126
1675.23 1.04148
1675.64 1.04406
1676.05 1.25466
1676.25 1.57870
1676.46 2.36049
1676.56 3.19131
1676.66 4.76001
1676.71 6.09552
1676.76 8.10700
1676.82 11.2277
1676.87 16.0893
1676.93 25.4760
1677.00 31.7503
1677.07 25.4586
1677.13 16.0537
1677.19 10.5889
1677.25 7.35583
1677.31 5.37071
1677.37 4.09820
1677.48 2.64860
1677.60 1.89544
1677.72 1.45645
1677.83 1.17782
1678.06 0.854504
1678.53 0.567138
1678.99 0.437410
1679.92 0.310703
1680.85 0.243879
1682.71 0.169155
1684.56 0.126913
1688.28 0.0809203
1691.99 0.0571447
1695.71 0.0431306
1699.42 0.0341509
1706.85 0.0236816
1714.28 0.0180157
1721.71 0.0145936
1736.56 0.0108254
1766.28 0.00782144
1795.99 0.00683596
1825.71 0.00675256
1855.42 0.00754559
1870.28 0.00853079
1885.14 0.0105531
1892.56 0.0126665
1899.99 0.0175085
1903.71 0.0234748
1907.42 0.0392771
1909.28 0.0604086
1910.21 0.0811213
1911.14 0.118281
1912.06 0.195817
1912.53 0.270839
1912.99 0.403231
1913.23 0.511705
1913.46 0.671491
1913.69 0.921915
1913.92 1.34653
1914.15 2.15158
1914.27 2.85421
1914.39 3.96045
1914.50 5.83730
1914.62 9.35337
1914.68 12.3402
1914.73 16.8393
1914.79 23.8279
1914.85 34.7344
1914.93 55.7212
1915.00 69.4699
1915.08 55.4276
1915.15 34.7361
1915.20 25.3871
1915.25 18.9054
1915.34 11.3420
1915.44 7.42028
1915.53 5.19094
1915.63 3.80906
1915.72 2.91623
1915.91 1.86284
1916.10 1.28923
1916.29 0.946954
1916.67 0.574619
1917.06 0.387174
1917.44 0.280374
1918.20 0.169234
1918.96 0.115718
1919.72 0.0860617
1921.24 0.0561727
1922.76 0.0423610
1924.29 0.0350668
1927.33 0.0284895
1933.42 0.0262763
1939.51 0.0293492
1945.60 0.0361916
1951.69 0.0485923
1957.78 0.0741181
1959.30 0.0865346
1960.82 0.108562
1961.59 0.130869
1962.35 0.181888
1962.73 0.242991
1963.11 0.390640
1963.30 0.563796
1963.49 0.943853
1963.58 1.33082
1963.68 2.04084
1963.73 2.63914
1963.77 3.50420
1963.82 4.84355
1963.87 6.83283
1963.93 10.8782
1964.00 13.5802
1964.07 10.8799
1964.13 6.83607
1964.21 3.99850
1964.28 2.52929
1964.36 1.73139
1964.43 1.26381
1964.58 0.775889
1964.73 0.543675
1965.03 0.340656
1965.33 0.258969
1965.93 0.199057
1966.53 0.182207
1968.93 0.203366
1971.33 0.275701
1973.73 0.411503
1974.93 0.523950
1976.13 0.691319
1977.32 0.955767
1978.52 1.40894
1979.12 1.76776
1979.72 2.28293
1980.32 3.05906
1980.92 4.30078
1981.52 6.46630
1981.82 8.19733
1982.12 10.6820
1982.42 14.4221
1982.72 20.2983
1983.02 29.9391
1983.32 45.9105
1983.66 73.2234
1984.00 91.3257
1984.34 73.1934
1984.68 45.8810
1984.92 32.4677
1985.16 23.5570
1985.40 17.5923
1985.64 13.5395
1986.12 8.62002
1986.60 5.92527
1987.07 4.30405
1987.55 3.26159
1988.51 2.05397
1989.47 1.40913
1990.43 1.02650
1991.38 0.780912
1992.34 0.614388
1994.26 0.409352
1996.17 0.292886
1998.09 0.220514
2000.00 0.172528
2002.56 0.130195
2005.11 0.102359
2010.22 0.0693295
2015.33 0.0514727
2020.43 0.0410998
2025.54 0.0351058
2030.65 0.0326558
2033.21 0.0334877
2035.76 0.0385274
2037.04 0.0463084
2038.31 0.0682829
2038.95 0.0977403
2039.59 0.175432
2039.91 0.273961
2040.23 0.513828
2040.39 0.789703
2040.55 1.37213
2040.63 1.94225
2040.71 2.93483
2040.79 4.81741
2040.87 8.53309
2040.93 13.6165
2041.00 16.9971
2041.07 13.6169
2041.13 8.53362
2041.17 6.33730
2041.21 4.78545
2041.29 2.93525
2041.37 1.95181
2041.45 1.38350
2041.61 0.794763
2041.77 0.519004
2042.08 0.276858
2042.40 0.177512
2043.03 0.0988333
2043.67 0.0690538
2044.94 0.0468613
2046.20 0.0390815
2048.74 0.0342831
2051.27 0.0339675
2056.35 0.0387610
2061.42 0.0510400
2063.95 0.0621189
2066.49 0.0794251
2069.02 0.108200
2071.56 0.160722
2072.83 0.204851
2074.09 0.271917
2075.36 0.380965
2076.63 0.575646
2077.26 0.736354
2077.90 0.976647
2078.53 1.35907
2079.16 2.02051
2079.80 3.31944
2080.11 4.49502
2080.43 6.41870
2080.59 7.87829
2080.75 9.87303
2080.91 12.7324
2081.07 16.9539
2081.22 23.6000
2081.38 34.5777
2081.46 42.8515
2081.54 54.0119
2081.62 69.1818
2081.70 89.6272
2081.85 143.330
2082.00 179.097
2082.15 143.310
2082.30 89.6063
2082.46 54.6566
2082.61 35.3907
2082.76 24.2902
2082.92 17.5855
2083.07 13.2367
2083.22 10.3124
2083.53 6.73171
2083.84 4.72648
2084.14 3.49645
2084.76 2.13417
2085.37 1.43595
2085.99 1.03229
2086.60 0.778286
2087.21 0.608446
2088.44 0.401936
2089.67 0.286272
2090.89 0.214997
2092.12 0.167994
2094.58 0.111796
2097.03 0.0807700
2099.49 0.0618510
2101.94 0.0494760
2106.85 0.0348105
2111.76 0.0268236
2121.58 0.0190642
2131.40 0.0160898
2141.22 0.0162738
2146.13 0.0186022
2151.04 0.0264120
2153.49 0.0376051
2154.72 0.0488091
2155.95 0.0691727
2157.17 0.112232
2157.79 0.154450
2158.40 0.229749
2159.01 0.385005
2159.32 0.533138
2159.63 0.788910
2159.93 1.29208
2160.09 1.74958
2160.24 2.49372
2160.40 3.84034
2160.47 4.95379
2160.55 6.58589
2160.63 9.17217
2160.70 13.4126
2160.78 21.0332
2160.85 34.8402
2160.93 55.7751
2161.00 69.7473
2161.07 55.7760
2161.15 34.8418
2161.20 24.7004
2161.25 18.0391
2161.30 13.4869
2161.35 10.4298
2161.45 6.66691
2161.55 4.59280
2161.65 3.34416
2161.75 2.53930
2161.95 1.60393
2162.16 1.10390
2162.36 0.806434
2162.76 0.485754
2163.17 0.325941
2163.57 0.235035
2164.38 0.140896
2165.19 0.0956775
2165.99 0.0705432
2167.61 0.0450488
2170.84 0.0264735
2174.07 0.0199522
2180.54 0.0155966
2187.00 0.0147820
2193.46 0.0158376
2199.93 0.0203465
2203.16 0.0268191
2206.39 0.0449895
2208.01 0.0698101
2208.82 0.0942519
2209.62 0.138208
2210.43 0.229713
2210.84 0.318091
2211.24 0.473500
2211.64 0.785483
2211.85 1.07502
2212.05 1.56195
2212.25 2.47346
2212.35 3.25833
2212.45 4.47674
2212.55 6.50236
2212.65 10.1814
2212.70 13.2448
2212.75 17.6310
2212.80 24.1578
2212.85 33.8593
2212.93 54.2228
2213.00 67.8215
2213.07 54.2237
2213.15 33.8608
2213.20 23.3819
2213.26 16.7118
2213.31 12.3548
2213.36 9.42783
2213.47 5.91635
2213.58 4.04092
2213.69 2.91749
2213.80 2.20734
2214.01 1.38817
2214.23 0.951777
2214.45 0.694786
2214.66 0.529662
2214.88 0.418313
2215.31 0.280939
2215.75 0.203258
2216.61 0.123036
2217.48 0.0845928
2218.35 0.0633210
2220.08 0.0418574
2223.54 0.0265091
2227.01 0.0215263
2233.94 0.0207696
2237.40 0.0298996
2238.27 0.0393002
2239.14 0.0646785
2239.57 0.0976332
2240.00 0.181411
2240.22 0.282730
2240.44 0.512740
2240.55 0.758220
2240.65 1.22451
2240.71 1.62919
2240.76 2.25175
2240.82 3.24530
2240.87 4.84507
2240.94 7.75016
2241.00 9.64166
2241.07 7.70354
2241.13 4.84536
2241.17 3.59149
2241.21 2.70768
2241.29 1.64790
2241.37 1.09040
2241.45 0.773670
2241.61 0.445495
2241.77 0.291020
2242.09 0.156104
2242.40 0.100794
2243.04 0.0569720
2243.68 0.0404222
2246.22 0.0236636
2251.31 0.0200587
2261.50 0.0224965
2266.59 0.0260119
2271.68 0.0337346
2274.22 0.0426013
2276.77 0.0644562
2278.04 0.0922095
2278.68 0.118710
2279.31 0.165318
2279.95 0.260554
2280.27 0.351006
2280.59 0.507865
2280.91 0.816754
2281.06 1.09790
2281.22 1.56114
2281.38 2.40207
2281.46 3.10886
2281.54 4.15796
2281.62 5.84736
2281.70 8.68469
2281.78 13.9579
2281.86 23.9614
2281.93 38.4715
2282.00 47.9837
2282.07 38.2546
2282.14 23.9636
2282.23 13.5211
2282.31 8.32138
2282.39 5.51569
2282.48 3.91162
2282.56 2.90104
2282.64 2.24220
2282.81 1.45667
2282.98 1.02450
2283.14 0.764156
2283.48 0.481395
2283.81 0.339380
2284.14 0.259309
2284.81 0.178720
2285.48 0.143875
2286.14 0.129443
2287.47 0.133529
2288.81 0.180069
2289.48 0.232592
2290.14 0.328978
2290.81 0.528660
2291.14 0.717591
2291.47 1.04133
2291.81 1.66664
2291.98 2.22156
2292.14 3.10352
2292.31 4.64346
2292.47 7.61203
2292.56 10.2612
2292.64 14.3548
2292.72 21.0112
2292.81 31.9772
2292.90 51.2625
2293.00 63.9470
2293.10 51.0490
2293.19 31.9769
2293.29 19.3627
2293.39 12.4960
2293.49 8.58157
2293.59 6.20753
2293.69 4.68054
2293.79 3.64813
2293.99 2.39028
2294.18 1.68652
2294.38 1.25506
2294.78 0.776845
2295.17 0.532301
2295.57 0.390897
2296.36 0.242299
2297.15 0.169974
2297.95 0.129475
2299.53 0.0882511
2301.12 0.0689496
2302.70 0.0586152
2305.87 0.0490488
2312.20 0.0449764
2318.54 0.0474436
2331.21 0.0614812
2343.89 0.0897382
2350.22 0.113386
2356.56 0.148738
2362.90 0.204759
2369.23 0.301062
2372.40 0.377507
2375.57 0.487536
2378.74 0.653933
2381.91 0.922189
2383.49 1.12223
2385.08 1.39361
2386.66 1.77370
2388.24 2.32625
2389.83 3.16557
2391.41 4.50580
2393.00 6.75402
2394.58 10.6013
2396.29 16.9515
2398.00 21.1695
2399.71 16.9209
2401.42 10.5718
2403.00 6.73531
2404.58 4.49419
2406.16 3.15752
2407.75 2.32013
2410.91 1.38927
2414.07 0.919130
2417.23 0.651578
2420.40 0.485836
2426.72 0.300489
2433.04 0.205182
2439.37 0.150211
2445.69 0.116023
2452.02 0.0937844
2464.67 0.0699293
2477.32 0.0667843
2483.64 0.0785741
2486.80 0.0931906
2489.97 0.121585
2493.13 0.183605
2494.71 0.245075
2496.29 0.355333
2497.08 0.446474
2497.87 0.582587
2498.66 0.799370
2499.45 1.17414
2500.24 1.90855
2500.64 2.57070
2501.03 3.65074
2501.43 5.58750
2501.63 7.17907
2501.82 9.52097
2502.02 13.1803
2502.22 19.1801
2502.42 29.7490
2502.61 48.7598
2502.81 77.9326
2503.00 97.3497
2503.19 77.7588
2503.39 48.6211
2503.54 32.9117
2503.70 23.0145
2503.85 16.7338
2504.00 12.6103
2504.31 7.81052
2504.62 5.28220
2504.93 3.79642
2505.23 2.85994
2505.85 1.78929
2506.46 1.22678
2507.08 0.895871
2508.31 0.542709
2509.54 0.368202
2510.77 0.269594
2513.23 0.167981
2515.69 0.119427
2518.15 0.0926380
2523.07 0.0660198
2527.99 0.0544655
2532.91 0.0495361
2542.75 0.0507141
2552.60 0.0670699
2557.52 0.0861603
2562.44 0.122060
2564.90 0.152410
2567.36 0.198425
2569.82 0.272762
2572.28 0.403823
2574.74 0.667535
2575.97 0.912414
2577.20 1.32446
2577.82 1.64457
2578.43 2.09622
2579.05 2.76111
2579.66 3.79383
2580.28 5.51204
2580.58 6.82692
2580.89 8.63644
2581.20 11.2158
2581.51 14.9754
2581.81 20.6194
2582.12 29.0269
2582.56 46.3179
2583.00 57.7890
2583.44 46.2986
2583.88 29.0079
2584.32 17.9194
2584.76 11.6896
2585.19 8.07648
2585.63 5.86779
2586.07 4.43356
2586.51 3.46109
2587.38 2.26953
2588.25 1.59862
2589.13 1.18603
2590.88 0.727649
2592.63 0.492494
2594.38 0.356379
2596.13 0.270561
2597.88 0.213075
2601.38 0.143209
2604.87 0.104028
2608.37 0.0799262
2611.87 0.0641235
2618.87 0.0457430
2625.87 0.0371806
2629.37 0.0360040
2632.87 0.0389070
2634.62 0.0447016
2636.37 0.0615012
2637.24 0.0840762
2638.11 0.144207
2638.55 0.221873
2638.99 0.417676
2639.21 0.652969
2639.43 1.18298
2639.54 1.74362
2639.65 2.79738
2639.70 3.71204
2639.75 5.07845
2639.81 7.26959
2639.86 10.6759
2639.93 17.0873
2640.00 21.2696
2640.07 16.9889
2640.14 10.6768
2640.19 7.47391
2640.24 5.37192
2640.29 3.99064
2640.34 3.07421
2640.44 1.95155
2640.54 1.34792
2640.73 0.753900
2640.93 0.487390
2641.33 0.261396
2641.73 0.171650
2642.52 0.103345
2643.32 0.0800757
2644.90 0.0700903
2646.49 0.0812361
2648.08 0.117289
2648.88 0.155321
2649.67 0.224816
2650.47 0.370621
2650.86 0.511345
2651.26 0.758273
2651.66 1.25171
2651.86 1.70861
2652.05 2.46845
2652.25 3.88506
2652.35 5.08730
2652.45 6.93289
2652.55 9.99303
2652.65 15.3876
2652.75 25.9441
2652.80 35.1096
2652.85 48.1490
2652.92 77.2341
2653.00 96.2912
2653.08 76.8319
2653.15 48.1504
2653.23 29.7273
2653.31 19.3724
2653.38 13.3870
2653.46 9.72168
2653.53 7.34791
2653.61 5.73494
2653.76 3.75990
2653.91 2.64955
2654.07 1.96667
2654.37 1.20940
2654.67 0.819580
2654.98 0.594544
2655.28 0.452304
2655.58 0.357354
2656.19 0.241876
2656.80 0.177638
2658.01 0.113703
2659.23 0.0879386
2660.44 0.0872143
2661.05 0.103773
2661.65 0.158374
2661.96 0.231185
2662.26 0.410019
2662.41 0.614834
2662.57 1.04630
2662.64 1.46134
2662.72 2.17269
2662.79 3.49048
2662.87 6.00686
2662.93 9.58268
2663.00 11.9642
2663.07 9.58226
2663.13 6.00587
2663.19 3.97963
2663.24 2.75746
2663.30 1.99505
2663.35 1.50091
2663.46 0.932896
2663.57 0.636394
2663.79 0.355488
2664.01 0.231992
2664.45 0.128764
2664.89 0.0874083
2665.77 0.0542461
2666.65 0.0409011
2670.18 0.0242130
2673.70 0.0190125
2677.22 0.0162875
2691.31 0.0117154
2719.48 0.00922922
2733.57 0.00924889
2747.66 0.0107751
2754.70 0.0133338
2761.74 0.0208593
2765.27 0.0313690
2767.03 0.0418473
2768.79 0.0609194
2770.55 0.101348
2771.43 0.141186
2772.31 0.212691
2773.19 0.361454
2773.63 0.504656
2774.07 0.755711
2774.51 1.25724
2774.73 1.72021
2774.95 2.49428
2775.17 3.93040
2775.28 5.15551
2775.39 7.03925
2775.50 10.1291
2775.61 15.6308
2775.72 26.4368
2775.78 35.7419
2775.83 49.3015
2775.92 79.1964
2776.00 98.8673
2776.09 78.8205
2776.17 49.3025
2776.24 33.0257
2776.31 23.0177
2776.37 16.6951
2776.44 12.5572
2776.58 7.72993
2776.72 5.21147
2776.85 3.73036
2776.99 2.80292
2777.26 1.74240
2777.53 1.18646
2777.81 0.859883
2778.08 0.652095
2778.35 0.512264
2778.90 0.340432
2779.44 0.243490
2780.53 0.143549
2781.63 0.0957594
2782.72 0.0693112
2784.90 0.0425531
2789.26 0.0230842
2793.63 0.0162031
2802.36 0.0113490
2811.09 0.00979633
2828.55 0.00918241
2846.01 0.00980727
2863.47 0.0113616
2880.93 0.0144802
2889.66 0.0174697
2898.38 0.0236779
2902.75 0.0308024
2907.11 0.0489172
2909.30 0.0727286
2910.39 0.0959382
2911.48 0.137584
2912.57 0.224512
2913.12 0.309063
2913.66 0.458672
2913.93 0.581422
2914.21 0.763797
2914.48 1.05160
2914.75 1.54206
2915.03 2.48852
2915.16 3.33163
2915.30 4.67155
2915.44 7.01895
2915.57 11.5520
2915.64 15.5494
2915.71 21.7994
2915.78 31.9913
2915.84 48.8393
2915.92 78.3354
2916.00 97.6703
2916.08 77.9377
2916.16 48.8407
2916.23 31.9931
2916.29 21.9172
2916.36 15.6969
2916.43 11.6974
2916.56 7.13710
2916.69 4.77584
2916.83 3.40309
2916.96 2.55049
2917.23 1.58547
2917.50 1.08089
2917.77 0.786892
2918.04 0.600262
2918.30 0.474519
2918.84 0.320779
2919.38 0.234359
2920.45 0.145725
2921.52 0.103770
2922.60 0.0808433
2924.74 0.0583772
2929.03 0.0441462
2933.33 0.0417491
2941.91 0.0476880
2950.49 0.0629390
2959.08 0.0922629
2963.37 0.116953
2967.66 0.154398
2971.95 0.215367
2976.25 0.326196
2978.39 0.421591
2980.54 0.578333
2981.61 0.707954
2982.68 0.934053
2983.22 1.15043
2983.76 1.60292
2984.03 2.09679
2984.29 3.15786
2984.43 4.24156
2984.56 6.26633
2984.63 7.99131
2984.70 10.6036
2984.76 14.6952
2984.83 21.1488
2984.92 33.2222
2985.00 41.2791
2985.09 33.2608
2985.17 21.2266
2985.23 15.5078
2985.29 11.7107
2985.40 7.36971
2985.51 5.20298
2985.63 4.01033
2985.86 2.85357
2986.08 2.36363
2986.54 2.04418
2987.00 2.04216
2987.91 2.40109
2988.82 3.11583
2989.73 4.32756
2990.65 6.44818
2991.56 10.4503
2992.01 13.7499
2992.47 18.3902
2993.24 29.2727
2994.00 36.5045
2994.77 29.2902
2995.53 18.4452
2996.25 11.8172
2996.96 7.98479
2997.68 5.72983
2998.40 4.34699
2999.11 3.46821
2999.83 2.90345
3001.26 2.35030
3001.98 2.28637
3002.69 2.36030
3003.41 2.60532
3003.77 2.81497
3004.13 3.10463
3004.48 3.50239
3004.84 4.04685
3005.20 4.80225
3005.56 5.86924
3005.92 7.41162
3006.27 9.69905
3006.63 13.1641
3006.99 18.4024
3007.50 29.0990
3008.00 36.2176
3008.25 34.0867
3008.51 29.0278
3009.01 18.2714
3009.35 13.2216
3009.69 9.79051
3010.37 5.85548
3011.04 3.87002
3011.72 2.75887
3012.40 2.08133
3013.07 1.64216
3014.43 1.13481
3015.78 0.890686
3017.14 0.845174
3017.82 0.958537
3018.15 1.10143
3018.49 1.37237
3018.83 1.93517
3019.00 2.45590
3019.17 3.31917
3019.34 4.90095
3019.42 6.22208
3019.51 8.17831
3019.59 11.3094
3019.68 16.5283
3019.76 26.0960
3019.85 43.9371
3019.92 70.0671
3020.00 87.4876
3020.08 70.0596
3020.15 43.9225
3020.22 28.4940
3020.29 19.3201
3020.36 13.7727
3020.43 10.3023
3020.57 6.33738
3020.70 4.32507
3020.84 3.16095
3020.98 2.43908
3021.25 1.61889
3021.53 1.18899
3021.80 0.934439
3022.35 0.657376
3022.90 0.513609
3023.45 0.426941
3024.55 0.327238
3026.75 0.231944
3028.95 0.182261
3033.35 0.127172
3037.74 0.0961850
3046.54 0.0624079
3055.33 0.0448501
3064.13 0.0344996
3072.92 0.0279460
3090.51 0.0207545
3108.10 0.0178286
3125.69 0.0177905
3143.28 0.0215737
3152.07 0.0281203
3156.47 0.0424729
3157.57 0.0550008
3158.67 0.0878196
3159.22 0.130399
3159.76 0.239980
3160.04 0.375430
3160.31 0.695994
3160.45 1.05177
3160.59 1.76724
3160.66 2.43222
3160.73 3.50419
3160.80 5.39195
3160.86 8.71072
3160.93 13.9515
3161.00 17.3746
3161.07 13.8709
3161.14 8.71128
3161.18 6.22439
3161.23 4.57943
3161.32 2.69354
3161.42 1.73815
3161.51 1.21318
3161.69 0.686305
3161.88 0.445017
3162.25 0.238643
3162.62 0.155754
3163.36 0.0910602
3164.10 0.0672746
3165.57 0.0505908
3167.05 0.0458300
3172.97 0.0494225
3178.88 0.0649076
3184.80 0.0944490
3187.76 0.119048
3190.72 0.155843
3193.67 0.214266
3196.63 0.314980
3199.59 0.510897
3201.07 0.686539
3202.55 0.970777
3204.02 1.47367
3204.76 1.88226
3205.50 2.47923
3206.24 3.39504
3206.98 4.87228
3207.72 7.38852
3208.46 11.7772
3209.23 18.8295
3210.00 23.5223
3210.77 18.8183
3211.54 11.7664
3212.08 8.35064
3212.61 6.07077
3213.15 4.54657
3213.69 3.50386
3214.76 2.23677
3215.83 1.54034
3216.90 1.12125
3217.98 0.851641
3220.12 0.538534
3222.27 0.371452
3224.41 0.272289
3228.70 0.166107
3232.99 0.114797
3237.28 0.0901500
3239.43 0.0874588
3241.57 0.100610
3242.64 0.126200
3243.72 0.202095
3244.25 0.304606
3244.52 0.402416
3244.79 0.571473
3245.06 0.900736
3245.19 1.19610
3245.32 1.67455
3245.46 2.52058
3245.59 4.21162
3245.66 5.74973
3245.73 8.23308
3245.79 12.4628
3245.86 19.8431
3245.93 31.7660
3246.00 39.7339
3246.07 31.7661
3246.14 19.8432
3246.18 14.5547
3246.23 10.9455
3246.31 6.63740
3246.40 4.36011
3246.49 3.07488
3246.57 2.27281
3246.66 1.75300
3246.83 1.13692
3247.00 0.799724
3247.18 0.597004
3247.52 0.376623
3247.87 0.265138
3248.21 0.201278
3248.90 0.134101
3250.29 0.0821935
3251.67 0.0620083
3254.43 0.0450986
3257.20 0.0373591
3262.72 0.0294132
3268.25 0.0251467
3279.30 0.0211890
3290.36 0.0211749
3301.41 0.0261689
3306.94 0.0324940
3312.47 0.0448122
3315.23 0.0554538
3317.99 0.0718597
3320.76 0.0989041
3323.52 0.147915
3324.90 0.188867
3326.28 0.250800
3327.67 0.350860
3329.05 0.527884
3329.74 0.672680
3330.43 0.887257
3331.12 1.22462
3331.81 1.79918
3332.50 2.89592
3332.85 3.86172
3333.19 5.38930
3333.37 6.51302
3333.54 8.01727
3333.71 10.0874
3333.88 13.0089
3334.06 17.3354
3334.23 23.9216
3334.40 34.4335
3334.57 51.1526
3334.79 81.8782
3335.00 102.374
3335.21 81.8673
3335.43 51.1416
3335.60 34.0451
3335.78 23.4915
3335.96 16.9092
3336.13 12.6645
3336.49 7.76631
3336.84 5.20980
3337.19 3.72459
3337.55 2.79060
3338.25 1.73054
3338.96 1.17639
3339.66 0.851447
3340.37 0.644954
3341.08 0.505698
3342.49 0.335352
3343.90 0.239257
3345.31 0.179754
3346.72 0.140374
3349.55 0.0931207
3352.37 0.0669423
3355.20 0.0509296
3358.02 0.0404346
3363.67 0.0279773
3369.32 0.0211913
3380.62 0.0147023
3391.92 0.0126469
3397.56 0.0129326
3403.21 0.0146105
3408.86 0.0193553
3414.51 0.0340868
3417.34 0.0548879
3418.75 0.0756118
3420.16 0.113204
3421.57 0.192318
3422.28 0.269548
3422.98 0.406924
3423.34 0.519749
3423.69 0.687705
3424.04 0.953401
3424.40 1.40995
3424.75 2.29354
3424.93 3.08456
3425.10 4.35184
3425.28 6.58907
3425.46 10.9823
3425.54 14.9765
3425.63 21.2764
3425.72 31.7967
3425.81 49.6982
3425.90 79.4899
3426.00 99.3397
3426.10 79.4886
3426.19 49.6983
3426.25 36.5140
3426.31 27.3114
3426.43 16.4054
3426.55 10.7368
3426.67 7.51020
3426.79 5.52522
3426.91 4.22595
3427.15 2.69786
3427.39 1.86488
3427.63 1.36654
3428.11 0.823035
3428.59 0.549911
3429.07 0.393730
3430.03 0.231223
3430.98 0.152749
3431.94 0.109048
3433.86 0.0645552
3435.78 0.0434787
3437.69 0.0318554
3441.52 0.0201006
3449.19 0.0114623
3456.85 0.00831646
3464.52 0.00681264
3472.19 0.00599126
3487.52 0.00528922
3502.85 0.00538666
3518.18 0.00672509
3525.84 0.00876667
3533.51 0.0144409
3537.34 0.0221089
3541.17 0.0432667
3543.09 0.0720114
3544.05 0.100267
3545.01 0.151078
3545.96 0.256969
3546.44 0.359429
3546.92 0.540037
3547.40 0.904089
3547.64 1.24440
3547.88 1.81725
3548.12 2.90307
3548.24 3.84731
3548.36 5.31262
3548.48 7.79911
3548.60 12.4115
3548.66 16.2895
3548.72 22.0721
3548.78 30.9372
3548.84 44.2826
3548.92 70.9410
3549.00 88.7517
3549.08 70.9411
3549.16 44.2835
3549.22 31.6785
3549.27 23.2967
3549.38 13.6667
3549.49 8.81475
3549.60 6.10747
3549.70 4.46406
3549.81 3.39846
3550.03 2.15292
3550.24 1.48340
3550.46 1.08368
3550.89 0.651389
3551.32 0.435001
3551.76 0.312100
3552.62 0.184751
3553.49 0.123626
3554.35 0.0898638
3556.08 0.0561260
3559.53 0.0336188
3562.99 0.0298528
3566.45 0.0369200
3569.91 0.0662190
3571.63 0.108557
3572.50 0.150562
3573.36 0.226135
3574.23 0.383125
3574.66 0.533771
3575.09 0.796791
3575.52 1.31863
3575.74 1.79670
3575.96 2.58935
3576.17 4.04118
3576.28 5.26315
3576.39 7.11641
3576.50 10.0981
3576.60 15.2586
3576.71 24.9648
3576.82 44.2586
3576.91 70.8733
3577.00 88.3179
3577.09 70.5611
3577.18 44.2588
3577.24 32.8040
3577.29 24.8422
3577.40 15.1332
3577.51 9.99366
3577.62 7.05363
3577.73 5.20937
3577.83 3.99565
3578.05 2.56109
3578.27 1.77476
3578.49 1.30296
3578.92 0.787507
3579.36 0.526979
3579.79 0.377765
3580.66 0.222398
3581.53 0.147205
3582.40 0.105275
3584.14 0.0625220
3587.61 0.0310651
3591.09 0.0198185
3598.05 0.0118879
3605.00 0.00972895
3611.96 0.0102341
3618.91 0.0150037
3622.39 0.0224371
3625.87 0.0437793
3627.61 0.0730991
3628.47 0.101939
3629.34 0.153673
3630.21 0.261002
3630.65 0.364127
3631.08 0.543816
3631.52 0.901492
3631.73 1.22881
3631.95 1.77183
3632.17 2.77373
3632.28 3.62028
3632.39 4.89437
3632.50 6.96867
3632.60 10.5369
3632.71 17.3474
3632.77 22.9482
3632.82 30.8479
3632.91 49.2938
3633.00 61.5655
3633.09 49.2934
3633.18 30.8481
3633.26 19.7994
3633.34 13.3403
3633.43 9.40040
3633.51 6.94502
3633.67 4.17623
3633.83 2.76792
3634.00 1.96309
3634.16 1.46263
3634.48 0.901791
3634.81 0.610365
3635.13 0.441027
3635.79 0.261461
3636.44 0.173377
3637.09 0.123897
3638.39 0.0731318
3641.00 0.0355949
3643.60 0.0221470
3648.81 0.0125866
3654.02 0.00968509
3664.44 0.0124758
3667.05 0.0176528
3669.65 0.0327440
3670.95 0.0535434
3672.26 0.110671
3672.91 0.186505
3673.56 0.385778
3673.88 0.636775
3674.05 0.866259
3674.21 1.24287
3674.37 1.93305
3674.45 2.51573
3674.53 3.38471
3674.62 4.79192
3674.70 7.17525
3674.78 11.5783
3674.86 20.1172
3674.93 32.2311
3675.00 40.1372
3675.07 32.0498
3675.14 20.1178
3675.20 13.5504
3675.25 9.49227
3675.31 6.91066
3675.37 5.21226
3675.48 3.23095
3675.59 2.18244
3675.70 1.56357
3675.82 1.17616
3676.04 0.733606
3676.26 0.500049
3676.49 0.363302
3676.94 0.216992
3677.84 0.103928
3678.73 0.0618874
3680.53 0.0306087
3682.32 0.0193440
3685.91 0.0112434
3689.50 0.00864161
3696.69 0.00943841
3700.28 0.0195029
3702.07 0.0564901
3702.52 0.0913936
3702.97 0.180194
3703.20 0.287872
3703.42 0.533532
3703.53 0.794059
3703.64 1.29542
3703.76 2.41165
3703.81 3.50355
3703.87 5.28000
3703.93 8.45277
3704.00 10.5194
3704.07 8.40261
3704.13 5.28036
3704.19 3.38320
3704.25 2.28096
3704.38 1.18889
3704.50 0.717084
3704.62 0.477446
3704.86 0.255681
3705.10 0.160702
3705.58 0.0829389
3706.07 0.0532593
3708.00 0.0277980
3709.93 0.0543896
3710.42 0.0852040
3710.90 0.165587
3711.14 0.264470
3711.38 0.493411
3711.50 0.741423
3711.63 1.22966
3711.75 2.35949
3711.81 3.49940
3711.87 5.41965
3711.93 8.68464
3712.00 10.8686
3712.07 8.68467
3712.13 5.41962
3712.20 3.26546
3712.27 2.10420
3712.41 1.04393
3712.55 0.611238
3712.69 0.400777
3712.97 0.210305
3713.24 0.130173
3713.80 0.0654791
3714.35 0.0405209
3716.56 0.0141888
3720.99 0.00664960
3729.85 0.00437621
3747.56 0.00369271
3782.99 0.00387396
3800.70 0.00433478
3818.41 0.00541318
3836.12 0.0101025
3840.55 0.0146366
3844.98 0.0272074
3847.19 0.0443800
3849.41 0.0919376
3850.51 0.156034
3851.07 0.218435
3851.62 0.328817
3852.18 0.553611
3852.45 0.765214
3852.73 1.12498
3853.01 1.81650
3853.14 2.42987
3853.28 3.40037
3853.42 5.08913
3853.56 8.31668
3853.63 11.1316
3853.70 15.4838
3853.77 22.4766
3853.84 33.8304
3853.92 54.2325
3854.00 67.6053
3854.08 53.9705
3854.17 33.8309
3854.24 21.2399
3854.32 14.0810
3854.40 9.80610
3854.48 7.18548
3854.64 4.27426
3854.79 2.81446
3854.95 1.98759
3855.11 1.47649
3855.42 0.905753
3855.74 0.611895
3856.05 0.441261
3856.68 0.261484
3857.30 0.173497
3857.93 0.124153
3859.19 0.0735810
3861.70 0.0362974
3864.21 0.0229824
3869.23 0.0134566
3874.25 0.0102447
3884.29 0.00832286
3894.33 0.00814840
3914.41 0.00953434
3934.50 0.0128068
3954.58 0.0196605
3964.62 0.0261042
3974.66 0.0371046
3984.70 0.0583183
3989.72 0.0772808
3994.74 0.108057
3999.77 0.163104
4002.28 0.208656
4004.79 0.277182
4007.30 0.387908
4009.81 0.588290
4011.06 0.763270
4012.32 1.06718
4012.94 1.34455
4013.57 1.89059
4013.89 2.46221
4014.20 3.68333
4014.36 4.94799
4014.51 7.38521
4014.59 9.55818
4014.67 12.9399
4014.75 18.5115
4014.83 27.8533
4014.91 43.6225
4015.00 54.1261
4015.09 43.7008
4015.17 28.0107
4015.28 16.8080
4015.38 11.1367
4015.48 8.09102
4015.58 6.33310
4015.78 4.55390
4015.98 3.78325
4016.38 3.28240
4016.78 3.30480
4017.58 3.96601
4018.38 5.17710
4019.69 8.12758
4021.00 10.1100
4022.31 8.08580
4023.62 5.06989
4025.18 2.89726
4026.73 1.84336
4027.51 1.57278
4028.29 1.49660
4028.68 1.61651
4029.07 2.07054
4029.26 2.65730
4029.45 3.95363
4029.55 5.24055
4029.65 7.50417
4029.75 11.8434
4029.79 15.5304
4029.84 20.6800
4029.92 32.6318
4030.00 40.6164
4030.08 32.6063
4030.16 20.6293
4030.25 12.0803
4030.34 7.71754
4030.43 5.36884
4030.53 4.00876
4030.71 2.57240
4030.89 1.87708
4031.26 1.24181
4031.62 0.958044
4032.36 0.695026
4033.09 0.563726
4034.55 0.418561
4036.02 0.332620
4038.94 0.230006
4041.87 0.170472
4047.73 0.106105
4053.58 0.0737035
4059.44 0.0552069
4065.30 0.0437845
4077.01 0.0314001
4088.72 0.0258793
4100.44 0.0241070
4112.15 0.0267483
4118.00 0.0377891
4119.47 0.0484310
4120.93 0.0772961
4121.66 0.115584
4122.40 0.216894
4122.76 0.345677
4123.13 0.663331
4123.31 1.03223
4123.49 1.83124
4123.59 2.63149
4123.68 4.04155
4123.77 6.84569
4123.82 9.26866
4123.86 12.7136
4123.93 20.3134
4124.00 25.3746
4124.07 20.3137
4124.14 12.7140
4124.22 7.29631
4124.30 4.51759
4124.38 3.01912
4124.46 2.14493
4124.63 1.23552
4124.79 0.804784
4125.11 0.423424
4125.43 0.265898
4126.08 0.140577
4126.73 0.0929696
4128.02 0.0573161
4129.31 0.0446149
4134.48 0.0336986
4144.82 0.0369485
4155.16 0.0476487
4165.50 0.0678805
4175.84 0.109087
4181.01 0.147229
4186.18 0.210881
4191.35 0.328378
4193.94 0.428005
4196.52 0.580204
4199.11 0.827556
4201.69 1.26196
4202.98 1.60784
4204.28 2.09723
4205.57 2.80193
4206.86 3.81012
4208.93 6.08911
4211.00 7.60344
4213.07 6.08148
4215.14 3.80275
4216.76 2.59446
4218.37 1.82568
4219.99 1.33379
4221.60 1.00898
4224.83 0.628359
4228.07 0.426213
4231.30 0.307500
4234.53 0.232412
4240.99 0.147050
4247.45 0.103344
4253.92 0.0812209
4257.15 0.0781134
4260.38 0.0880386
4261.99 0.108695
4263.61 0.171445
4264.42 0.257671
4264.82 0.341301
4265.23 0.488245
4265.63 0.781862
4265.83 1.05258
4266.03 1.50433
4266.24 2.33957
4266.34 3.04937
4266.44 4.13638
4266.54 5.90908
4266.64 9.03795
4266.74 15.0991
4266.79 20.1851
4266.84 27.4826
4266.92 44.0182
4267.00 55.0724
4267.08 44.0181
4267.16 27.4825
4267.22 19.5881
4267.27 14.3663
4267.32 10.8386
4267.38 8.40386
4267.49 5.41830
4267.59 3.75896
4267.70 2.74696
4267.81 2.09912
4268.03 1.34270
4268.24 0.934999
4268.46 0.693008
4268.89 0.430664
4269.33 0.299445
4269.76 0.224505
4270.62 0.146349
4272.36 0.0867170
4274.09 0.0640255
4277.55 0.0456475
4281.01 0.0376954
4287.94 0.0308599
4291.41 0.0328405
4293.14 0.0475839
4294.00 0.0996093
4294.44 0.248218
4294.65 0.565148
4294.76 1.02310
4294.87 2.19310
4294.93 3.48471
4295.00 4.35968
4295.07 3.48471
4295.13 2.19307
4295.24 1.02298
4295.35 0.564928
4295.56 0.247823
4296.00 0.0988762
4296.86 0.0461917
4298.59 0.0301447
4302.06 0.0255614
4308.98 0.0274956
4312.44 0.0338496
4315.91 0.0537268
4317.64 0.0816641
4319.37 0.159149
4320.23 0.262775
4320.67 0.362592
4321.10 0.536938
4321.53 0.885249
4321.75 1.20710
4321.96 1.74156
4322.18 2.73467
4322.29 3.57528
4322.40 4.86183
4322.51 6.95840
4322.61 10.6556
4322.72 17.8102
4322.78 23.8825
4322.83 32.6255
4322.92 52.3704
4323.00 65.3526
4323.09 52.1252
4323.17 32.6258
4323.26 20.0155
4323.34 13.0455
4323.43 8.98147
4323.51 6.52791
4323.60 4.92235
4323.68 3.84548
4323.85 2.52492
4324.03 1.77794
4324.20 1.32125
4324.54 0.811760
4324.88 0.550551
4325.22 0.399271
4325.90 0.240064
4326.58 0.162356
4327.27 0.118824
4328.63 0.0742513
4331.36 0.0413364
4334.09 0.0295775
4339.54 0.0215193
4345.00 0.0200346
4350.46 0.0225677
4355.92 0.0333085
4358.65 0.0486017
4361.37 0.0905183
4362.74 0.146425
4363.42 0.200571
4364.10 0.296570
4364.79 0.492703
4365.13 0.678750
4365.47 0.999839
4365.81 1.62639
4365.98 2.19272
4366.15 3.10947
4366.32 4.75424
4366.41 6.09373
4366.49 8.06809
4366.58 11.1686
4366.66 16.2050
4366.75 24.9666
4366.83 40.6659
4366.92 65.2065
4367.00 81.3120
4367.09 64.8993
4367.17 40.6679
4367.24 27.4265
4367.31 19.1223
4367.37 13.8738
4367.44 10.4802
4367.58 6.47449
4367.71 4.37971
4367.85 3.14607
4367.98 2.37312
4368.25 1.48921
4368.52 1.02652
4368.80 0.755658
4369.34 0.469906
4369.88 0.333292
4370.42 0.261349
4371.51 0.207426
4372.59 0.229909
4373.13 0.278207
4373.67 0.376524
4374.22 0.588643
4374.49 0.792339
4374.76 1.14308
4375.03 1.81919
4375.16 2.42085
4375.30 3.37487
4375.44 5.03986
4375.57 8.23416
4375.64 11.0571
4375.71 15.4564
4375.77 22.5963
4375.84 34.1056
4375.92 54.6858
4376.00 68.1782
4376.08 54.4106
4376.16 34.1040
4376.22 23.6948
4376.28 17.0127
4376.34 12.5613
4376.39 9.61801
4376.51 6.06928
4376.63 4.14962
4376.74 3.00812
4376.86 2.27855
4377.10 1.43741
4377.33 0.990914
4377.56 0.726320
4378.03 0.442121
4378.50 0.300035
4378.97 0.219091
4379.90 0.134431
4381.77 0.0696121
4383.64 0.0450191
4387.38 0.0257824
4391.12 0.0182038
4398.60 0.0120103
4406.08 0.00943994
4421.04 0.00723787
4436.00 0.00635578
4450.96 0.00612090
4465.92 0.00675326
4480.88 0.0114393
4484.62 0.0161375
4488.36 0.0289282
4490.23 0.0460723
4492.10 0.0927807
4493.04 0.154975
4493.97 0.320666
4494.44 0.533686
4494.67 0.732264
4494.91 1.06609
4495.14 1.69790
4495.26 2.24649
4495.37 3.10556
4495.49 4.55176
4495.61 7.22883
4495.67 9.49807
4495.73 12.8170
4495.78 17.8735
4495.84 25.5927
4495.92 41.0916
4496.00 51.2712
4496.08 40.8851
4496.16 25.5934
4496.25 14.6514
4496.34 9.09384
4496.43 6.05745
4496.53 4.30351
4496.62 3.19258
4496.71 2.46412
4496.89 1.59161
4497.07 1.10949
4497.26 0.817909
4497.62 0.499569
4497.99 0.338429
4498.35 0.246506
4499.08 0.151288
4500.55 0.0831048
4502.01 0.0653082
4503.47 0.0714915
4504.93 0.116261
4505.66 0.182819
4506.39 0.363251
4506.76 0.594065
4506.94 0.807098
4507.12 1.16024
4507.31 1.81576
4507.40 2.36895
4507.49 3.21349
4507.58 4.60445
4507.67 7.02705
4507.76 11.6865
4507.81 15.6696
4507.85 21.2517
4507.93 34.0421
4508.00 42.5889
4508.07 34.0421
4508.15 21.2517
4508.20 14.8663
4508.25 10.7394
4508.30 7.96272
4508.36 6.11861
4508.46 3.87763
4508.57 2.65737
4508.67 1.92863
4508.78 1.46150
4508.99 0.921485
4509.20 0.634193
4509.41 0.463770
4509.83 0.280724
4510.67 0.137264
4511.50 0.0832597
4513.18 0.0424106
4514.86 0.0272500
4518.22 0.0157204
4521.58 0.0113590
4535.00 0.00689676
4548.43 0.00764561
4555.15 0.0143569
4558.50 0.0406531
4559.34 0.0666779
4560.18 0.136342
4560.60 0.226236
4561.02 0.451581
4561.23 0.719950
4561.44 1.32050
4561.55 1.94055
4561.65 3.09509
4561.70 4.08075
4561.76 5.52775
4561.81 7.74697
4561.86 11.1682
4561.93 17.8647
4562.00 22.3391
4562.07 17.8649
4562.14 11.1685
4562.19 7.69477
4562.25 5.46041
4562.30 4.01421
4562.35 3.05000
4562.46 1.90993
4562.56 1.29876
4562.78 0.705859
4562.99 0.442840
4563.41 0.221337
4563.84 0.133523
4564.69 0.0652385
4565.54 0.0397954
4568.93 0.0139885
4575.73 0.00721591
4589.32 0.00558128
4616.50 0.00576329
4643.68 0.00755881
4657.27 0.0114684
4664.06 0.0226380
4665.76 0.0330851
4667.46 0.0612361
4668.31 0.0986545
4669.16 0.198165
4669.58 0.326061
4670.01 0.645482
4670.22 1.02563
4670.43 1.86781
4670.54 2.73079
4670.64 4.32347
4670.70 5.65588
4670.75 7.63333
4670.80 10.6480
4670.86 15.2744
4670.93 24.4882
4671.00 30.5416
4671.07 24.4884
4671.14 15.2749
4671.19 11.3021
4671.23 8.51632
4671.32 5.14624
4671.41 3.38235
4671.50 2.38265
4671.68 1.35119
4671.85 0.867177
4672.21 0.444790
4672.56 0.272709
4673.27 0.136661
4673.98 0.0855010
4675.40 0.0477495
4676.81 0.0350068
4679.65 0.0287248
4682.48 0.0323520
4685.32 0.0460479
4688.15 0.0877560
4689.57 0.145155
4690.28 0.201424
4690.99 0.301675
4691.70 0.507793
4692.05 0.703502
4692.41 1.04142
4692.76 1.70310
4692.94 2.29734
4693.11 3.26369
4693.29 4.98291
4693.38 6.39671
4693.47 8.45425
4693.56 11.6693
4693.65 16.8614
4693.73 25.9542
4693.82 41.9535
4693.91 67.1246
4694.00 83.9067
4694.09 67.1242
4694.18 41.9538
4694.24 30.5917
4694.29 22.8501
4694.40 13.7031
4694.52 8.96132
4694.63 6.26621
4694.74 4.60967
4694.85 3.52602
4695.08 2.24842
4695.30 1.55598
4695.52 1.14033
4695.97 0.688559
4696.42 0.461721
4696.87 0.332088
4697.76 0.197315
4698.66 0.132323
4699.56 0.0962081
4701.35 0.0596161
4704.93 0.0333062
4708.52 0.0247447
4715.69 0.0236706
4719.27 0.0376936
4721.07 0.0853685
4721.51 0.129011
4721.96 0.238198
4722.19 0.368222
4722.41 0.660998
4722.52 0.965993
4722.63 1.54058
4722.75 2.77585
4722.80 3.94107
4722.86 5.78490
4722.93 9.26065
4723.00 11.5436
4723.07 9.26119
4723.14 5.78597
4723.20 3.84037
4723.26 2.65049
4723.38 1.42802
4723.51 0.882077
4723.63 0.601285
4723.87 0.335867
4724.11 0.220722
4724.59 0.127314
4725.07 0.0930948
4726.04 0.0744998
4727.00 0.0826175
4727.96 0.117002
4728.93 0.220514
4729.41 0.357539
4729.89 0.707637
4730.13 1.13052
4730.25 1.50526
4730.37 2.09647
4730.49 3.12355
4730.61 5.07576
4730.67 6.77016
4730.73 9.37748
4730.79 13.5413
4730.85 20.2976
4730.93 32.4435
4731.00 40.5875
4731.07 32.4436
4731.15 20.2979
4731.20 14.1718
4731.25 10.1185
4731.31 7.47342
4731.36 5.72605
4731.47 3.61557
4731.57 2.47307
4731.68 1.78843
4731.79 1.35564
4732.00 0.856383
4732.43 0.433800
4732.86 0.265601
4733.72 0.134686
4734.57 0.0860104
4736.29 0.0508550
4738.00 0.0405895
4739.72 0.0409097
4741.43 0.0557777
4742.29 0.0792004
4743.15 0.144126
4743.57 0.228765
4744.00 0.441935
4744.22 0.697483
4744.43 1.26879
4744.54 1.86024
4744.65 2.96529
4744.70 3.91219
4744.75 5.30859
4744.81 7.51369
4744.86 10.9526
4744.93 17.5202
4745.00 21.8914
4745.07 17.5203
4745.14 10.9527
4745.19 7.98853
4745.23 5.97386
4745.32 3.57277
4745.41 2.33493
4745.50 1.64016
4745.67 0.929251
4745.85 0.598033
4746.20 0.310380
4746.56 0.193536
4747.27 0.101110
4747.98 0.0661156
4750.81 0.0300087
4756.48 0.0206154
4767.81 0.0201319
4790.49 0.0287093
4801.82 0.0373363
4813.16 0.0520534
4818.83 0.0642498
4824.50 0.0849699
4827.33 0.104307
4830.17 0.145747
4831.58 0.194784
4833.00 0.320006
4833.71 0.480915
4834.06 0.632858
4834.42 0.895076
4834.77 1.41009
4834.95 1.87498
4835.13 2.63578
4835.30 4.00290
4835.39 5.13906
4835.48 6.80997
4835.57 9.45850
4835.66 13.8217
4835.75 21.6804
4835.83 36.0144
4835.92 57.6281
4836.00 71.7816
4836.08 57.3548
4836.17 36.0165
4836.24 23.6867
4836.31 16.2828
4836.38 11.7021
4836.45 8.75231
4836.59 5.38432
4836.74 3.63847
4836.88 2.62882
4837.02 1.99602
4837.30 1.28048
4837.59 0.907203
4837.87 0.690357
4838.44 0.461596
4839.01 0.350870
4839.58 0.290303
4840.71 0.232285
4842.99 0.202055
4845.26 0.207344
4849.81 0.258258
4854.35 0.357569
4856.63 0.434568
4858.90 0.540848
4861.17 0.692128
4863.45 0.916073
4865.72 1.26428
4867.99 1.83733
4870.27 2.83981
4871.40 3.61428
4872.54 4.64866
4874.77 7.42866
4877.00 9.28165
4879.23 7.44514
4881.46 4.72847
4883.15 3.53750
4883.58 3.49662
4884.00 3.82804
4884.21 4.39188
4884.43 5.77344
4884.53 7.22943
4884.64 9.92259
4884.74 15.4466
4884.80 20.3802
4884.85 27.6042
4884.92 42.7734
4885.00 52.8764
4885.08 42.7101
4885.15 27.4777
4885.22 18.3871
4885.29 13.0085
4885.36 9.76459
4885.43 7.71100
4885.57 5.39385
4885.70 4.19972
4885.98 3.03629
4886.25 2.49059
4886.81 1.95649
4887.36 1.67184
4889.56 1.11042
4891.76 0.823677
4893.97 0.648353
4896.17 0.544524
4898.37 0.519435
4899.48 0.571886
4900.03 0.641045
4900.58 0.775453
4901.13 1.05936
4901.40 1.32759
4901.68 1.77765
4901.96 2.61733
4902.09 3.33281
4902.23 4.41969
4902.37 6.20199
4902.51 9.31303
4902.64 15.3495
4902.71 20.4555
4902.78 27.6564
4902.89 44.0877
4903.00 55.0425
4903.11 44.0823
4903.22 27.6473
4903.32 18.2179
4903.41 12.5045
4903.51 8.99575
4903.60 6.74892
4903.79 4.19706
4903.98 2.88505
4904.17 2.12248
4904.36 1.64450
4904.74 1.10329
4905.12 0.818035
4905.50 0.649387
4906.26 0.465210
4907.02 0.369852
4907.77 0.312304
4909.29 0.245757
4912.33 0.180996
4915.36 0.145964
4921.44 0.105269
4927.51 0.0813850
4939.65 0.0550061
4951.79 0.0423889
4963.94 0.0380934
4970.01 0.0394604
4976.08 0.0450686
4982.15 0.0601919
4985.19 0.0761806
4988.22 0.105608
4991.26 0.167455
4992.78 0.227156
4994.29 0.331620
4995.81 0.539175
4996.57 0.729453
4997.33 1.04506
4998.09 1.62338
4998.47 2.11107
4998.85 2.84899
4999.23 4.03999
4999.61 6.09704
4999.80 7.71586
4999.99 9.96651
5000.18 13.1721
5000.36 17.6624
5000.68 28.2491
5001.00 35.3048
5001.32 28.2449
5001.64 17.6581
5001.96 10.8094
5002.28 7.01034
5002.60 4.82956
5002.92 3.50060
5003.24 2.64293
5003.56 2.06163
5004.21 1.35169
5004.85 0.953075
5005.49 0.708775
5006.77 0.437571
5008.06 0.298580
5009.34 0.218181
5011.91 0.133527
5014.48 0.0921655
5017.05 0.0688910
5022.19 0.0449521
5027.32 0.0334862
5032.46 0.0271413
5042.74 0.0209315
5053.01 0.0186819
5063.28 0.0191240
5073.56 0.0267464
5076.13 0.0344051
5078.70 0.0552802
5079.98 0.0832950
5081.27 0.158974
5081.91 0.258045
5082.55 0.513774
5082.87 0.828290
5083.03 1.11131
5083.19 1.56684
5083.35 2.37778
5083.51 3.98922
5083.59 5.47602
5083.67 7.85187
5083.75 11.8953
5083.83 18.9395
5083.92 30.3440
5084.00 37.8180
5084.08 30.1993
5084.17 18.9398
5084.25 11.5717
5084.34 7.48489
5084.42 5.14722
5084.51 3.72643
5084.68 2.19200
5084.85 1.44004
5085.02 1.01590
5085.19 0.757115
5085.52 0.468976
5086.20 0.236330
5086.88 0.146853
5088.24 0.0791762
5089.59 0.0546937
5092.30 0.0375737
5095.02 0.0326935
5100.44 0.0347147
5103.15 0.0483855
5104.51 0.0932656
5105.19 0.233180
5105.53 0.592623
5105.70 1.26137
5105.78 2.08668
5105.87 3.76952
5105.93 6.02518
5106.00 7.50539
5106.07 6.02538
5106.13 3.76988
5106.23 1.93225
5106.33 1.11967
5106.52 0.505116
5106.91 0.196896
5107.68 0.0839702
5109.22 0.0511950
5112.31 0.0470691
5115.39 0.0531764
5118.48 0.0646837
5121.56 0.0852169
5124.65 0.130585
5126.19 0.183456
5126.97 0.231969
5127.74 0.315293
5128.51 0.482147
5128.89 0.639096
5129.28 0.908574
5129.67 1.43677
5129.86 1.91509
5130.05 2.69959
5130.24 4.11484
5130.34 5.29542
5130.44 7.04100
5130.53 9.82217
5130.63 14.4481
5130.73 22.7588
5130.82 38.2951
5130.91 61.2749
5131.00 76.6250
5131.09 61.2767
5131.18 38.2996
5131.24 26.6281
5131.31 19.1298
5131.37 14.2090
5131.44 10.8914
5131.57 6.90118
5131.70 4.75876
5131.83 3.47479
5131.96 2.66103
5132.22 1.72017
5132.48 1.22299
5132.74 0.930491
5133.27 0.621432
5133.79 0.473062
5134.31 0.394305
5135.35 0.327060
5137.44 0.330479
5139.52 0.429449
5141.61 0.656492
5142.65 0.865292
5143.70 1.20430
5144.22 1.45774
5144.74 1.80123
5145.26 2.28318
5145.78 2.98198
5146.30 4.04423
5146.82 5.73397
5147.35 8.56666
5147.87 13.3889
5148.43 21.4035
5149.00 26.7308
5149.57 21.3846
5150.13 13.3871
5150.80 7.64829
5151.46 4.72960
5152.12 3.16327
5152.78 2.25314
5153.44 1.68594
5154.10 1.31192
5155.42 0.869757
5156.74 0.633110
5158.07 0.496924
5160.71 0.374627
5163.35 0.376060
5164.68 0.428977
5166.00 0.545103
5167.32 0.793791
5167.98 1.02354
5168.64 1.39900
5169.30 2.06404
5169.96 3.38617
5170.30 4.58035
5170.63 6.48251
5170.96 9.68390
5171.29 15.1442
5171.64 24.1727
5172.00 30.1850
5172.36 24.1378
5172.72 15.1111
5172.94 11.1210
5173.16 8.33505
5173.61 5.03137
5174.05 3.31246
5174.50 2.33292
5174.95 1.72951
5175.39 1.33393
5176.28 0.866420
5177.17 0.611344
5178.07 0.457282
5179.85 0.288103
5181.63 0.201499
5183.42 0.150935
5186.98 0.0964838
5190.55 0.0687617
5194.12 0.0524452
5201.25 0.0345793
5208.38 0.0252941
5215.52 0.0197688
5229.78 0.0137719
5244.05 0.0109263
5258.31 0.00994119
5265.45 0.0103743
5272.58 0.0125954
5279.71 0.0252139
5281.50 0.0378824
5283.28 0.0726856
5284.17 0.119268
5285.06 0.243437
5285.51 0.403006
5285.96 0.802466
5286.18 1.27492
5286.40 2.32423
5286.51 3.40468
5286.62 5.37806
5286.68 7.04080
5286.74 9.45598
5286.79 13.1913
5286.85 18.8817
5286.92 30.1301
5287.00 37.7455
5287.08 30.1302
5287.15 18.8821
5287.22 12.7104
5287.28 8.84312
5287.34 6.40498
5287.40 4.83346
5287.52 2.98941
5287.65 2.01734
5287.89 1.09000
5288.14 0.680841
5288.63 0.339907
5289.12 0.205356
5290.11 0.101522
5291.09 0.0631374
5293.06 0.0350617
5295.03 0.0255423
5298.97 0.0205543
5302.90 0.0226474
5306.84 0.0316586
5308.81 0.0414351
5310.78 0.0594533
5312.75 0.0974312
5313.73 0.134256
5314.71 0.199138
5315.70 0.329790
5316.19 0.451125
5316.68 0.655448
5317.18 1.03866
5317.42 1.36928
5317.67 1.88360
5317.91 2.74123
5318.16 4.30613
5318.28 5.60017
5318.41 7.49933
5318.53 10.3542
5318.65 14.6459
5318.83 23.4625
5319.00 29.2969
5319.18 23.4072
5319.35 14.6450
5319.52 9.02534
5319.70 5.87392
5319.87 4.05549
5320.04 2.94834
5320.22 2.22697
5320.39 1.73725
5320.74 1.13940
5321.09 0.802400
5321.43 0.595790
5322.13 0.365782
5322.82 0.247892
5323.52 0.179631
5324.91 0.107818
5326.30 0.0728284
5327.69 0.0532160
5330.47 0.0332165
5336.03 0.0187642
5341.59 0.0142645
5352.71 0.0176206
5355.49 0.0244716
5358.27 0.0443557
5359.66 0.0715734
5361.05 0.145783
5361.74 0.243400
5362.44 0.496524
5362.78 0.810022
5362.96 1.09248
5363.13 1.54898
5363.31 2.36572
5363.39 3.03359
5363.48 4.00383
5363.57 5.51735
5363.65 7.99122
5363.74 12.2753
5363.83 19.7861
5363.91 31.7274
5364.00 39.5682
5364.09 31.5825
5364.18 19.7863
5364.26 12.0830
5364.35 7.81134
5364.44 5.36806
5364.53 3.89624
5364.62 2.93525
5364.71 2.29128
5364.88 1.49940
5365.06 1.05338
5365.24 0.781397
5365.59 0.479417
5366.30 0.235096
5367.01 0.141156
5368.43 0.0698553
5369.84 0.0439184
5372.68 0.0256673
5375.51 0.0208827
5378.35 0.0223503
5381.18 0.0338584
5382.60 0.0513609
5384.01 0.100441
5384.72 0.166021
5385.43 0.338477
5385.79 0.556288
5386.14 1.08376
5386.32 1.68374
5386.49 2.94716
5386.58 4.17300
5386.67 6.25536
5386.76 10.1776
5386.85 17.7888
5386.92 28.4553
5387.00 35.5811
5387.08 28.4554
5387.15 17.7890
5387.23 10.9390
5387.31 7.07449
5387.38 4.86246
5387.46 3.51761
5387.61 2.06496
5387.77 1.34997
5388.08 0.704114
5388.38 0.431918
5389.00 0.212241
5389.62 0.127697
5390.85 0.0635567
5392.08 0.0401657
5394.54 0.0235201
5397.00 0.0189008
5401.93 0.0288627
5403.16 0.0430891
5404.39 0.0830572
5405.01 0.136311
5405.63 0.275720
5405.93 0.449713
5406.24 0.866553
5406.40 1.33331
5406.55 2.29580
5406.63 3.20146
5406.70 4.71751
5406.78 7.43306
5406.86 12.4225
5406.93 19.8543
5407.00 24.8362
5407.07 19.8544
5407.14 12.4226
5407.19 9.22638
5407.23 6.93545
5407.32 4.19610
5407.41 2.75956
5407.49 1.94439
5407.67 1.10221
5407.84 0.706541
5408.20 0.360838
5408.55 0.219771
5409.25 0.107890
5409.95 0.0654321
5411.35 0.0333964
5412.75 0.0216349
5418.36 0.00962073
5429.57 0.00624579
5440.78 0.00566022
5452.00 0.00570254
5463.21 0.00619395
5474.42 0.00753508
5485.63 0.0133275
5491.24 0.0336429
5492.64 0.0536569
5494.04 0.108119
5494.74 0.180180
5495.45 0.369162
5495.80 0.606821
5496.15 1.17992
5496.32 1.82863
5496.50 3.18592
5496.58 4.49354
5496.67 6.69689
5496.76 10.7989
5496.85 18.6176
5496.92 29.7842
5497.00 37.2290
5497.08 29.7844
5497.15 18.6179
5497.25 10.4874
5497.34 6.43778
5497.43 4.25687
5497.52 3.00940
5497.70 1.71258
5497.89 1.09983
5498.25 0.563181
5498.62 0.342714
5499.35 0.167980
5500.08 0.101835
5501.55 0.0526618
5503.01 0.0358607
5505.94 0.0329093
5507.40 0.0662236
5508.13 0.181621
5508.50 0.490419
5508.68 1.08871
5508.77 1.85448
5508.87 3.51648
5508.93 5.63329
5509.00 7.02001
5509.07 5.63323
5509.13 3.51633
5509.21 2.11633
5509.28 1.34919
5509.42 0.666538
5509.71 0.259682
5510.28 0.0908493
5511.43 0.0350864
5513.72 0.0186615
5518.31 0.0144902
5522.89 0.0148996
5527.48 0.0171825
5532.06 0.0223139
5536.65 0.0359046
5538.94 0.0537907
5541.23 0.102229
5542.38 0.166832
5543.52 0.339414
5544.10 0.561951
5544.38 0.770506
5544.67 1.12306
5544.96 1.79459
5545.10 2.37944
5545.24 3.30060
5545.39 4.87895
5545.53 7.82622
5545.60 10.3563
5545.67 14.1217
5545.74 20.0706
5545.82 29.2523
5545.91 46.9198
5546.00 58.5392
5546.09 46.7168
5546.19 29.2525
5546.29 17.2593
5546.39 10.9333
5546.49 7.41249
5546.59 5.31274
5546.69 3.96751
5546.79 3.07655
5546.99 2.00010
5547.19 1.40047
5547.39 1.03710
5547.79 0.635651
5548.19 0.431666
5548.59 0.314263
5549.39 0.191548
5551.00 0.0993370
5552.60 0.0663287
5555.81 0.0438630
5559.02 0.0381691
5565.43 0.0412957
5571.85 0.0562156
5575.06 0.0697978
5578.27 0.0905914
5581.47 0.124072
5584.68 0.182468
5587.89 0.297523
5589.49 0.401982
5591.10 0.573416
5591.90 0.703373
5592.70 0.882555
5593.50 1.13857
5594.31 1.52059
5595.11 2.12161
5595.91 3.12906
5596.31 3.89543
5596.71 4.93758
5597.11 6.36736
5597.51 8.30760
5598.26 13.2890
5599.00 16.6080
5599.74 13.2846
5600.49 8.30332
5601.34 4.79763
5602.18 2.98378
5603.03 1.99708
5603.87 1.41917
5604.72 1.05581
5605.57 0.814730
5607.26 0.526096
5608.95 0.367277
5610.64 0.271099
5614.03 0.165647
5617.42 0.112314
5620.80 0.0817462
5624.19 0.0626557
5627.57 0.0499770
5634.34 0.0348184
5641.11 0.0266094
5654.65 0.0191181
5668.19 0.0173055
5681.73 0.0199767
5688.51 0.0244203
5695.28 0.0352040
5698.66 0.0480259
5702.05 0.0801148
5703.74 0.121236
5705.43 0.230214
5706.28 0.372815
5706.70 0.508591
5707.12 0.744433
5707.55 1.20972
5707.76 1.63514
5707.97 2.33381
5708.18 3.61119
5708.29 4.68042
5708.39 6.27422
5708.50 8.83648
5708.60 13.2173
5708.71 21.3080
5708.82 36.7786
5708.91 58.8885
5709.00 73.3922
5709.09 58.6353
5709.19 36.7797
5709.28 22.3852
5709.38 14.4394
5709.47 9.91169
5709.56 7.19020
5709.66 5.41840
5709.75 4.23222
5709.94 2.77680
5710.13 1.95884
5710.32 1.46058
5710.70 0.908490
5711.08 0.626111
5711.46 0.463925
5712.21 0.294759
5713.73 0.170912
5715.24 0.131490
5718.27 0.121227
5721.30 0.153553
5722.81 0.187408
5724.32 0.240992
5725.84 0.329000
5727.35 0.484796
5728.87 0.797328
5729.62 1.08584
5730.38 1.56761
5731.14 2.45907
5731.52 3.21847
5731.89 4.37927
5732.08 5.20796
5732.27 6.27969
5732.46 7.70133
5732.65 9.63077
5732.84 12.3138
5733.03 16.1342
5733.22 21.6677
5733.41 29.6490
5733.70 47.4125
5734.00 59.2452
5734.15 55.7410
5734.30 47.4072
5734.59 29.6435
5734.94 17.0564
5735.28 10.5704
5735.62 7.06041
5735.96 5.00782
5736.30 3.72130
5736.64 2.86785
5737.32 1.84877
5738.00 1.28806
5738.69 0.948575
5740.05 0.576841
5741.41 0.388620
5742.78 0.280604
5744.14 0.212892
5745.50 0.167743
5748.23 0.113134
5750.96 0.0826811
5753.68 0.0640315
5756.41 0.0518402
5761.86 0.0375414
5767.32 0.0300318
5778.22 0.0236756
5789.13 0.0228022
5800.04 0.0257821
5805.49 0.0293375
5810.94 0.0363169
5816.40 0.0603538
5817.76 0.0812501
5819.13 0.136069
5819.81 0.207564
5820.49 0.393634
5820.83 0.626950
5821.17 1.19129
5821.34 1.83402
5821.51 3.17497
5821.60 4.45970
5821.68 6.65421
5821.77 10.7044
5821.85 18.6460
5821.93 29.8299
5822.00 37.2443
5822.07 29.8302
5822.15 18.6467
5822.23 10.7054
5822.32 6.65545
5822.41 4.44194
5822.49 3.16494
5822.66 1.82583
5822.83 1.19120
5823.17 0.629519
5823.51 0.397706
5824.20 0.213785
5824.88 0.144481
5826.24 0.0938641
5827.61 0.0772749
5830.33 0.0696329
5833.06 0.0727405
5838.52 0.0925959
5843.97 0.131699
5849.43 0.208821
5852.16 0.277395
5854.89 0.387024
5857.62 0.577006
5858.98 0.727927
5860.34 0.944170
5861.71 1.26639
5863.07 1.76771
5864.44 2.57990
5865.80 3.91200
5867.40 6.25759
5869.00 7.82011
5870.60 6.25336
5872.20 3.90800
5873.78 2.42130
5875.36 1.58303
5876.93 1.09693
5878.51 0.798596
5880.09 0.605015
5881.66 0.473477
5884.82 0.312416
5887.97 0.222063
5891.13 0.166892
5897.44 0.107227
5903.75 0.0809030
5910.05 0.0781832
5913.21 0.0932680
5914.79 0.111673
5916.36 0.147091
5917.94 0.223339
5918.73 0.297649
5919.52 0.428038
5920.31 0.688201
5920.70 0.926822
5921.10 1.32295
5921.49 2.05198
5921.69 2.66534
5921.88 3.59681
5922.08 5.09814
5922.28 7.70326
5922.48 12.6228
5922.57 16.7253
5922.67 22.4605
5922.84 35.9254
5923.00 44.9036
5923.16 35.9232
5923.33 22.4588
5923.43 16.6259
5923.53 12.5188
5923.73 7.61483
5923.93 5.01943
5924.13 3.53702
5924.33 2.61485
5924.53 2.01172
5924.92 1.29502
5925.32 0.904716
5925.72 0.669635
5926.52 0.413408
5927.32 0.283964
5928.12 0.209672
5929.71 0.131951
5931.31 0.0940632
5932.90 0.0727699
5936.09 0.0511786
5939.28 0.0423816
5942.47 0.0432078
5944.07 0.0512550
5945.67 0.0782257
5946.46 0.116202
5947.26 0.218996
5947.66 0.351252
5948.06 0.681093
5948.26 1.07003
5948.46 1.92100
5948.56 2.78613
5948.66 4.33965
5948.71 5.62912
5948.76 7.51500
5948.81 10.3370
5948.86 14.4841
5948.93 23.1460
5949.00 28.9543
5949.07 23.1460
5949.14 14.4841
5949.23 8.24386
5949.31 5.05581
5949.40 3.35629
5949.48 2.37262
5949.65 1.35656
5949.82 0.878223
5950.16 0.455952
5950.50 0.282725
5951.18 0.144677
5951.86 0.0920075
5953.22 0.0517649
5954.57 0.0366055
5960.00 0.0197137
5965.43 0.0150708
5970.86 0.0126249
5981.71 0.00978352
5992.57 0.00805981
6014.28 0.00600613
6035.99 0.00485436
6079.42 0.00395077
6101.13 0.00474696
6111.99 0.00860084
6117.42 0.0234630
6118.77 0.0383163
6120.13 0.0788627
6120.81 0.132481
6121.49 0.272316
6121.83 0.447416
6122.17 0.866275
6122.34 1.33767
6122.50 2.30546
6122.59 3.22317
6122.67 4.76594
6122.76 7.54671
6122.84 12.7308
6122.92 20.3885
6123.00 25.4591
6123.08 20.3885
6123.16 12.7309
6123.21 9.19728
6123.26 6.80530
6123.36 4.00761
6123.47 2.59058
6123.57 1.79756
6123.77 1.00222
6123.98 0.637140
6124.39 0.321457
6124.80 0.193997
6125.63 0.0937417
6126.45 0.0559855
6129.74 0.0175208
6136.32 0.00764266
6149.49 0.00657575
6162.66 0.0142547
6165.95 0.0224367
6169.24 0.0453314
6170.89 0.0765226
6172.53 0.161983
6173.36 0.275398
6173.77 0.384300
6174.18 0.573742
6174.59 0.950024
6174.80 1.29455
6175.00 1.86181
6175.21 2.90308
6175.31 3.77809
6175.41 5.08701
6175.52 7.20313
6175.62 10.8498
6175.72 17.6652
6175.82 31.0416
6175.91 49.5816
6176.00 62.0721
6176.09 49.5814
6176.18 31.0418
6176.27 18.6058
6176.36 11.8497
6176.45 8.05899
6176.55 5.80555
6176.64 4.34936
6176.73 3.38018
6176.92 2.19749
6177.10 1.53899
6177.29 1.13661
6177.66 0.692035
6178.03 0.465401
6178.40 0.334635
6179.14 0.197511
6180.62 0.0936128
6182.10 0.0556829
6185.06 0.0281259
6188.02 0.0189443
6193.94 0.0183262
6196.90 0.0414958
6198.38 0.129178
6198.75 0.210667
6199.12 0.412231
6199.31 0.646887
6199.49 1.15664
6199.58 1.66883
6199.68 2.57488
6199.77 4.38735
6199.81 5.94253
6199.86 8.22133
6199.93 13.1486
6200.00 16.4408
6200.07 13.1487
6200.14 8.22140
6200.21 4.92544
6200.29 3.14301
6200.44 1.53393
6200.59 0.892698
6200.73 0.582780
6201.03 0.303357
6201.33 0.186923
6201.92 0.0931915
6202.52 0.0572559
6204.90 0.0197961
6209.65 0.00953720
6219.17 0.00713467
6228.68 0.00771644
6238.20 0.00992802
6247.71 0.0152013
6252.47 0.0205248
6257.23 0.0301715
6259.60 0.0382181
6261.98 0.0503628
6264.36 0.0699581
6266.74 0.104577
6269.12 0.174697
6270.31 0.240372
6271.50 0.352008
6272.69 0.564758
6273.28 0.751352
6273.88 1.04602
6274.47 1.55026
6274.77 1.94500
6275.06 2.50334
6275.36 3.32490
6275.66 4.57212
6275.96 6.53591
6276.25 9.64942
6276.63 15.4448
6277.00 19.2936
6277.37 15.4261
6277.75 9.64737
6278.03 6.65993
6278.31 4.73053
6278.59 3.47995
6278.88 2.64528
6279.44 1.65736
6280.00 1.12795
6280.57 0.814164
6281.13 0.614435
6282.26 0.385301
6283.39 0.264137
6284.51 0.192716
6285.64 0.147164
6286.77 0.116402
6289.02 0.0788500
6291.28 0.0578966
6293.53 0.0453021
6295.79 0.0375051
6300.30 0.0306772
6302.55 0.0310678
6304.80 0.0352109
6307.06 0.0472701
6309.31 0.0841534
6310.44 0.134979
6311.57 0.272199
6312.13 0.450163
6312.41 0.617060
6312.70 0.899617
6312.98 1.43904
6313.12 1.91193
6313.26 2.65991
6313.40 3.93735
6313.54 6.35472
6313.61 8.44737
6313.68 11.5858
6313.75 16.5061
6313.82 24.2677
6313.91 38.8218
6314.00 48.5250
6314.09 38.8217
6314.18 24.2679
6314.27 14.7094
6314.36 9.50077
6314.45 6.52672
6314.54 4.72091
6314.64 3.54810
6314.73 2.76488
6314.91 1.80957
6315.09 1.27229
6315.27 0.944884
6315.64 0.581759
6316.37 0.288387
6317.10 0.176354
6318.56 0.0935258
6320.01 0.0679440
6321.47 0.0660356
6322.93 0.0942912
6323.66 0.140384
6324.39 0.267222
6324.76 0.429687
6325.12 0.826503
6325.30 1.28462
6325.49 2.25488
6325.58 3.19948
6325.67 4.84197
6325.76 7.95430
6325.80 10.5776
6325.85 14.2997
6325.93 22.8717
6326.00 28.5747
6326.08 22.8715
6326.15 14.2993
6326.20 10.3757
6326.25 7.67592
6326.35 4.56358
6326.44 2.95840
6326.54 2.06516
6326.74 1.15949
6326.93 0.742193
6327.32 0.379955
6327.71 0.233088
6328.49 0.116825
6329.27 0.0724951
6330.82 0.0385156
6332.38 0.0255880
6338.61 0.0111600
6344.84 0.00752438
6351.08 0.00588437
6363.54 0.00437479
6376.00 0.00374180
6388.46 0.00355787
6400.92 0.00395336
6413.39 0.00717804
6419.62 0.0201745
6421.17 0.0332941
6422.73 0.0693987
6423.51 0.117544
6424.29 0.245068
6424.68 0.407321
6425.07 0.805455
6425.26 1.26735
6425.46 2.25627
6425.56 3.24408
6425.65 4.97450
6425.75 8.32944
6425.80 11.2173
6425.85 15.3254
6425.92 24.5632
6426.00 30.6464
6426.08 24.5632
6426.15 15.3256
6426.24 8.99289
6426.32 5.65811
6426.41 3.81719
6426.49 2.72570
6426.66 1.57341
6426.83 1.01786
6427.16 0.523832
6427.50 0.318273
6428.17 0.153814
6428.84 0.0909414
6430.19 0.0434000
6431.53 0.0260084
6436.91 0.00866251
6447.66 0.00422743
6469.16 0.00333521
6490.67 0.00363814
6512.17 0.00457564
6533.68 0.00673357
6544.43 0.00889373
6555.18 0.0128095
6560.56 0.0160902
6565.94 0.0210764
6571.31 0.0292072
6576.69 0.0438409
6579.38 0.0560265
6582.07 0.0744178
6584.75 0.104098
6587.44 0.156637
6588.79 0.199600
6590.13 0.263303
6591.47 0.363553
6592.82 0.534565
6594.16 0.861876
6594.83 1.15045
6595.51 1.60968
6596.18 2.40102
6596.51 3.02688
6596.85 3.91974
6597.19 5.24273
6597.52 7.28597
6597.86 10.5642
6598.19 15.8788
6598.60 25.4226
6599.00 31.7652
6599.40 25.3939
6599.81 15.8754
6600.17 10.2587
6600.53 6.92454
6600.89 4.90520
6601.25 3.62557
6601.97 2.18607
6602.69 1.45224
6603.41 1.03129
6604.13 0.769512
6605.57 0.475060
6607.01 0.322419
6608.45 0.233540
6609.89 0.177433
6611.33 0.139925
6614.22 0.0950601
6617.10 0.0726833
6618.54 0.0686148
6619.98 0.0746908
6621.42 0.132939
6622.14 0.334449
6622.32 0.501673
6622.50 0.862759
6622.68 1.85312
6622.77 3.08617
6622.86 5.69747
6622.93 9.09705
6623.00 11.3548
6623.07 9.09670
6623.14 5.69674
6623.21 3.55051
6623.28 2.34630
6623.41 1.20253
6623.69 0.488785
6623.96 0.272257
6624.24 0.180200
6625.33 0.0744959
6627.52 0.0403420
6629.71 0.0311087
6631.90 0.0263809
6636.28 0.0211276
6640.66 0.0182588
6649.41 0.0159650
6658.17 0.0169931
6666.93 0.0226748
6671.31 0.0291796
6675.69 0.0413949
6677.88 0.0517175
6680.07 0.0673632
6682.26 0.0926320
6684.45 0.137154
6686.64 0.226651
6687.73 0.309703
6688.83 0.449132
6689.92 0.709992
6690.47 0.934553
6691.02 1.28202
6691.56 1.85960
6692.11 2.90357
6692.38 3.76166
6692.66 5.00662
6692.93 6.86687
6693.20 9.62233
6693.60 15.3870
6694.00 19.2265
6694.40 15.3693
6694.80 9.60806
6695.08 6.76682
6695.36 4.89108
6695.65 3.64676
6695.93 2.80076
6696.50 1.77865
6697.06 1.22094
6697.63 0.886435
6698.20 0.672032
6699.33 0.423679
6700.46 0.291231
6701.59 0.212672
6703.86 0.128082
6706.12 0.0859779
6708.39 0.0620356
6710.65 0.0471322
6712.92 0.0372273
6717.45 0.0252859
6721.98 0.0186287
6731.04 0.0118460
6740.10 0.00864133
6749.16 0.00689964
6767.28 0.00528244
6785.40 0.00488399
6803.52 0.00563336
6812.58 0.00704235
6821.64 0.0110673
6826.17 0.0165137
6830.70 0.0314581
6832.97 0.0515961
6835.23 0.106460
6836.36 0.179142
6837.50 0.370033
6838.06 0.610948
6838.35 0.831176
6838.63 1.19600
6838.91 1.86340
6839.05 2.42687
6839.20 3.27441
6839.34 4.64593
6839.48 6.99747
6839.62 11.4394
6839.76 20.1684
6839.88 32.3062
6840.00 40.3022
6840.12 32.1977
6840.24 20.1682
6840.33 14.0499
6840.42 10.0532
6840.50 7.43693
6840.59 5.67718
6840.77 3.57761
6840.94 2.44217
6841.12 1.76721
6841.30 1.33599
6841.65 0.840158
6842.00 0.576345
6842.35 0.420675
6843.05 0.253443
6844.46 0.123797
6845.86 0.0758960
6848.68 0.0420213
6851.49 0.0333482
6854.30 0.0366120
6857.11 0.0592269
6858.52 0.0928191
6859.93 0.184220
6860.63 0.301576
6861.33 0.592827
6861.68 0.933582
6862.04 1.67437
6862.21 2.41855
6862.39 3.75695
6862.48 4.84755
6862.56 6.42581
6862.65 8.75705
6862.74 12.1453
6862.87 19.4297
6863.00 24.2864
6863.13 19.4291
6863.26 12.1448
6863.38 7.80074
6863.50 5.25298
6863.62 3.70546
6863.74 2.73740
6863.97 1.64840
6864.21 1.09617
6864.68 0.581594
6865.16 0.360377
6866.10 0.178723
6867.05 0.107891
6868.94 0.0533966
6870.84 0.0331220
6874.62 0.0179159
6878.41 0.0123294
6893.56 0.00689340
6908.71 0.00730695
6916.28 0.0119752
6920.07 0.0294847
6921.96 0.0928539
6922.43 0.152717
6922.91 0.304063
6923.14 0.486183
6923.38 0.897123
6923.50 1.33204
6923.62 2.15132
6923.73 3.93031
6923.79 5.62614
6923.85 8.35796
6923.93 13.3474
6924.00 16.7101
6924.07 13.3475
6924.15 8.35810
6924.21 5.69894
6924.26 3.99899
6924.38 2.20098
6924.50 1.36691
6924.61 0.925093
6924.84 0.501992
6925.08 0.314732
6925.54 0.158364
6926.00 0.0965526
6927.86 0.0311582
6931.57 0.0137799
6938.99 0.0118895
6946.41 0.0249995
6948.27 0.0388074
6950.12 0.0769400
6951.05 0.128015
6951.98 0.263923
6952.44 0.438009
6952.91 0.871487
6953.14 1.38068
6953.37 2.50084
6953.49 3.63479
6953.60 5.69728
6953.66 7.39715
6953.72 9.88383
6953.78 13.6063
6953.83 19.1281
6953.92 30.6281
6954.00 38.2447
6954.08 30.6281
6954.17 19.1282
6954.26 11.0596
6954.36 6.86451
6954.45 4.58953
6954.55 3.26825
6954.73 1.87646
6954.92 1.21082
6955.30 0.622460
6955.68 0.378871
6956.44 0.184658
6957.19 0.110631
6958.70 0.0548042
6960.22 0.0344701
6966.26 0.0145650
6972.31 0.0112855
6978.36 0.0106855
6990.46 0.0119643
7002.56 0.0155908
7014.66 0.0234811
7020.71 0.0311359
7026.75 0.0447189
7032.80 0.0726741
7035.83 0.0995259
7038.85 0.146618
7041.88 0.241143
7043.39 0.328943
7044.90 0.476911
7046.41 0.754968
7047.17 0.995450
7047.93 1.37055
7048.68 1.99849
7049.06 2.48108
7049.44 3.15124
7049.82 4.11035
7050.19 5.52629
7050.57 7.67044
7050.95 10.9202
7051.48 17.4698
7052.00 21.8223
7052.53 17.4535
7053.05 10.9175
7053.49 7.29078
7053.92 5.04807
7054.35 3.64385
7054.78 2.73144
7055.65 1.68045
7056.52 1.13107
7057.38 0.811651
7058.25 0.610703
7059.98 0.382629
7061.71 0.263441
7063.45 0.193728
7066.91 0.119889
7070.37 0.0839553
7073.84 0.0641094
7080.77 0.0448812
7087.70 0.0373689
7094.62 0.0352018
7108.48 0.0404822
7115.41 0.0479905
7122.34 0.0604391
7129.27 0.0812366
7136.20 0.118190
7143.13 0.191813
7146.59 0.259072
7150.05 0.370011
7153.52 0.571490
7155.25 0.739426
7156.98 0.991658
7158.71 1.39205
7160.45 2.07178
7161.31 2.59521
7162.18 3.31472
7163.04 4.31440
7163.91 5.69336
7165.46 9.11325
7167.00 11.3938
7168.55 9.10832
7170.09 5.68858
7171.49 3.65913
7172.88 2.45987
7174.28 1.73735
7175.68 1.28187
7178.47 0.772014
7181.26 0.512762
7184.06 0.364701
7186.85 0.272757
7192.43 0.170026
7198.02 0.118154
7203.61 0.0917198
7206.40 0.0873321
7209.19 0.0965154
7210.59 0.116933
7211.99 0.178435
7212.68 0.260757
7213.38 0.471217
7213.73 0.724012
7214.08 1.29520
7214.25 1.89325
7214.43 3.01366
7214.52 3.98300
7214.60 5.43656
7214.69 7.70832
7214.78 11.2790
7214.89 18.0494
7215.00 22.5096
7215.11 17.9843
7215.22 11.2780
7215.34 6.72116
7215.46 4.27745
7215.58 2.91499
7215.70 2.10693
7215.94 1.23985
7216.18 0.820839
7216.66 0.444989
7217.14 0.287556
7218.10 0.160378
7219.05 0.110825
7220.97 0.0716898
7222.88 0.0559408
7226.72 0.0420555
7230.55 0.0352877
7238.21 0.0281515
7245.87 0.0248880
7253.53 0.0248956
7257.36 0.0269037
7261.19 0.0317844
7265.02 0.0434648
7266.94 0.0553990
7268.85 0.0770438
7270.77 0.121889
7271.72 0.164689
7272.68 0.238592
7273.64 0.382865
7274.12 0.512563
7274.60 0.722625
7275.07 1.09601
7275.31 1.40095
7275.55 1.84674
7275.79 2.53568
7276.03 3.65061
7276.27 5.56423
7276.51 8.93474
7276.76 14.2924
7277.00 17.8649
7277.25 14.2911
7277.49 8.93385
7277.72 5.71322
7277.94 3.82977
7278.16 2.70074
7278.39 1.99070
7278.84 1.19850
7279.28 0.796640
7279.73 0.566944
7280.18 0.424629
7281.08 0.264890
7281.97 0.182147
7282.87 0.133978
7284.66 0.0829117
7286.46 0.0578071
7288.25 0.0436025
7291.83 0.0288722
7295.42 0.0217077
7299.01 0.0176426
7306.18 0.0133859
7313.35 0.0113678
7320.52 0.0105925
7327.69 0.0124470
7331.28 0.0222668
7333.07 0.0590710
7333.97 0.182547
7334.42 0.532080
7334.64 1.27651
7334.75 2.34963
7334.86 5.05249
7334.93 8.10172
7335.00 10.0998
7335.07 8.10177
7335.14 5.05255
7335.23 2.68133
7335.32 1.56883
7335.50 0.701421
7335.87 0.251551
7336.61 0.0812202
7338.07 0.0282835
7341.01 0.0134668
7346.89 0.00952542
7358.64 0.00887016
7370.39 0.00981516
7382.14 0.0123083
7393.89 0.0182053
7399.77 0.0242164
7405.64 0.0351889
7408.58 0.0443861
7411.52 0.0583221
7414.45 0.0808813
7417.39 0.120906
7418.86 0.153706
7420.33 0.202413
7421.80 0.279201
7423.27 0.410376
7424.74 0.662395
7425.47 0.885535
7426.20 1.24140
7426.94 1.85867
7427.31 2.34875
7427.67 3.05118
7428.04 4.09835
7428.41 5.72871
7428.77 8.37248
7429.14 12.7135
7429.57 20.3533
7430.00 25.4314
7430.22 23.9303
7430.43 20.3316
7430.86 12.7107
7431.27 7.94491
7431.69 5.22955
7432.10 3.63894
7432.52 2.65540
7432.93 2.01392
7433.34 1.57574
7434.17 1.03633
7435.00 0.731471
7435.83 0.543319
7437.48 0.333505
7439.14 0.225571
7440.80 0.162998
7442.45 0.123526
7444.11 0.0970516
7447.42 0.0648626
7450.73 0.0468072
7454.05 0.0356843
7457.36 0.0283603
7463.98 0.0196500
7470.61 0.0149164
7483.86 0.0104323
7497.11 0.00895693
7510.36 0.00953233
7516.98 0.0110264
7523.61 0.0146162
7530.23 0.0272825
7533.54 0.0628387
7534.37 0.0950592
7535.20 0.178796
7535.61 0.284943
7536.03 0.548642
7536.23 0.858864
7536.44 1.54421
7536.55 2.24638
7536.65 3.52022
7536.75 6.16436
7536.80 8.55191
7536.86 12.1105
7536.93 19.4004
7537.00 24.1993
7537.07 19.4010
7537.14 12.1117
7537.22 7.32597
7537.30 4.69016
7537.37 3.20537
7537.45 2.32209
7537.60 1.36318
7537.75 0.898686
7538.05 0.480689
7538.36 0.306316
7538.96 0.168118
7539.57 0.117607
7540.78 0.0866256
7541.99 0.0880166
7543.20 0.111926
7544.41 0.184230
7545.02 0.277591
7545.63 0.513821
7545.93 0.800589
7546.23 1.46737
7546.38 2.19365
7546.54 3.62378
7546.61 4.92216
7546.69 6.96986
7546.76 10.4586
7546.84 16.4577
7546.92 26.2901
7547.00 32.8331
7547.08 26.2925
7547.16 16.4626
7547.23 11.0198
7547.30 7.64354
7547.36 5.53296
7547.43 4.18020
7547.56 2.59721
7547.70 1.77720
7547.96 0.999409
7548.23 0.661850
7548.76 0.390788
7549.30 0.296194
7550.37 0.261366
7551.43 0.321383
7552.50 0.494637
7553.04 0.668232
7553.57 0.970065
7554.10 1.55813
7554.37 2.08295
7554.64 2.92742
7554.90 4.40500
7555.17 7.30764
7555.30 9.91050
7555.44 13.9994
7555.57 20.7633
7555.70 32.1417
7555.85 51.5082
7556.00 64.3121
7556.15 51.3670
7556.30 32.1392
7556.41 21.9104
7556.53 15.4521
7556.64 11.2783
7556.76 8.54218
7556.99 5.31684
7557.22 3.60156
7557.45 2.59290
7557.68 1.95323
7558.14 1.22240
7558.61 0.836246
7559.07 0.609019
7559.99 0.365538
7560.91 0.244936
7561.84 0.176557
7563.68 0.105952
7565.53 0.0722299
7567.37 0.0537472
7571.07 0.0361786
7574.76 0.0310053
7578.45 0.0373518
7580.30 0.0512926
7582.14 0.0931418
7583.07 0.150416
7583.99 0.304100
7584.45 0.501612
7584.91 0.992831
7585.14 1.57145
7585.37 2.84659
7585.49 4.14724
7585.61 6.49744
7585.66 8.45479
7585.72 11.2691
7585.78 15.5595
7585.84 21.9113
7585.92 35.1159
7586.00 43.8217
7586.08 35.1158
7586.16 21.9113
7586.23 14.9426
7586.29 10.5267
7586.36 7.69655
7586.42 5.82399
7586.55 3.62708
7586.68 2.45816
7586.93 1.33447
7587.19 0.835430
7587.70 0.417545
7588.21 0.251853
7589.24 0.123316
7590.26 0.0753229
7592.31 0.0393489
7594.36 0.0261615
7602.55 0.0127609
7618.94 0.0110306
7627.14 0.0138883
7635.33 0.0226707
7639.43 0.0344044
7643.53 0.0658965
7645.58 0.107580
7646.60 0.147840
7647.62 0.219023
7648.65 0.364007
7649.16 0.500748
7649.67 0.735336
7650.18 1.18868
7650.44 1.59268
7650.70 2.24306
7650.95 3.38308
7651.21 5.63106
7651.34 7.64640
7651.46 10.8516
7651.59 16.1991
7651.72 25.2895
7651.86 40.4573
7652.00 50.5700
7652.14 40.4565
7652.28 25.2897
7652.40 16.5279
7652.52 11.2771
7652.64 8.05326
7652.77 5.98921
7653.01 3.63923
7653.25 2.43404
7653.49 1.73694
7653.74 1.30306
7654.22 0.812502
7654.71 0.557905
7655.19 0.409633
7656.16 0.253858
7658.10 0.139438
7660.04 0.106974
7661.98 0.110743
7663.92 0.165086
7664.89 0.247107
7665.86 0.467683
7666.34 0.747187
7666.58 1.00398
7666.83 1.42788
7667.07 2.20727
7667.19 2.86037
7667.31 3.84946
7667.43 5.43772
7667.55 8.17919
7667.67 13.3166
7667.80 23.5308
7667.90 37.6720
7668.00 47.0278
7668.10 37.6719
7668.20 23.5313
7668.33 13.3762
7668.45 8.24114
7668.57 5.47327
7668.69 3.88216
7668.81 2.88245
7668.93 2.22777
7669.17 1.44499
7669.41 1.01725
7669.65 0.759301
7670.13 0.478287
7671.10 0.258079
7672.06 0.178498
7673.99 0.132274
7675.92 0.142861
7676.88 0.165158
7677.84 0.204038
7678.81 0.270701
7679.77 0.391304
7680.74 0.635739
7681.22 0.862463
7681.70 1.24213
7682.18 1.94684
7682.42 2.54784
7682.66 3.47140
7682.91 4.98475
7683.03 6.12909
7683.15 7.67478
7683.27 9.85210
7683.39 12.9436
7683.51 17.4899
7683.63 24.0420
7683.72 30.7775
7683.81 38.4795
7684.00 48.1128
7684.09 45.2777
7684.19 38.4772
7684.37 24.0393
7684.51 16.8245
7684.64 12.0857
7684.78 8.96826
7684.91 6.87578
7685.18 4.34688
7685.45 2.97777
7685.72 2.15805
7685.99 1.63504
7686.53 1.02958
7687.07 0.707704
7687.61 0.516848
7688.68 0.311706
7689.76 0.209449
7690.84 0.151240
7691.92 0.114952
7692.99 0.0908090
7695.15 0.0615980
7697.31 0.0452789
7701.62 0.0287213
7705.93 0.0213618
7710.24 0.0190356
7714.55 0.0278712
7716.71 0.0700146
7717.78 0.218025
7718.05 0.350107
7718.32 0.659747
7718.46 1.00024
7718.59 1.67659
7718.73 3.30289
7718.79 5.00781
7718.86 8.03394
7718.93 12.8167
7719.00 16.0536
7719.07 12.8167
7719.14 8.03396
7719.20 5.14304
7719.27 3.46060
7719.39 1.80751
7719.52 1.09120
7719.64 0.726572
7719.90 0.387506
7720.15 0.242147
7721.16 0.0761171
7723.18 0.0269397
7727.22 0.0129653
7735.30 0.00866478
7743.38 0.00787650
7751.46 0.00830822
7759.53 0.0103535
7767.61 0.0170470
7771.65 0.0265346
7775.69 0.0531881
7777.71 0.0895137
7779.73 0.188788
7780.74 0.320153
7781.25 0.445712
7781.75 0.663904
7782.26 1.09375
7782.51 1.48558
7782.76 2.12744
7783.01 3.29379
7783.14 4.25974
7783.27 5.70527
7783.39 7.98873
7783.52 11.8388
7783.64 18.8104
7783.77 32.0962
7783.89 51.2880
7784.00 64.2049
7784.12 51.2869
7784.23 32.0957
7784.31 22.7823
7784.39 16.6055
7784.47 12.4187
7784.55 9.58854
7784.71 6.12289
7784.86 4.22338
7785.02 3.07166
7785.18 2.32987
7785.50 1.47045
7785.82 1.00956
7786.13 0.736293
7786.77 0.441165
7787.40 0.294114
7788.04 0.210482
7789.31 0.123896
7791.85 0.0592250
7794.39 0.0358215
7799.47 0.0188294
7804.55 0.0129299
7814.71 0.00930429
7819.79 0.00981865
7822.33 0.0138538
7823.60 0.0285824
7824.23 0.0750711
7824.55 0.192790
7824.71 0.406718
7824.87 1.17537
7825.00 2.34323
7825.13 1.17539
7825.25 0.517788
7825.37 0.274079
7825.60 0.114611
7826.07 0.0427570
7827.02 0.0181004
7828.90 0.0109090
7832.67 0.00918428
7840.20 0.00965672
7847.73 0.0114386
7855.27 0.0149110
7862.80 0.0222076
7866.57 0.0292740
7870.34 0.0418311
7874.10 0.0677433
7875.99 0.0927100
7877.87 0.136640
7879.75 0.225352
7880.70 0.308329
7881.64 0.449032
7882.58 0.716736
7883.05 0.951135
7883.52 1.32149
7883.99 1.95308
7884.46 3.14586
7884.70 4.17018
7884.93 5.71899
7885.17 8.14729
7885.40 11.9777
7885.70 19.1612
7886.00 23.9241
7886.30 19.1341
7886.60 11.9564
7886.86 7.81941
7887.12 5.33009
7887.38 3.80374
7887.64 2.82753
7888.15 1.72044
7888.67 1.15023
7889.19 0.821816
7889.71 0.616543
7890.74 0.385011
7891.78 0.264729
7892.82 0.194733
7894.89 0.121049
7896.96 0.0856298
7899.03 0.0665661
7903.18 0.0501147
7907.32 0.0492120
7911.47 0.0672390
7913.54 0.0961550
7915.61 0.177073
7916.65 0.284313
7917.68 0.564015
7918.20 0.912097
7918.46 1.22729
7918.72 1.74337
7918.98 2.67103
7919.11 3.44039
7919.24 4.57596
7919.37 6.36931
7919.50 9.33466
7919.63 14.6575
7919.76 24.4733
7919.88 39.1672
7920.00 48.9199
7920.12 39.1665
7920.24 24.4732
7920.33 17.6191
7920.41 12.9381
7920.57 7.59744
7920.74 4.89490
7920.90 3.39901
7921.06 2.48643
7921.23 1.89898
7921.55 1.21207
7921.88 0.841885
7922.20 0.621700
7922.86 0.383365
7924.16 0.196933
7925.47 0.127581
7928.08 0.0776282
7930.70 0.0622490
7935.92 0.0598980
7941.15 0.0762368
7946.37 0.117386
7948.99 0.157132
7951.60 0.224527
7954.21 0.350823
7955.52 0.459176
7956.82 0.626569
7958.13 0.903045
7959.44 1.39913
7960.09 1.80262
7960.74 2.38556
7961.39 3.24497
7962.05 4.50894
7963.02 7.21119
7964.00 9.00863
7964.98 7.20584
7965.95 4.50410
7966.72 3.06135
7967.49 2.14867
7968.26 1.56670
7969.03 1.18318
7970.57 0.735064
7972.11 0.497559
7973.65 0.358126
7975.18 0.269897
7978.26 0.169062
7981.34 0.115966
7984.41 0.0846870
7990.57 0.0512163
7996.72 0.0346289
8002.87 0.0252139
8009.03 0.0193592
8015.18 0.0154733
8027.48 0.0108050
8039.79 0.00823608
8064.40 0.00576356
8089.01 0.00492094
8113.62 0.00521525
8125.93 0.00606048
8138.24 0.00813807
8144.39 0.0103677
8150.54 0.0149874
8156.69 0.0307725
8159.77 0.0766832
8160.54 0.118891
8161.31 0.228495
8161.69 0.366559
8162.08 0.703012
8162.27 1.09252
8162.46 1.92316
8162.56 2.73850
8162.65 4.16972
8162.75 6.92024
8162.80 9.23879
8162.85 12.5581
8162.92 20.0779
8163.00 25.0912
8163.08 20.0783
8163.15 12.5590
8163.22 8.16982
8163.29 5.54054
8163.43 2.92454
8163.56 1.77859
8163.70 1.19186
8163.97 0.645469
8164.24 0.409613
8164.79 0.216925
8165.33 0.143010
8166.42 0.0895720
8167.51 0.0740445
8169.68 0.0757265
8171.86 0.101603
8172.95 0.126228
8174.03 0.164434
8175.12 0.226575
8176.21 0.336073
8177.30 0.554743
8177.84 0.756011
8178.39 1.09116
8178.93 1.70881
8179.20 2.23196
8179.47 3.03042
8179.75 4.32647
8179.88 5.29295
8180.02 6.59854
8180.15 8.40361
8180.29 10.9554
8180.43 14.6198
8180.56 19.8100
8180.78 31.7400
8181.00 39.6520
8181.11 37.3049
8181.22 31.6803
8181.44 19.8081
8181.60 13.9008
8181.75 10.0268
8181.91 7.46396
8182.07 5.72520
8182.38 3.63172
8182.70 2.48928
8183.01 1.80604
8183.32 1.36765
8183.95 0.860418
8184.58 0.590061
8185.21 0.429961
8185.84 0.327362
8186.47 0.257737
8187.72 0.172011
8188.98 0.123341
8190.24 0.0930465
8191.49 0.0729500
8194.00 0.0487542
8196.52 0.0353081
8199.03 0.0270779
8201.54 0.0216853
8206.57 0.0152999
8211.59 0.0118454
8221.65 0.00856978
8231.70 0.00742115
8241.75 0.00763771
8251.80 0.0117608
8256.83 0.0281339
8259.34 0.0889740
8259.97 0.147652
8260.60 0.300548
8260.91 0.490750
8261.22 0.944762
8261.38 1.45109
8261.54 2.48991
8261.62 3.47001
8261.69 5.08069
8261.77 7.98258
8261.85 13.2897
8261.93 21.3028
8262.00 26.5795
8262.07 21.3029
8262.15 13.2898
8262.21 8.82179
8262.27 6.05004
8262.40 3.23160
8262.53 1.97216
8262.65 1.31975
8262.90 0.706228
8263.16 0.439574
8263.66 0.218464
8264.16 0.131719
8265.17 0.0650310
8266.17 0.0403499
8270.20 0.0157030
8278.25 0.0100741
8286.30 0.0102772
8294.35 0.0123040
8302.39 0.0169361
8306.42 0.0213971
8310.44 0.0292443
8314.47 0.0453440
8316.48 0.0608668
8318.49 0.0883709
8320.51 0.144729
8321.51 0.198376
8322.52 0.291404
8323.52 0.474342
8324.03 0.640487
8324.53 0.913491
8325.03 1.40693
8325.28 1.81762
8325.54 2.42961
8325.79 3.40004
8326.04 5.02886
8326.16 6.27908
8326.29 7.98814
8326.42 10.3471
8326.54 13.5483
8326.77 21.7026
8327.00 27.1125
8327.23 21.6637
8327.46 13.5473
8327.70 8.18083
8327.94 5.25660
8328.17 3.59875
8328.41 2.59730
8328.65 1.95287
8328.89 1.52029
8329.37 0.994393
8329.84 0.700356
8330.32 0.520872
8331.27 0.322354
8332.22 0.221085
8333.18 0.162792
8335.08 0.102084
8336.99 0.0730883
8338.89 0.0573900
8342.70 0.0428038
8346.51 0.0379284
8350.33 0.0376823
8357.95 0.0466112
8361.76 0.0565160
8365.57 0.0723441
8369.38 0.0984218
8373.19 0.144613
8377.00 0.236964
8378.91 0.321920
8380.81 0.463085
8382.72 0.722683
8383.67 0.941944
8384.62 1.27519
8385.58 1.81433
8386.05 2.21430
8386.53 2.75248
8387.01 3.49482
8387.48 4.53633
8387.96 6.02166
8388.43 8.12828
8389.22 13.0008
8390.00 16.2470
8390.78 12.9978
8391.57 8.12530
8392.16 5.58651
8392.76 3.95731
8393.36 2.90522
8393.96 2.20505
8395.15 1.37826
8396.34 0.936330
8397.54 0.675246
8398.73 0.509396
8401.12 0.319161
8403.51 0.218696
8405.90 0.159454
8408.29 0.121646
8410.68 0.0961020
8415.45 0.0648436
8420.23 0.0472714
8425.01 0.0365432
8429.78 0.0296696
8439.34 0.0224800
8448.89 0.0216907
8453.67 0.0249786
8458.45 0.0351772
8463.22 0.0727415
8465.61 0.139893
8466.81 0.223952
8468.00 0.426727
8468.00 0.641790
10000.0 0.584301
12500.0 0.513415
15000.0 0.460162
17000.0 0.426891
20000.0 0.386345
25000.0 0.335486
30000.0 0.297574
35000.0 0.267980
40000.0 0.244457
50000.0 0.208976
60000.0 0.183622
70000.0 0.164796
80000.0 0.150171
99999.9 0.129147
100000 0.129357
150000 0.100771
153097 0.0996197
153097 0.0996195
176549 0.0876375
200000 0.0783407
250000 0.0686489
284338 0.0646434
284338 0.0646434
300000 0.0628571
350000 0.0600608
400000 0.0577393
500000 0.0540584
520106 0.0536826
542593 0.0506670
565080 0.0479332
587566 0.0454452
610053 0.0431727
632540 0.0410900
655027 0.0391755
677513 0.0374103
700000 0.0357785
721866 0.0352880
743731 0.0348185
757798 0.0344368
771866 0.0340662
785933 0.0337062
800000 0.0333563
819704 0.0330308
839409 0.0327161
859113 0.0324116
878817 0.0321168
893489 0.0312798
900000 0.0309690
915321 0.0303760
930643 0.0298040
945964 0.0292518
961285 0.0287184
980643 0.0279943
1.00000E+06 0.0273020
1.02362E+06 0.0268417
1.04724E+06 0.0263995
1.07086E+06 0.0259741
1.09448E+06 0.0255646
1.11810E+06 0.0251702
1.14172E+06 0.0247899
1.16534E+06 0.0244229
1.18896E+06 0.0240686
1.21948E+06 0.0236154
1.25000E+06 0.0231817
1.27969E+06 0.0229241
1.30937E+06 0.0226752
1.30937E+06 0.0226752
1.33320E+06 0.0223571
1.35703E+06 0.0220490
1.38086E+06 0.0217504
1.40469E+06 0.0214609
1.42852E+06 0.0211800
1.45234E+06 0.0209073
1.47617E+06 0.0206425
1.50000E+06 0.0203852
1.53125E+06 0.0198479
1.56250E+06 0.0193351
1.59375E+06 0.0188454
1.62500E+06 0.0183772
1.65625E+06 0.0179292
1.68750E+06 0.0175002
1.71875E+06 0.0170891
1.75000E+06 0.0166948
1.78125E+06 0.0162973
1.81250E+06 0.0159159
1.84375E+06 0.0155497
1.87500E+06 0.0151979
1.90625E+06 0.0148597
1.93750E+06 0.0145343
1.96875E+06 0.0142211
2.00000E+06 0.0139194
2.05619E+06 0.0133530
2.11237E+06 0.0128241
2.16856E+06 0.0123291
2.22475E+06 0.0118653
2.28093E+06 0.0114297
2.33712E+06 0.0110202
2.39330E+06 0.0106346
2.44949E+06 0.0102710
2.51830E+06 0.00985309
2.58712E+06 0.00946277
2.65593E+06 0.00909756
2.72475E+06 0.00875527
2.79356E+06 0.00843391
2.86237E+06 0.00813174
2.93119E+06 0.00784720
3.00000E+06 0.00757888
3.11603E+06 0.00707613
3.23205E+06 0.00662334
3.34808E+06 0.00621400
3.46410E+06 0.00584264
3.52868E+06 0.00565065
3.59326E+06 0.00546829
3.65784E+06 0.00529491
3.72242E+06 0.00512991
3.79182E+06 0.00496135
3.86121E+06 0.00480124
3.93061E+06 0.00464901
4.00000E+06 0.00450414
4.09160E+06 0.00429254
4.18320E+06 0.00409525
4.27480E+06 0.00391101
4.36640E+06 0.00373870
4.46420E+06 0.00356678
4.56200E+06 0.00340624
4.66419E+06 0.00324960
4.76637E+06 0.00310333
4.88319E+06 0.00294768
5.00000E+06 0.00280325
5.23862E+06 0.00250359
5.47723E+06 0.00224725
5.60792E+06 0.00212234
5.73862E+06 0.00200702
5.86931E+06 0.00190036
6.00000E+06 0.00180153
6.02135E+06 0.00178505
6.04270E+06 0.00176879
6.06405E+06 0.00175272
6.08539E+06 0.00173686
6.10674E+06 0.00172120
6.12809E+06 0.00170573
6.14944E+06 0.00169045
6.17079E+06 0.00167537
6.19214E+06 0.00166047
6.21349E+06 0.00164575
6.23483E+06 0.00163121
6.25618E+06 0.00161685
6.27753E+06 0.00160266
6.29888E+06 0.00158865
6.32023E+06 0.00157481
6.34158E+06 0.00156113
6.36292E+06 0.00154762
6.38427E+06 0.00153427
6.40562E+06 0.00152107
6.42697E+06 0.00150804
6.44832E+06 0.00149516
6.46967E+06 0.00148243
6.49102E+06 0.00146985
6.51236E+06 0.00145742
6.53371E+06 0.00144513
6.55506E+06 0.00143299
6.57641E+06 0.00142098
6.59776E+06 0.00140912
6.61911E+06 0.00139739
6.64045E+06 0.00138580
6.66180E+06 0.00137434
6.68315E+06 0.00136302
6.76236E+06 0.00132210
6.84158E+06 0.00128286
6.92079E+06 0.00124522
7.00000E+06 0.00120910
7.10394E+06 0.00117165
7.19878E+06 0.00113894
7.29363E+06 0.00110755
7.38847E+06 0.00107742
7.48331E+06 0.00104848
7.61248E+06 0.00102336
7.74166E+06 0.000999249
7.87083E+06 0.000976092
8.00000E+06 0.000953835
8.01517E+06 0.000954222
8.03033E+06 0.000954609
8.04550E+06 0.000954996
8.06066E+06 0.000955381
8.07583E+06 0.000955766
8.09099E+06 0.000956151
8.10616E+06 0.000956535
8.12132E+06 0.000956918
8.13649E+06 0.000957301
8.15165E+06 0.000957683
8.16682E+06 0.000958065
8.18198E+06 0.000958446
8.19715E+06 0.000958827
8.21231E+06 0.000959207
8.22748E+06 0.000959587
8.24264E+06 0.000959966
8.25781E+06 0.000960344
8.27297E+06 0.000960722
8.28814E+06 0.000961099
8.30330E+06 0.000961476
8.31847E+06 0.000961852
8.33363E+06 0.000962228
8.34880E+06 0.000962603
8.36396E+06 0.000962978
8.37913E+06 0.000963352
8.39429E+06 0.000963726
8.40946E+06 0.000964099
8.42462E+06 0.000964471
8.43979E+06 0.000964843
8.45495E+06 0.000965215
8.47012E+06 0.000965586
8.48528E+06 0.000965956
8.50137E+06 0.000967871
8.51745E+06 0.000969786
8.53354E+06 0.000971701
8.54962E+06 0.000973616
8.56571E+06 0.000975532
8.58179E+06 0.000977447
8.59788E+06 0.000979363
8.61396E+06 0.000981279
8.63005E+06 0.000983195
8.64613E+06 0.000985111
8.66222E+06 0.000987028
8.67830E+06 0.000988944
8.69439E+06 0.000990861
8.71047E+06 0.000992778
8.72656E+06 0.000994695
8.74264E+06 0.000996612
8.75873E+06 0.000998530
8.77481E+06 0.00100045
8.79090E+06 0.00100237
8.80698E+06 0.00100428
8.82307E+06 0.00100620
8.83915E+06 0.00100812
8.85524E+06 0.00101004
8.87132E+06 0.00101196
8.88741E+06 0.00101388
8.90349E+06 0.00101579
8.91958E+06 0.00101771
8.93566E+06 0.00101963
8.95175E+06 0.00102155
8.96783E+06 0.00102347
8.98392E+06 0.00102539
9.00000E+06 0.00102731
9.07808E+06 0.00104029
9.15615E+06 0.00105332
9.23882E+06 0.00106717
9.32149E+06 0.00108108
9.40416E+06 0.00109505
9.48683E+06 0.00110907
9.55098E+06 0.00112289
9.61512E+06 0.00113679
9.67927E+06 0.00115076
9.74342E+06 0.00116481
9.80756E+06 0.00117894
9.87171E+06 0.00119315
9.93585E+06 0.00120744
1.00000E+07 0.00122180
1.00542E+07 0.00122299
1.01083E+07 0.00122417
1.01239E+07 0.00122451
1.01395E+07 0.00122485
1.01551E+07 0.00122518
1.01707E+07 0.00122552
1.01863E+07 0.00122586
1.02019E+07 0.00122620
1.02175E+07 0.00122653
1.02331E+07 0.00122687
1.02487E+07 0.00122721
1.02643E+07 0.00122754
1.02799E+07 0.00122788
1.02955E+07 0.00122821
1.03111E+07 0.00122855
1.03267E+07 0.00122888
1.03423E+07 0.00122921
1.03579E+07 0.00122955
1.03735E+07 0.00122988
1.03891E+07 0.00123021
1.04047E+07 0.00123054
1.04202E+07 0.00123087
1.04358E+07 0.00123120
1.04514E+07 0.00123154
1.04670E+07 0.00123187
1.04826E+07 0.00123220
1.04982E+07 0.00123252
1.05138E+07 0.00123285
1.05294E+07 0.00123318
1.05450E+07 0.00123351
1.05606E+07 0.00123384
1.05762E+07 0.00123416
1.05918E+07 0.00123449
1.06074E+07 0.00123482
1.06074E+07 0.00123482
1.06320E+07 0.00123533
1.06565E+07 0.00123584
1.06811E+07 0.00123635
1.07056E+07 0.00123686
1.07301E+07 0.00123737
1.07547E+07 0.00123788
1.07792E+07 0.00123839
1.08037E+07 0.00123889
1.08283E+07 0.00123940
1.08528E+07 0.00123990
1.08773E+07 0.00124041
1.09019E+07 0.00124091
1.09264E+07 0.00124141
1.09509E+07 0.00124191
1.09755E+07 0.00124241
1.10000E+07 0.00124291
1.10406E+07 0.00123944
1.11006E+07 0.00123437
1.11605E+07 0.00122934
1.12205E+07 0.00122436
1.12805E+07 0.00121942
1.13404E+07 0.00121453
1.14004E+07 0.00120969
1.14603E+07 0.00120489
1.15203E+07 0.00120013
1.15803E+07 0.00119542
1.16402E+07 0.00119075
1.17002E+07 0.00118612
1.17602E+07 0.00118153
1.18201E+07 0.00117699
1.18801E+07 0.00117248
1.19400E+07 0.00116802
1.20000E+07 0.00116359
1.21250E+07 0.00115114
1.22500E+07 0.00113896
1.23750E+07 0.00112702
1.25000E+07 0.00111533
1.26250E+07 0.00110387
1.27500E+07 0.00109264
1.28750E+07 0.00108163
1.30000E+07 0.00107084
1.30625E+07 0.00106675
1.31250E+07 0.00106270
1.31875E+07 0.00105868
1.32500E+07 0.00105470
1.33125E+07 0.00105075
1.33750E+07 0.00104683
1.34375E+07 0.00104294
1.35000E+07 0.00103909
1.35625E+07 0.00103527
1.36250E+07 0.00103148
1.36875E+07 0.00102773
1.37500E+07 0.00102400
1.38125E+07 0.00102030
1.38750E+07 0.00101664
1.39375E+07 0.00101300
1.40000E+07 0.00100939
1.40625E+07 0.00100720
1.41250E+07 0.00100502
1.41875E+07 0.00100286
1.42500E+07 0.00100071
1.43125E+07 0.000998579
1.43750E+07 0.000996459
1.44375E+07 0.000994352
1.45000E+07 0.000992259
1.46250E+07 0.000988113
1.47500E+07 0.000984019
1.48750E+07 0.000979977
1.50000E+07 0.000975985
1.51037E+07 0.000974668
1.52074E+07 0.000973362
1.53111E+07 0.000972066
1.54148E+07 0.000970780
1.55611E+07 0.000968985
1.57074E+07 0.000967209
1.58537E+07 0.000965453
1.60000E+07 0.000963716
1.60893E+07 0.000964047
1.61787E+07 0.000964375
1.62680E+07 0.000964702
1.63573E+07 0.000965028
1.64466E+07 0.000965352
1.65360E+07 0.000965674
1.66253E+07 0.000965994
1.67146E+07 0.000966313
1.67324E+07 0.000966376
1.67503E+07 0.000966440
1.67681E+07 0.000966503
1.67860E+07 0.000966566
1.68038E+07 0.000966630
1.68216E+07 0.000966693
1.68395E+07 0.000966756
1.68573E+07 0.000966819
1.68751E+07 0.000966882
1.68930E+07 0.000966945
1.69108E+07 0.000967008
1.69287E+07 0.000967071
1.69465E+07 0.000967133
1.69643E+07 0.000967196
1.69822E+07 0.000967259
1.70000E+07 0.000967321
1.70625E+07 0.000968353
1.71250E+07 0.000969383
1.71875E+07 0.000970410
1.72500E+07 0.000971435
1.73125E+07 0.000972456
1.73750E+07 0.000973476
1.74375E+07 0.000974492
1.75000E+07 0.000975506
1.75625E+07 0.000976518
1.76250E+07 0.000977526
1.76875E+07 0.000978533
1.77500E+07 0.000979537
1.78125E+07 0.000980538
1.78750E+07 0.000981537
1.79375E+07 0.000982533
1.80000E+07 0.000983527
1.81250E+07 0.000986835
1.82500E+07 0.000990131
1.83750E+07 0.000993416
1.85000E+07 0.000996689
1.86250E+07 0.000999951
1.87500E+07 0.00100320
1.88750E+07 0.00100644
1.90000E+07 0.00100967
1.91384E+07 0.00101447
1.92768E+07 0.00101925
1.94152E+07 0.00102402
1.95536E+07 0.00102878
1.97768E+07 0.00103644
2.00000E+07 0.00104406