Zr-90(n,tot) ENDF/B-VII.1
Energy(eV) XS(b)
1.00000E-05 5.99926
1.25000E-05 5.94630
1.50000E-05 5.90721
2.00000E-05 5.85234
2.75000E-05 5.80013
3.50000E-05 5.76577
4.25000E-05 5.74096
5.00000E-05 5.72197
6.25000E-05 5.69829
7.50000E-05 5.68081
0.000100000 5.65627
0.000125000 5.63952
0.000150000 5.62716
0.000200000 5.60981
0.000275000 5.59330
0.000350000 5.58243
0.000425000 5.57459
0.000500000 5.56858
0.000625000 5.56109
0.000750000 5.55556
0.00100000 5.54780
0.00125000 5.54251
0.00150000 5.53860
0.00200000 5.53311
0.00275000 5.52789
0.00350000 5.52445
0.00425000 5.52197
0.00500000 5.52007
0.00625000 5.51771
0.00750000 5.51596
0.0100000 5.51350
0.0125000 5.51183
0.0150000 5.51059
0.0200000 5.50886
0.0253000 5.50761
0.0314750 5.50658
0.0376500 5.50581
0.0500000 5.50473
0.0625000 5.50398
0.0750000 5.50343
0.100000 5.50265
0.125000 5.50212
0.150000 5.50172
0.200000 5.50117
0.275000 5.50064
0.350000 5.50029
0.500000 5.49984
0.750000 5.49941
1.00000 5.49915
1.50000 5.49882
2.00000 5.49860
2.75000 5.49838
3.50000 5.49821
5.00000 5.49795
7.50000 5.49761
10.0000 5.49733
15.0000 5.49684
20.0000 5.49638
27.5000 5.49571
35.0000 5.49507
50.0000 5.49380
75.0000 5.49170
100.000 5.48960
150.000 5.48536
200.000 5.48107
275.000 5.47451
350.000 5.46778
500.000 5.45378
750.000 5.42859
1000.00 5.40059
1500.00 5.33296
2000.00 5.24023
2461.74 5.11051
2692.61 5.01431
2923.48 4.87742
3154.35 4.66156
3269.79 4.49636
3385.22 4.25789
3442.94 4.09337
3500.66 3.88079
3558.37 3.59525
3616.09 3.19168
3644.95 2.92075
3673.81 2.58118
3702.67 2.14600
3731.53 1.57774
3745.96 1.23135
3760.38 0.843301
3774.81 0.434778
3782.03 0.245292
3785.64 0.163412
3789.24 0.0966071
3792.85 0.0523204
3796.46 0.0412398
3798.26 0.0527302
3800.07 0.0788102
3801.87 0.122566
3803.67 0.187726
3805.48 0.278999
3807.28 0.402086
3810.89 0.773865
3814.50 1.38496
3818.10 2.36811
3821.71 3.94735
3825.32 6.51576
3828.92 10.8079
3832.53 18.2904
3836.14 32.1631
3837.94 43.5758
3839.75 60.1613
3841.55 85.0138
3843.35 123.389
3845.16 184.337
3846.96 281.575
3849.48 496.027
3852.00 679.316
3854.52 592.626
3857.04 402.521
3859.40 275.193
3861.75 196.714
3864.11 147.811
3866.46 115.971
3871.17 78.7395
3875.88 58.6252
3880.60 46.4497
3885.31 38.4525
3894.73 28.7948
3904.15 23.2924
3913.57 19.7941
3922.99 17.3955
3932.41 15.6592
3951.26 13.3287
3960.68 12.5134
3970.10 11.8493
3979.52 11.3014
3984.23 11.0647
3988.94 10.8529
3993.65 10.6723
3996.01 10.6012
3998.36 10.5557
3999.54 10.5510
4000.72 10.5686
4001.90 10.6266
4003.08 10.7672
4003.66 10.8988
4004.25 11.1079
4004.84 11.4571
4005.43 12.0857
4005.73 12.6041
4006.02 13.3693
4006.31 14.5710
4006.61 16.5899
4006.90 20.3859
4007.05 23.6427
4007.20 28.6892
4007.34 37.0542
4007.49 52.1769
4007.57 64.6646
4007.64 82.5790
4007.71 109.578
4007.79 149.102
4007.89 232.948
4008.00 288.159
4008.11 232.110
4008.22 149.086
4008.34 90.4858
4008.46 60.2560
4008.58 43.7369
4008.70 34.0090
4008.82 27.8807
4008.94 23.7994
4009.18 18.9001
4009.43 16.1880
4009.67 14.5471
4010.15 12.7377
4010.64 11.8111
4011.12 11.2730
4011.61 10.9298
4012.09 10.6954
4013.06 10.3995
4014.03 10.2211
4015.00 10.1000
4015.96 10.0104
4017.90 9.88069
4019.84 9.78456
4023.71 9.63571
4027.59 9.51328
4031.46 9.40428
4039.21 9.21003
4046.96 9.03736
4054.71 8.88100
4070.20 8.60674
4085.70 8.37307
4101.20 8.17128
4132.19 7.84007
4163.18 7.57942
4194.18 7.36887
4256.16 7.04933
4318.15 6.81798
4380.14 6.64238
4504.11 6.39249
4628.08 6.22197
4752.05 6.09705
5000.00 5.92334
5281.18 5.79157
5562.36 5.69519
5843.54 5.61847
6124.72 5.55354
6405.90 5.49619
6546.49 5.46972
6687.08 5.44481
6757.37 5.43318
6827.67 5.42246
6897.96 5.41333
6968.26 5.40748
7003.41 5.40705
7038.55 5.40992
7073.70 5.41897
7108.85 5.44117
7126.42 5.46234
7144.00 5.49671
7161.57 5.55575
7179.14 5.66660
7187.93 5.76135
7196.72 5.90706
7205.50 6.14687
7214.29 6.58124
7218.68 6.94381
7223.08 7.49124
7227.47 8.37372
7231.86 9.92940
7234.06 11.1954
7236.26 13.0621
7238.45 15.9762
7240.65 20.8837
7242.85 30.0963
7243.95 38.0430
7245.04 50.4038
7246.14 71.0341
7247.24 108.633
7247.79 139.706
7248.34 185.280
7248.89 253.737
7249.44 356.573
7250.22 568.226
7251.00 709.714
7251.78 568.665
7252.56 357.251
7253.34 222.154
7254.12 146.505
7254.90 102.791
7255.68 76.0820
7256.46 58.7720
7257.24 47.0292
7258.80 32.6423
7260.36 24.5539
7261.92 19.5783
7265.04 14.0449
7268.15 11.2054
7271.27 9.55912
7274.39 8.52067
7277.51 7.82383
7283.74 6.97557
7289.98 6.49815
7296.22 6.20276
7302.45 6.00712
7314.92 5.77161
7327.40 5.64000
7339.87 5.55854
7352.34 5.50423
7377.28 5.43765
7402.23 5.39888
7427.17 5.37346
7452.12 5.35525
7502.00 5.32994
7551.89 5.31199
7601.78 5.29758
7651.67 5.28506
7751.44 5.26297
7851.22 5.24279
8050.77 5.20478
8250.32 5.16857
8350.10 5.15164
8449.88 5.13683
8499.76 5.13115
8549.65 5.12782
8599.54 5.12897
8649.43 5.13977
8674.37 5.15259
8699.32 5.17513
8724.26 5.21583
8749.20 5.29453
8761.68 5.36261
8774.15 5.46772
8786.62 5.64078
8799.09 5.95310
8805.33 6.21219
8811.56 6.60078
8817.80 7.22075
8824.04 8.29724
8830.27 10.4111
8833.39 12.3242
8836.51 15.4527
8839.63 21.0619
8841.19 25.6784
8842.74 32.5233
8844.30 43.1979
8845.86 60.8689
8847.42 92.0321
8848.98 148.888
8850.49 235.908
8852.00 294.222
8853.51 236.186
8855.02 149.318
8856.46 95.7742
8857.90 65.0183
8859.33 46.9100
8860.77 35.6686
8862.21 28.3143
8863.64 23.2784
8866.52 17.0619
8869.39 13.5368
8872.27 11.3569
8878.01 8.91879
8883.76 7.66038
8889.51 6.92790
8895.26 6.46424
8901.01 6.15211
8912.50 5.77042
8924.00 5.55412
8935.50 5.41922
8946.99 5.32902
8969.99 5.21853
8992.98 5.15478
9015.98 5.11361
9038.97 5.08470
9084.96 5.04583
9130.94 5.01948
9176.93 4.99908
9222.92 4.98185
9314.89 4.95206
9406.86 4.92504
9498.84 4.89890
9544.83 4.88581
9567.82 4.87957
9579.32 4.87920
9585.06 4.89259
9587.94 4.95488
9588.66 5.01781
9589.38 5.18398
9589.74 5.39213
9590.09 5.88492
9590.27 6.42923
9590.45 7.51608
9590.54 8.51309
9590.63 10.1288
9590.72 12.8914
9590.81 17.6959
9590.91 25.4741
9591.00 30.7859
9591.09 25.6883
9591.19 17.9632
9591.29 12.7472
9591.39 9.90450
9591.49 8.30822
9591.59 7.34991
9591.79 6.32542
9591.99 5.82667
9592.39 5.37507
9592.78 5.18395
9593.58 5.02795
9594.38 4.96683
9597.58 4.90037
9603.96 4.87919
9616.74 4.86964
9642.29 4.86044
9693.39 4.84520
9795.59 4.81544
10000.0 4.75377
10276.9 4.66291
10553.7 4.56078
11107.4 4.30718
11661.1 3.94228
11938.0 3.68416
12076.4 3.52419
12111.0 3.47999
12145.6 3.43390
12180.2 3.38592
12197.5 3.36227
12206.2 3.35543
12210.5 3.37308
12212.7 3.45990
12213.2 3.54422
12213.7 3.75745
12214.0 4.01056
12214.3 4.57268
12214.5 6.20153
12214.7 8.49424
12214.8 10.6145
12214.8 13.4880
12214.9 19.8339
12215.0 23.6803
12215.1 19.9071
12215.2 13.5274
12215.3 8.57547
12215.5 6.26602
12215.7 4.61591
12216.0 4.04171
12216.3 3.78090
12216.8 3.55574
12217.4 3.46672
12219.5 3.36693
12223.9 3.33285
12232.6 3.31192
12250.1 3.28279
12284.9 3.22627
12354.7 3.10561
12494.1 2.82176
12633.6 2.46014
12773.0 1.98307
12842.8 1.68385
12912.5 1.33279
12982.2 0.924131
13052.0 0.471126
13086.8 0.251330
13104.3 0.154687
13121.7 0.0763255
13130.4 0.0474231
13139.2 0.0279311
13147.9 0.0203550
13156.6 0.0278228
13165.3 0.0543208
13174.0 0.104821
13182.7 0.185882
13191.4 0.305604
13200.2 0.475032
13208.9 0.708171
13217.6 1.02369
13226.3 1.44600
13243.7 2.75983
13261.2 5.10401
13278.6 9.39146
13287.3 12.8016
13296.0 17.5589
13304.8 24.3037
13313.5 33.9681
13322.2 47.9620
13330.9 68.0884
13348.0 130.112
13365.0 191.247
13373.5 194.163
13382.1 177.524
13399.1 127.444
13412.8 95.5672
13426.4 73.6725
13440.1 58.7922
13453.7 48.4323
13481.1 35.4338
13508.4 27.8985
13535.7 23.1013
13563.0 19.8293
13617.6 15.7107
13672.2 13.2560
13726.9 11.6391
13836.1 9.64666
13945.4 8.46309
14054.6 7.67114
14273.1 6.65178
14491.6 5.98823
14710.1 5.48537
15147.1 4.66260
15584.1 3.84783
15802.6 3.37953
16021.1 2.83327
16239.6 2.17345
16458.1 1.36506
16567.4 0.907104
16676.6 0.444889
16731.3 0.238239
16758.6 0.150909
16785.9 0.0811721
16799.6 0.0554118
16813.2 0.0377325
16826.9 0.0305308
16840.5 0.0380448
16854.2 0.0701585
16861.0 0.103632
16867.8 0.161446
16874.7 0.275114
16878.1 0.381235
16881.5 0.564594
16883.2 0.713594
16884.9 0.934229
16886.6 1.28260
16888.3 1.87791
16890.0 3.04343
16890.9 4.08556
16891.7 5.77740
16892.6 8.82897
16893.0 11.3330
16893.4 14.9289
16893.9 20.6103
16894.3 29.6508
16894.7 45.6239
16895.1 73.2150
16895.6 116.836
16896.0 145.879
16896.4 116.059
16896.9 72.7586
16897.1 53.5542
16897.4 40.1459
16897.9 24.4423
16898.5 16.1770
16899.0 11.4289
16899.5 8.48845
16900.1 6.55428
16901.1 4.26177
16902.2 3.00474
16903.3 2.25750
16905.4 1.44606
16907.5 1.04105
16909.6 0.815698
16913.9 0.594364
16918.1 0.503919
16922.4 0.469715
16930.9 0.476651
16947.8 0.618383
16956.3 0.727551
16960.6 0.795935
16962.7 0.857768
16963.8 0.981229
16964.3 1.29781
16964.6 1.96439
16964.7 2.84922
16964.8 4.91690
16965.0 9.17133
16965.2 5.11631
16965.3 3.04739
16965.4 2.17915
16965.7 1.48371
16966.2 1.11188
16967.1 0.975750
16969.0 0.957780
16972.9 1.01265
16980.6 1.16480
16996.0 1.54321
17026.9 2.62810
17057.7 4.33113
17088.6 6.99774
17119.5 11.2049
17150.3 17.9163
17181.2 28.7347
17212.0 46.1115
17262.5 94.8290
17313.0 147.846
17338.3 154.054
17363.5 144.316
17414.0 108.240
17466.2 77.9602
17518.4 58.7397
17570.6 46.5651
17622.8 38.4980
17675.1 32.8874
17727.3 28.8157
17831.7 23.3813
17936.1 19.9692
18040.5 17.6516
18249.3 14.7308
18458.2 12.9784
18667.0 11.8149
18771.4 11.3689
18875.8 10.9876
18928.0 10.8172
18980.2 10.6588
19032.5 10.5138
19058.6 10.4589
19065.1 10.4583
19071.6 10.4893
19074.9 10.5478
19078.1 10.7251
19079.8 10.9697
19081.4 11.6242
19082.2 12.4621
19082.6 13.2344
19083.0 14.4803
19083.4 16.8125
19083.6 18.8384
19083.8 21.7689
19084.1 26.7387
19084.3 34.9421
19084.5 50.1603
19084.7 80.9431
19084.8 124.101
19085.0 151.907
19085.2 124.406
19085.3 81.3282
19085.5 57.4585
19085.6 43.1830
19085.8 33.6695
19085.9 27.9444
19086.2 21.1105
19086.5 17.5624
19086.8 15.5075
19087.1 14.2175
19087.7 12.7549
19088.8 11.5409
19090.0 11.0609
19092.3 10.6860
19094.6 10.5425
19099.3 10.4270
19103.9 10.3774
19122.4 10.2928
19159.5 10.1936
19196.6 10.1071
19233.7 10.0261
19307.8 9.87790
19382.0 9.74971
19419.1 9.69577
19456.1 9.65242
19493.2 9.62663
19530.3 9.63508
19548.8 9.66434
19567.4 9.72529
19585.9 9.84369
19604.5 10.0782
19613.7 10.2801
19623.0 10.5868
19632.3 11.0771
19641.5 11.9197
19650.8 13.5288
19655.4 14.9359
19660.1 17.1400
19664.7 20.8619
19669.3 27.7265
19671.7 33.4813
19674.0 41.9741
19676.3 54.9505
19678.6 74.6330
19681.8 114.317
19685.0 141.108
19688.2 115.142
19691.4 75.6942
19693.8 55.2207
19696.2 42.0170
19698.6 33.4295
19701.1 27.6799
19705.9 20.8468
19710.7 17.1599
19715.5 14.9639
19720.3 13.5615
19730.0 11.9370
19739.6 11.0655
19749.3 10.5427
19758.9 10.2022
19768.6 9.96617
19787.8 9.66446
19807.1 9.48109
19826.4 9.35712
19845.7 9.26638
19884.3 9.13799
19922.9 9.04634
19961.4 8.97339
20000.0 8.91130
20101.1 8.77643
20202.2 8.66351
20303.3 8.56335
20404.3 8.47226
20606.5 8.31023
20808.7 8.16887
21213.0 7.93157
21617.3 7.73862
22426.0 7.44067
23234.7 7.21819
24043.3 7.04287
24852.0 6.89884
25256.3 6.83556
25458.5 6.80585
25660.6 6.77756
25862.8 6.75121
25963.9 6.73928
26065.0 6.72902
26166.1 6.72235
26216.6 6.72195
26267.1 6.72581
26317.7 6.73880
26343.0 6.75251
26368.2 6.77615
26393.5 6.82009
26406.1 6.85752
26418.8 6.91586
26431.4 7.01733
26437.7 7.10173
26444.0 7.23341
26450.4 7.46796
26453.5 7.66935
26456.7 7.99435
26459.8 8.59460
26461.4 9.12355
26463.0 9.98889
26464.6 11.5904
26465.4 12.9831
26466.2 15.2016
26466.9 19.0910
26467.3 22.3020
26467.7 26.9220
26468.1 34.3192
26468.5 46.3425
26468.9 67.7515
26469.3 107.698
26469.7 162.507
26470.0 194.710
26470.4 151.486
26470.7 93.8136
26471.0 64.4547
26471.3 45.6736
26471.5 34.0354
26471.8 26.5632
26472.4 18.1201
26472.9 13.8394
26473.5 11.4320
26474.1 9.97028
26475.2 8.40750
26476.3 7.64844
26477.4 7.24778
26479.6 6.88414
26481.9 6.75676
26484.1 6.71934
26488.5 6.74668
26497.5 6.94668
26506.4 7.30430
26510.8 7.58974
26515.3 8.00977
26519.8 8.66948
26524.2 9.79575
26528.7 11.9517
26530.9 13.8476
26533.1 16.8482
26535.4 21.9637
26537.6 31.5848
26538.7 39.8167
26539.8 52.1104
26541.0 71.3776
26542.1 101.163
26543.5 159.378
26545.0 199.374
26546.5 162.244
26547.9 104.766
26549.1 74.8153
26550.2 55.5059
26551.3 42.7926
26552.4 34.3369
26554.6 24.2029
26556.8 18.7163
26559.0 15.4452
26561.2 13.3469
26565.6 10.9172
26570.0 9.61191
26574.5 8.83152
26578.9 8.32723
26583.3 7.98267
26592.1 7.55219
26601.0 7.30341
26609.8 7.14588
26618.6 7.03943
26636.3 6.90803
26654.0 6.83235
26671.6 6.78423
26689.3 6.75136
26724.6 6.70966
26760.0 6.68424
26795.3 6.66680
26830.6 6.65377
26901.3 6.63460
26972.0 6.62012
27113.3 6.59706
27254.6 6.57736
27396.0 6.55915
27678.6 6.52484
27961.3 6.49197
28244.0 6.45988
28526.6 6.42842
28668.0 6.41429
28738.7 6.41507
28756.3 6.42287
28774.0 6.44981
28782.8 6.48989
28791.7 6.60538
28796.1 6.76448
28798.3 6.92058
28800.5 7.19709
28802.7 7.76327
28803.8 8.29993
28804.9 9.20806
28806.0 10.9630
28806.6 12.4955
28807.1 14.9243
28807.7 19.0815
28808.2 26.9713
28808.5 33.9123
28808.8 44.1192
28809.0 60.8455
28809.3 86.7185
28809.7 135.680
28810.0 167.480
28810.3 136.109
28810.7 87.1451
28811.1 53.1868
28811.5 35.2608
28811.9 25.6206
28812.3 20.1174
28812.7 16.5713
28813.1 14.2267
28813.9 11.4579
28814.7 9.91686
28815.5 8.99505
28817.0 7.97567
28818.6 7.45863
28820.2 7.16079
28823.4 6.84819
28826.6 6.69566
28829.8 6.60970
28836.1 6.52099
28848.8 6.45357
28861.5 6.42789
28887.0 6.40682
28912.4 6.39719
28963.3 6.38634
29014.1 6.37871
29217.5 6.35402
29624.4 6.30817
30438.1 6.21501
32065.5 5.99703
32879.3 5.84702
33693.0 5.61753
34099.8 5.42718
34506.7 5.09431
34710.1 4.79389
34811.8 4.56839
34913.6 4.24931
35015.3 3.75988
35066.1 3.40162
35117.0 2.91385
35167.8 2.21836
35193.3 1.75537
35218.7 1.19521
35244.1 0.555314
35256.8 0.251521
35263.2 0.129848
35269.6 0.0516709
35275.9 0.0480498
35282.3 0.170953
35285.5 0.305132
35288.6 0.507757
35291.8 0.799837
35295.0 1.20776
35298.2 1.77125
35301.3 2.53916
35304.5 3.57870
35307.7 4.97519
35314.1 9.38319
35320.4 17.2024
35325.3 26.7998
35330.2 40.0703
35340.0 68.7236
35344.9 74.4769
35349.8 72.2133
35359.6 57.3713
35367.8 45.6903
35375.9 37.1755
35384.1 31.1553
35392.3 26.8419
35408.6 21.2449
35424.9 17.8726
35441.2 15.6565
35457.6 14.1046
35490.2 12.0927
35522.9 10.8542
35555.5 10.0193
35620.8 8.96789
35686.1 8.33351
35751.5 7.90864
35882.1 7.37293
36012.7 7.04565
36143.3 6.82196
36404.5 6.52844
36927.0 6.19249
37449.4 5.97473
37971.9 5.79688
38494.3 5.63430
39016.8 5.48785
39278.0 5.43988
39408.6 5.45153
39441.3 5.47197
39473.9 5.52063
39490.3 5.57462
39498.4 5.62045
39506.6 5.69300
39514.7 5.82325
39518.8 5.93498
39522.9 6.11439
39527.0 6.44233
39529.0 6.72822
39531.1 7.19161
39533.1 8.04128
39534.1 8.77658
39535.1 9.94732
39536.2 12.0099
39536.7 13.7035
39537.2 16.2354
39537.7 20.2695
39538.2 27.2377
39538.7 40.4911
39539.0 51.8878
39539.2 68.1118
39539.6 100.801
39540.0 119.353
39540.4 91.5963
39540.8 56.6002
39541.2 35.1073
39541.6 23.4779
39541.9 17.0340
39542.3 13.3134
39542.7 10.9162
39543.1 9.37937
39543.9 7.55427
39544.6 6.59613
39545.4 6.04809
39546.9 5.50296
39550.0 5.16176
39553.1 5.08792
39565.4 5.12264
39577.8 5.17815
39590.1 5.21499
39614.8 5.25858
39639.4 5.28386
39738.1 5.33921
39935.3 5.49991
40034.0 5.71704
40132.6 6.27368
40181.9 6.94259
40231.3 8.46689
40255.9 10.0797
40280.6 13.1770
40292.9 15.8763
40305.2 20.0452
40317.6 26.7322
40329.9 37.5776
40345.0 57.5491
40360.0 71.3924
40375.1 58.7661
40390.1 39.1757
40403.3 27.7160
40416.5 20.7981
40429.7 16.5663
40442.9 13.8678
40469.3 10.8285
40495.7 9.29406
40548.5 7.95252
40601.3 7.51496
40706.9 7.65083
40812.5 8.65619
40918.0 10.8709
40970.8 12.8021
41023.6 15.7281
41076.4 20.3509
41129.2 28.0432
41182.0 41.5853
41234.8 66.1047
41287.4 104.670
41340.0 130.391
41392.6 104.164
41445.2 65.4523
41487.7 44.4674
41530.2 31.2944
41572.6 22.9074
41615.1 17.3479
41700.1 10.7054
41785.0 7.01926
41870.0 4.85206
41954.9 3.99479
41997.4 4.33040
42039.9 5.62818
42082.3 8.65461
42124.8 14.8060
42156.1 22.5204
42187.4 33.5868
42250.0 58.9053
42281.3 64.8610
42312.6 63.9304
42375.2 52.3889
42446.5 39.7099
42517.8 31.3480
42589.2 25.9545
42660.5 22.3204
42803.1 17.8518
42945.8 15.2588
43231.0 12.4095
43516.3 10.8847
43801.6 9.94355
43944.2 9.61205
44086.9 9.37437
44229.5 9.29326
44300.8 9.37923
44372.1 9.66156
44443.5 10.4009
44479.1 11.1535
44514.8 12.4510
44550.4 14.8468
44586.1 19.7407
44603.9 24.1861
44621.8 31.2609
44639.6 42.9778
44657.4 62.6461
44678.7 99.5521
44700.0 127.853
44721.3 108.324
44742.6 73.6590
44763.1 50.9831
44783.7 37.5996
44804.2 29.5414
44824.8 24.4325
44865.8 18.6269
44906.9 15.5859
44948.0 13.7841
44989.1 12.6186
45071.2 11.2273
45153.3 10.4369
45235.5 9.92905
45399.8 9.30851
45564.1 8.93388
45728.4 8.67505
46057.0 8.32550
46714.1 7.90999
47371.3 7.64946
48685.7 7.31311
50000.0 7.08105
51684.2 6.79244
52105.3 6.68178
52526.3 6.49944
52736.9 6.33662
52842.1 6.21310
52947.4 6.03495
53052.6 5.75171
53105.3 5.53506
53157.9 5.22437
53184.2 5.01210
53210.5 4.74093
53236.9 4.38249
53263.2 3.88851
53289.5 3.16975
53302.6 2.67856
53315.8 2.06285
53329.0 1.29997
53342.1 0.469161
53348.7 0.198195
53352.0 0.203768
53355.3 0.406604
53358.6 0.957418
53360.2 1.44135
53361.9 2.12103
53363.5 3.06955
53365.1 4.35895
53368.4 8.41836
53371.3 14.3690
53374.2 23.1090
53380.0 44.3739
53382.9 50.2757
53385.8 50.6469
53391.6 42.8419
53395.2 37.2218
53398.9 32.5151
53406.1 25.8097
53413.4 21.5775
53420.6 18.7714
53427.9 16.8077
53435.2 15.3672
53442.4 14.2792
53446.1 13.9312
53447.9 14.2422
53448.8 15.8085
53449.2 19.2889
53449.5 24.2590
53449.7 35.2556
53449.8 49.5650
53450.0 60.1503
53450.2 52.0545
53450.3 38.3429
53450.5 27.6305
53450.7 22.4422
53451.1 17.8265
53451.9 15.0967
53453.4 13.8074
53456.5 13.1030
53462.7 12.4589
53469.0 12.0022
53475.2 11.6259
53487.6 11.0246
53500.0 10.5603
53500.0 8.99932
54000.0 9.00047
59000.0 9.01264
64000.0 9.02555
69000.0 9.03873
74000.0 9.05184
79000.0 9.06467
84000.0 9.07705
89000.0 9.08890
94000.0 9.10013
99000.0 9.11071
99999.9 9.11274
100000 9.40065
105000 9.34340
110000 9.23750
115000 9.08328
120000 8.92905
125000 8.87447
130000 8.86972
135000 8.91461
140000 9.05828
150000 9.54314
155000 9.68762
160000 9.83209
165000 9.87870
166325 9.89105
170000 9.92531
175000 9.62843
180000 9.38079
185000 9.03546
190000 8.78872
195000 8.39483
200000 8.14856
210000 8.39270
230000 9.47057
240000 9.32400
250000 8.93115
260000 8.14642
270000 8.09787
280000 8.44181
290000 8.53955
300000 7.90194
310000 7.36260
320000 7.46121
330000 7.85474
340000 8.29709
350000 8.64108
360000 8.69057
370000 8.54573
380000 8.25136
390000 8.54630
400000 9.08677
410000 9.28425
420000 9.28435
430000 8.98957
440000 8.94034
450000 8.94017
460000 8.84185
470000 8.64516
480000 8.15370
490000 7.71124
500000 7.56352
520000 8.31626
530000 8.54436
540000 8.54379
550000 8.15027
560000 7.99933
570000 7.80211
580000 7.65413
600000 7.57393
620000 7.64088
640000 7.74682
660000 7.82326
680000 7.87986
700000 7.86749
720000 7.74506
740000 7.42985
760000 7.05382
770000 6.88167
780000 6.70951
800000 6.44389
820000 6.69010
840000 7.12986
860000 7.10935
880000 6.95193
940000 6.53908
960000 6.41120
1.00000E+06 6.26312
1.05000E+06 6.17321
1.10000E+06 6.13332
1.15000E+06 6.04486
1.18800E+06 5.96327
1.18800E+06 5.96327
1.20000E+06 5.93751
1.21830E+06 5.88126
1.25000E+06 5.78381
1.30000E+06 5.63011
1.31400E+06 5.58707
1.35000E+06 5.48000
1.39500E+06 5.35721
1.40000E+06 5.34357
1.45000E+06 5.27046
1.47610E+06 5.23230
1.50000E+06 5.19735
1.51481E+06 5.18229
1.53000E+06 5.16685
1.60000E+06 5.09567
1.71958E+06 4.93413
1.78046E+06 4.85189
1.78047E+06 4.85187
1.80000E+06 4.82549
1.90000E+06 4.66628
2.00000E+06 4.56149
2.07300E+06 4.48499
2.20412E+06 4.38790
2.21080E+06 4.38295
2.21080E+06 4.38296
2.28600E+06 4.32727
2.30000E+06 4.32045
2.30012E+06 4.32039
2.34502E+06 4.29853
2.34502E+06 4.29853
2.40000E+06 4.27175
2.47902E+06 4.24234
2.50000E+06 4.23453
2.57342E+06 4.20720
2.60000E+06 4.19730
2.71784E+06 4.15343
2.73999E+06 4.14519
2.77003E+06 4.13401
2.77003E+06 4.13400
2.77871E+06 4.13077
2.82757E+06 4.11259
2.90000E+06 4.08563
2.90133E+06 4.08513
2.94729E+06 4.06802
3.00000E+06 4.04840
3.09423E+06 4.02044
3.11145E+06 4.01533
3.11145E+06 4.01533
3.20000E+06 3.98906
3.34592E+06 3.95923
3.34592E+06 3.95922
3.40000E+06 3.94817
3.48692E+06 3.91839
3.48692E+06 3.91839
3.59691E+06 3.88070
3.59691E+06 3.88070
3.60000E+06 3.87964
3.80000E+06 3.82517
4.00000E+06 3.79260
4.20000E+06 3.77657
4.40000E+06 3.77434
4.50000E+06 3.77887
4.60000E+06 3.78340
4.80000E+06 3.80104
5.00000E+06 3.82744
5.20000E+06 3.83765
5.40000E+06 3.88237
5.50000E+06 3.90473
5.60000E+06 3.92709
5.80000E+06 3.94994
6.00000E+06 3.98427
6.19979E+06 4.01856
6.74584E+06 4.11227
6.80000E+06 4.12157
7.00000E+06 4.14665
7.11898E+06 4.16156
7.11899E+06 4.16157
7.27000E+06 4.18050
7.74998E+06 4.22409
7.74999E+06 4.22409
8.00000E+06 4.24679
8.31232E+06 4.26204
8.60000E+06 4.27608
9.00000E+06 4.27546
9.50000E+06 4.25958
1.00000E+07 4.22807
1.02000E+07 4.21547
1.10000E+07 4.14939
1.14773E+07 4.09784
1.16000E+07 4.08459
1.20000E+07 4.04139
1.21043E+07 4.03012
1.24000E+07 3.99819
1.26987E+07 3.96285
1.26989E+07 3.96284
1.30000E+07 3.93339
1.35000E+07 3.87610
1.40000E+07 3.81881
1.45000E+07 3.76152
1.50000E+07 3.70425
1.60000E+07 3.58988
1.70000E+07 3.48697
1.80000E+07 3.40058
1.90000E+07 3.33655
2.00000E+07 3.27347