Mo-92(n,tot) ENDF/B-VII.1
Energy(eV) XS(b)
1.00000E-05 10.0236
1.25000E-05 9.59951
1.50000E-05 9.28646
2.00000E-05 8.84705
2.75000E-05 8.42894
3.50000E-05 8.15378
4.25000E-05 7.95514
5.00000E-05 7.80306
6.25000E-05 7.61341
7.50000E-05 7.47341
0.000100000 7.27690
0.000125000 7.14279
0.000150000 7.04380
0.000200000 6.90484
0.000275000 6.77263
0.000350000 6.68561
0.000425000 6.62280
0.000500000 6.57471
0.000625000 6.51473
0.000750000 6.47046
0.00100000 6.40832
0.00125000 6.36591
0.00150000 6.33460
0.00200000 6.29066
0.00275000 6.24885
0.00350000 6.22134
0.00425000 6.20147
0.00500000 6.18626
0.00625000 6.16730
0.00750000 6.15330
0.0100000 6.13364
0.0125000 6.12023
0.0150000 6.11033
0.0200000 6.09643
0.0253000 6.08647
0.0314750 6.07821
0.0376500 6.07207
0.0500000 6.06340
0.0625000 6.05740
0.0750000 6.05297
0.100000 6.04674
0.125000 6.04249
0.150000 6.03934
0.200000 6.03493
0.275000 6.03071
0.350000 6.02792
0.500000 6.02434
0.750000 6.02092
1.00000 6.01883
1.50000 6.01626
2.00000 6.01463
2.75000 6.01295
3.50000 6.01172
5.00000 6.00990
7.50000 6.00766
10.0000 6.00586
15.0000 6.00276
20.0000 5.99998
27.5000 5.99608
35.0000 5.99234
50.0000 5.98516
75.0000 5.97365
100.000 5.96251
150.000 5.94083
200.000 5.91918
236.730 5.90230
273.459 5.88226
291.824 5.86885
301.007 5.86010
310.189 5.84864
314.780 5.84121
319.371 5.83194
323.963 5.81978
328.554 5.80281
330.849 5.79138
333.145 5.77686
335.441 5.75774
337.736 5.73140
338.884 5.71418
340.032 5.69319
341.180 5.66746
342.327 5.63661
342.901 5.62012
343.475 5.60514
344.049 5.59731
344.623 5.61340
344.910 5.64465
345.197 5.71089
345.484 5.84889
345.771 6.14859
345.914 6.42620
346.058 6.87216
346.201 7.62899
346.345 9.01532
346.488 11.8643
346.560 14.5066
346.632 18.8636
346.704 26.6892
346.775 42.3928
346.811 56.6271
346.847 79.2794
346.865 95.7902
346.883 117.195
346.901 145.164
346.919 181.398
346.939 233.934
346.959 294.821
347.000 377.233
347.020 360.154
347.041 310.970
347.082 201.715
347.119 134.065
347.156 93.6910
347.194 69.0692
347.231 53.4209
347.306 35.6229
347.380 26.3839
347.455 20.9803
347.530 17.5479
347.679 13.5795
347.828 11.4377
347.978 10.1402
348.127 9.28729
348.276 8.69249
348.575 7.93029
348.874 7.47180
349.172 7.17034
349.471 6.95923
350.068 6.68594
350.666 6.51880
351.263 6.40696
351.860 6.32732
353.055 6.22197
354.250 6.15575
355.444 6.11040
356.639 6.07744
359.028 6.03271
361.418 6.00373
363.807 5.98334
366.196 5.96816
370.975 5.94689
375.754 5.93249
380.533 5.92192
385.311 5.91370
394.869 5.90143
404.426 5.89236
423.541 5.87896
442.656 5.86873
461.770 5.86009
500.000 5.84529
625.000 5.80567
750.000 5.77096
1000.00 5.70641
1217.17 5.65101
1434.33 5.59260
1542.92 5.56112
1651.50 5.52741
1705.79 5.50954
1760.09 5.49094
1787.23 5.48147
1814.38 5.47227
1827.95 5.46831
1841.52 5.46640
1848.31 5.46834
1851.70 5.47159
1855.10 5.47865
1858.49 5.49528
1860.19 5.51254
1861.88 5.54453
1862.73 5.57172
1863.58 5.61335
1864.43 5.68168
1865.28 5.80525
1865.70 5.90866
1866.12 6.06466
1866.55 6.31657
1866.97 6.76245
1867.18 7.12680
1867.40 7.66653
1867.61 8.51462
1867.82 9.95785
1868.03 12.7092
1868.14 15.1245
1868.24 18.9505
1868.35 25.4991
1868.46 37.9356
1868.51 48.6510
1868.56 65.0201
1868.62 90.9133
1868.67 132.201
1868.73 208.498
1868.80 259.466
1868.87 208.501
1868.93 132.206
1869.00 84.4964
1869.06 57.3427
1869.12 41.4882
1869.19 31.7077
1869.25 25.3395
1869.32 20.9949
1869.44 15.6534
1869.57 12.6382
1869.70 10.7788
1869.96 8.70677
1870.21 7.64200
1870.47 7.02444
1870.72 6.63493
1870.98 6.37368
1871.49 6.05603
1872.00 5.87761
1872.52 5.76751
1873.03 5.69479
1874.05 5.60769
1875.08 5.55940
1876.10 5.52980
1877.12 5.51028
1879.17 5.48681
1881.22 5.47357
1885.32 5.45949
1889.41 5.45204
1893.51 5.44721
1901.70 5.44070
1918.08 5.43164
1934.47 5.42392
1967.23 5.40908
2000.00 5.39402
2080.62 5.35439
2161.23 5.30998
2201.54 5.28560
2241.85 5.25967
2262.01 5.24626
2282.16 5.23313
2292.24 5.22749
2302.31 5.22499
2307.35 5.22820
2309.87 5.23333
2312.39 5.24431
2314.91 5.27002
2316.17 5.29656
2317.43 5.34556
2318.06 5.38706
2318.69 5.45043
2319.32 5.55401
2319.95 5.73976
2320.26 5.89391
2320.58 6.12539
2320.89 6.49580
2321.21 7.14275
2321.52 8.42701
2321.68 9.60889
2321.84 11.5570
2322.00 15.1521
2322.08 18.1858
2322.15 22.7255
2322.23 30.1204
2322.31 42.7384
2322.39 66.7443
2322.47 113.689
2322.53 178.407
2322.60 221.401
2322.67 177.380
2322.73 112.896
2322.78 82.2882
2322.82 61.6155
2322.87 47.6707
2322.91 38.0601
2323.00 26.2953
2323.09 19.7687
2323.18 15.8224
2323.27 13.2708
2323.45 10.2963
2323.63 8.70149
2323.81 7.75086
2323.99 7.13974
2324.17 6.72407
2324.53 6.21136
2324.89 5.91927
2325.25 5.73726
2325.61 5.61621
2326.33 5.47018
2327.05 5.38869
2328.49 5.30541
2329.93 5.26546
2331.37 5.24296
2334.25 5.21920
2337.13 5.20683
2340.01 5.19899
2345.77 5.18876
2357.29 5.17515
2368.80 5.16386
2391.84 5.14230
2414.87 5.12029
2460.94 5.07302
2507.01 5.02012
2599.15 4.89165
2691.29 4.71898
2783.43 4.47251
2829.50 4.30438
2875.57 4.08941
2921.64 3.80467
2967.71 3.41005
2990.74 3.15021
3013.77 2.83048
3025.29 2.64249
3036.81 2.43391
3042.57 2.32407
3048.33 2.22014
3051.21 2.18351
3052.65 2.17862
3054.09 2.19649
3055.53 2.27157
3056.25 2.36170
3056.96 2.53643
3057.32 2.68675
3057.68 2.91643
3058.04 3.28844
3058.40 3.94297
3058.76 5.24590
3058.94 6.43909
3059.12 8.41299
3059.30 12.0118
3059.39 15.0247
3059.48 19.5681
3059.57 26.8189
3059.66 39.2178
3059.75 62.1154
3059.84 105.776
3059.92 168.202
3060.00 208.982
3060.08 167.330
3060.16 105.078
3060.21 76.4160
3060.26 57.1483
3060.36 34.6818
3060.47 23.1063
3060.57 16.6621
3060.67 12.6897
3060.77 10.1295
3060.98 7.11736
3061.18 5.48069
3061.39 4.49987
3061.80 3.43449
3062.21 2.89430
3062.62 2.58229
3063.03 2.38319
3063.43 2.24746
3064.25 2.07493
3065.07 1.96907
3066.71 1.83939
3068.35 1.75393
3069.99 1.68578
3073.26 1.56906
3079.81 1.35437
3086.37 1.13784
3099.47 0.687485
3112.57 0.277764
3115.85 0.207106
3119.13 0.164605
3120.76 0.158133
3122.40 0.164514
3124.04 0.186635
3125.68 0.228047
3127.32 0.293137
3128.95 0.387364
3130.59 0.517555
3132.23 0.692308
3133.87 0.922538
3135.51 1.22221
3138.78 2.10751
3142.06 3.57130
3145.33 6.01402
3148.61 10.1990
3151.89 17.6957
3153.52 23.6535
3155.16 32.0599
3156.80 44.2330
3158.44 62.4141
3160.08 90.5670
3161.71 135.946
3163.35 211.929
3164.99 340.964
3167.00 596.161
3169.00 811.002
3171.01 703.437
3173.01 475.315
3175.19 304.751
3177.38 208.127
3179.56 151.790
3181.75 116.766
3183.93 93.6298
3186.11 77.5473
3190.48 57.1520
3194.85 45.0746
3199.22 37.2529
3207.95 27.9215
3216.69 22.6579
3225.42 19.3294
3234.16 17.0543
3242.89 15.4100
3260.36 13.2050
3277.83 11.8030
3295.31 10.8368
3312.78 10.1324
3347.72 9.17606
3382.66 8.55829
3417.60 8.12676
3452.54 7.80834
3522.42 7.36971
3592.30 7.08138
3662.19 6.87693
3732.07 6.72402
3871.83 6.50956
3941.71 6.43112
4011.60 6.36552
4081.48 6.31015
4116.42 6.28597
4151.36 6.26443
4186.30 6.24689
4203.77 6.24099
4221.24 6.23938
4229.98 6.24174
4238.71 6.24815
4247.45 6.26211
4256.18 6.29191
4260.55 6.31887
4264.92 6.36155
4269.29 6.43347
4273.65 6.56658
4275.84 6.67950
4278.02 6.85236
4280.21 7.13578
4282.39 7.64731
4283.48 8.07357
4284.57 8.71673
4285.66 9.75264
4286.76 11.5790
4287.30 13.0656
4287.85 15.2588
4288.39 18.6862
4288.94 24.4725
4289.49 35.3668
4289.76 44.8041
4290.03 59.5453
4290.31 84.2696
4290.58 129.776
4290.72 167.900
4290.85 223.895
4290.99 308.783
4291.12 437.600
4291.31 697.005
4291.50 868.640
4291.69 695.650
4291.88 436.640
4292.05 281.532
4292.22 190.431
4292.40 135.883
4292.57 101.608
4292.92 63.3982
4293.26 44.0307
4293.61 32.9855
4293.95 26.1263
4294.65 18.4400
4295.34 14.4581
4296.03 12.1421
4296.72 10.6748
4297.41 9.68981
4298.79 8.48823
4300.18 7.81165
4301.56 7.39335
4302.94 7.11671
4305.71 6.78481
4308.48 6.60052
4311.24 6.48742
4314.01 6.41281
4319.54 6.32306
4325.07 6.27257
4330.60 6.24083
4336.14 6.21918
4347.20 6.19142
4358.27 6.17391
4380.39 6.15139
4402.52 6.13575
4424.65 6.12303
4468.91 6.10156
4513.17 6.08279
4557.42 6.06559
4645.94 6.03438
4734.46 6.00630
4822.97 5.98061
5000.00 5.93469
5144.28 5.90133
5216.42 5.88570
5288.55 5.87067
5360.69 5.85626
5432.83 5.84276
5468.90 5.83689
5504.97 5.83335
5523.00 5.83478
5541.04 5.84544
5550.05 5.86354
5554.56 5.88260
5559.07 5.91826
5563.58 5.99561
5565.83 6.07293
5568.09 6.21356
5569.22 6.33160
5570.34 6.51066
5571.47 6.80139
5572.60 7.31978
5573.16 7.74688
5573.72 8.38270
5574.29 9.39272
5574.85 11.1305
5575.42 14.5155
5575.70 17.5513
5575.98 22.4472
5576.26 31.1277
5576.40 38.1731
5576.54 48.4779
5576.68 64.2567
5576.82 89.7234
5576.97 133.064
5577.11 207.854
5577.25 329.648
5577.40 410.197
5577.55 328.937
5577.70 208.070
5577.81 145.605
5577.92 105.200
5578.03 78.9754
5578.14 61.5828
5578.36 40.8208
5578.58 29.6449
5578.80 22.9971
5579.02 18.7809
5579.47 13.9298
5579.91 11.3560
5580.35 9.83805
5580.79 8.86556
5581.24 8.20834
5582.12 7.40001
5583.01 6.94140
5583.89 6.65642
5584.77 6.46747
5586.54 6.23975
5588.31 6.11305
5591.85 5.98410
5595.39 5.92281
5598.93 5.88876
5606.01 5.85376
5613.09 5.83660
5620.17 5.82658
5634.33 5.81516
5662.64 5.80345
5690.96 5.79586
5747.59 5.78363
5804.22 5.77252
5917.48 5.75182
5945.79 5.74778
5974.11 5.74686
5988.26 5.75096
6002.42 5.76867
6009.50 5.79666
6013.04 5.82576
6016.58 5.88004
6020.12 5.99774
6021.89 6.11545
6023.66 6.32946
6024.54 6.50891
6025.43 6.78110
6026.31 7.22234
6027.20 8.00556
6027.64 8.64925
6028.08 9.60343
6028.52 11.1116
6028.97 13.6838
6029.41 18.6301
6029.63 22.9898
6029.85 29.9344
6030.07 41.9140
6030.29 64.9329
6030.40 85.1168
6030.51 116.032
6030.63 166.148
6030.74 246.741
6030.87 392.301
6031.00 488.643
6031.13 391.752
6031.27 247.523
6031.38 166.890
6031.49 117.049
6031.60 85.9295
6031.71 65.7516
6031.93 42.5532
6032.15 30.4456
6032.37 23.4104
6032.59 18.9847
6033.02 13.9665
6033.46 11.3328
6033.90 9.78974
6034.34 8.80543
6034.78 8.14219
6035.66 7.32789
6036.54 6.86750
6037.42 6.58162
6038.30 6.39189
6040.06 6.16329
6041.82 6.03594
6045.33 5.90583
6048.85 5.84362
6052.37 5.80883
6059.40 5.77275
6073.47 5.74422
6087.53 5.73194
6115.67 5.71905
6143.80 5.71050
6256.33 5.68323
6312.60 5.67057
6340.73 5.66489
6368.86 5.66065
6397.00 5.66053
6411.06 5.66453
6425.13 5.67544
6432.16 5.68619
6439.20 5.70385
6446.23 5.73434
6453.26 5.79163
6456.78 5.84053
6460.30 5.91555
6463.81 6.03866
6467.33 6.26081
6469.09 6.44580
6470.85 6.72452
6472.60 7.17289
6474.36 7.96232
6475.24 8.60502
6476.12 9.55168
6477.00 11.0299
6477.88 13.5238
6478.76 18.2160
6479.20 22.2848
6479.64 28.6248
6480.08 39.2838
6480.52 58.8634
6480.74 75.2399
6480.96 99.5015
6481.18 136.402
6481.40 192.295
6481.70 304.491
6482.00 378.862
6482.30 303.751
6482.61 191.893
6482.93 116.808
6483.25 76.3997
6483.57 53.6802
6483.89 40.1121
6484.21 31.4348
6484.53 25.6254
6485.18 18.5911
6485.82 14.6751
6486.46 12.2891
6487.75 9.65426
6489.03 8.31237
6490.32 7.53974
6491.60 7.05459
6492.89 6.73028
6495.46 6.33716
6498.03 6.11713
6500.60 5.98147
6503.17 5.89191
6508.31 5.78426
6513.45 5.72401
6518.59 5.68642
6523.73 5.66101
6534.02 5.62874
6544.30 5.60848
6564.86 5.58173
6605.99 5.54172
6647.12 5.49727
6688.24 5.43302
6708.81 5.38526
6729.37 5.31677
6739.65 5.26937
6749.93 5.20755
6760.22 5.12304
6770.50 4.99970
6775.64 4.91366
6780.78 4.80130
6785.92 4.64810
6791.06 4.42665
6793.63 4.27425
6796.20 4.07836
6798.77 3.81747
6801.34 3.45467
6802.63 3.21546
6803.91 2.92190
6805.20 2.55734
6806.48 2.10647
6807.77 1.58952
6808.41 1.36544
6809.05 1.30514
6809.38 1.43945
6809.70 1.81453
6810.02 2.65445
6810.34 4.44142
6810.50 6.00460
6810.66 8.33778
6810.82 11.8941
6810.98 17.4241
6811.14 26.4406
6811.30 41.5569
6811.46 68.2904
6811.62 115.808
6811.81 210.362
6812.00 297.113
6812.10 296.623
6812.19 267.104
6812.38 186.914
6812.53 136.335
6812.69 102.723
6812.85 80.4745
6813.00 65.2967
6813.31 46.7017
6813.63 36.1826
6813.94 29.6134
6814.25 25.1995
6814.87 19.7491
6815.50 16.5631
6816.12 14.5056
6816.74 13.0741
6817.37 12.0286
6818.61 10.6065
6819.86 9.69131
6821.11 9.05491
6822.36 8.58772
6824.85 7.94883
6827.34 7.53349
6829.84 7.24203
6832.33 7.02628
6837.32 6.72818
6842.31 6.53181
6847.30 6.39246
6852.29 6.28826
6862.27 6.14216
6872.24 6.04390
6882.22 5.97253
6892.20 5.91771
6912.15 5.83713
6932.11 5.77807
6972.02 5.68671
7011.93 5.59911
7031.88 5.54569
7051.84 5.47548
7061.81 5.42900
7071.79 5.36968
7081.77 5.28987
7091.75 5.17462
7096.74 5.09462
7101.72 4.99033
7106.71 4.84820
7111.70 4.64256
7114.20 4.50068
7116.69 4.31782
7119.18 4.07333
7121.68 3.73079
7122.93 3.50305
7124.17 3.22102
7125.42 2.86574
7126.67 2.41490
7127.29 2.14948
7127.91 1.86506
7128.54 1.58910
7129.16 1.41635
7129.79 1.66798
7130.10 2.26041
7130.41 3.63224
7130.56 4.88243
7130.72 6.79356
7130.88 9.77150
7131.03 14.5410
7131.19 22.4609
7131.34 36.2032
7131.50 61.1702
7131.58 80.8466
7131.66 107.192
7131.83 196.001
7132.00 277.730
7132.09 277.844
7132.17 250.754
7132.35 176.267
7132.55 113.854
7132.75 79.0787
7132.96 59.0517
7133.16 46.7090
7133.36 38.5057
7133.57 32.7861
7133.98 25.4927
7134.38 21.1084
7134.79 18.2384
7135.61 14.7476
7136.42 12.7343
7137.24 11.4366
7138.05 10.5354
7138.87 9.87499
7140.50 8.97504
7142.13 8.39223
7143.76 7.98487
7145.38 7.68459
7148.64 7.27140
7151.90 7.00091
7155.16 6.80998
7158.42 6.66804
7164.94 6.47081
7171.46 6.34009
7177.98 6.24686
7184.50 6.17685
7197.54 6.07828
7210.58 6.01176
7223.62 5.96346
7236.65 5.92654
7262.73 5.87318
7288.81 5.83582
7340.96 5.78534
7393.12 5.75132
7445.27 5.72575
7549.58 5.68771
7758.19 5.63449
7966.81 5.59325
8175.42 5.55697
8279.73 5.54002
8384.04 5.52395
8488.35 5.50951
8540.50 5.50355
8592.66 5.49943
8644.81 5.49933
8670.89 5.50260
8696.96 5.51083
8723.04 5.53051
8736.08 5.55044
8749.12 5.58649
8755.64 5.61657
8762.16 5.66217
8768.68 5.73643
8775.19 5.87031
8778.45 5.98220
8781.71 6.15191
8784.97 6.42795
8788.23 6.92201
8789.86 7.33075
8791.49 7.94357
8793.12 8.92234
8794.75 10.6257
8796.38 13.9928
8797.20 17.0624
8798.01 22.1230
8798.83 31.3093
8799.23 38.9787
8799.64 50.4679
8800.05 68.7463
8800.46 99.6784
8800.86 156.123
8801.27 263.813
8801.64 419.290
8802.00 523.278
8802.37 419.991
8802.73 264.723
8802.95 197.560
8803.17 150.386
8803.62 93.5609
8804.06 63.5967
8804.50 46.3734
8804.95 35.7046
8805.39 28.6857
8806.27 20.3630
8807.16 15.8262
8808.05 13.0919
8809.82 10.1082
8811.59 8.60414
8813.36 7.74263
8815.13 7.20430
8816.91 6.84611
8820.45 6.41553
8823.99 6.17854
8827.54 6.03666
8831.08 5.94738
8838.17 5.85327
8845.26 5.82040
8859.43 5.86010
8866.52 5.93081
8873.61 6.05199
8880.70 6.25871
8887.78 6.63370
8891.33 6.94311
8894.87 7.40383
8898.42 8.13191
8901.96 9.38053
8905.50 11.7945
8907.27 13.9481
8909.05 17.4219
8910.82 23.5357
8912.59 35.6868
8913.48 46.6839
8914.36 64.3576
8915.25 94.2820
8916.13 146.026
8917.07 229.874
8918.00 285.116
8918.93 228.271
8919.87 144.116
8920.71 94.6894
8921.54 65.3950
8922.38 47.7270
8923.22 36.5693
8924.89 24.0783
8926.56 17.7309
8928.24 14.1053
8929.91 11.8559
8933.26 9.33559
8936.60 8.03664
8939.95 7.28311
8943.30 6.80841
8946.65 6.49063
8953.34 6.10541
8960.03 5.89008
8966.73 5.75770
8973.42 5.67051
8986.81 5.56614
9000.20 5.50801
9013.59 5.47197
9026.98 5.44793
9053.75 5.42006
9067.14 5.41435
9080.53 5.41729
9087.22 5.42500
9093.92 5.44101
9100.61 5.47301
9107.31 5.53978
9110.65 5.60026
9114.00 5.69648
9117.35 5.85951
9120.69 6.16166
9122.37 6.41679
9124.04 6.80341
9125.72 7.42643
9127.39 8.51496
9129.06 10.6585
9129.90 12.5928
9130.74 15.7290
9131.57 21.2784
9132.41 32.3132
9132.83 42.2785
9133.25 58.1546
9133.66 84.7383
9134.08 130.116
9134.54 206.770
9135.00 259.340
9135.46 210.226
9135.92 134.454
9136.34 88.4649
9136.76 61.3387
9137.18 45.0394
9137.61 34.7624
9138.45 23.2496
9139.29 17.3721
9140.14 13.9959
9140.98 11.8838
9142.67 9.49129
9144.36 8.23493
9146.05 7.49263
9147.73 7.01631
9149.42 6.69172
9152.80 6.28782
9156.17 6.05400
9159.55 5.90536
9162.92 5.80432
9169.67 5.67829
9176.42 5.60441
9183.17 5.55657
9189.92 5.52330
9203.43 5.48019
9216.93 5.45332
9243.93 5.42078
9270.93 5.40067
9297.93 5.38606
9351.94 5.36421
9405.94 5.34675
9459.95 5.33116
9567.96 5.30206
9675.97 5.27339
9783.98 5.24389
10000.0 5.17964
10147.4 5.12978
10294.9 5.07293
10368.6 5.04111
10442.3 5.00656
10516.0 4.96985
10552.9 4.95669
10562.1 4.95971
10571.3 4.97895
10575.9 5.01123
10580.5 5.10796
10582.8 5.24408
10584.0 5.37830
10585.1 5.61909
10586.3 6.11555
10586.8 6.59372
10587.4 7.40560
10588.0 9.01820
10588.3 10.4751
10588.6 12.7470
10588.8 16.8995
10589.0 20.4295
10589.1 25.2708
10589.3 33.2794
10589.4 45.4226
10589.6 65.8675
10589.7 101.004
10589.9 158.705
10590.0 197.277
10590.2 159.104
10590.3 101.185
10590.4 68.2705
10590.6 48.1343
10590.7 35.7723
10590.8 28.3576
10591.1 19.1167
10591.3 14.5106
10591.6 11.7317
10591.8 10.0554
10592.3 8.10875
10592.9 7.09172
10593.4 6.49507
10594.4 5.85907
10595.4 5.54471
10596.4 5.36638
10598.5 5.18198
10602.5 5.04128
10606.6 4.98825
10614.8 4.94549
10622.9 4.92651
10639.2 4.90557
10655.5 4.89085
10720.7 4.84007
10785.9 4.78636
10851.1 4.72536
10916.3 4.65434
10981.4 4.56977
11014.0 4.52089
11046.6 4.46680
11079.2 4.40922
11095.5 4.39407
11099.6 4.40574
11103.7 4.45635
11105.7 4.53555
11107.7 4.76448
11108.8 5.07889
11109.3 5.38514
11109.8 5.92606
11110.3 7.01503
11110.5 8.05144
11110.8 9.72543
11111.1 12.9850
11111.2 15.8166
11111.3 19.8239
11111.4 26.9457
11111.6 38.5866
11111.6 49.6308
11111.7 63.3708
11111.7 83.1548
11111.8 116.818
11111.9 180.919
11112.0 229.458
11112.1 181.519
11112.2 116.964
11112.3 73.0257
11112.4 48.3559
11112.5 34.4100
11112.6 26.0047
11112.7 20.6226
11112.8 16.9954
11113.0 12.7514
11113.2 10.2261
11113.4 8.68577
11113.8 7.01506
11114.2 6.13496
11114.6 5.63745
11115.3 5.10793
11116.9 4.69523
11118.5 4.53916
11121.6 4.41742
11124.8 4.36783
11131.1 4.32090
11137.3 4.29344
11162.5 4.21321
11187.6 4.13383
11212.8 4.04526
11263.0 3.82535
11313.3 3.51573
11338.4 3.30679
11363.6 3.04231
11388.7 2.69694
11413.9 2.22922
11426.4 1.92933
11439.0 1.57114
11451.6 1.14453
11464.1 0.654449
11476.7 0.186751
11479.9 0.111089
11483.0 0.0792671
11486.1 0.119413
11489.3 0.278297
11490.9 0.426276
11492.4 0.636765
11494.0 0.930018
11495.6 1.33236
11497.1 1.87983
11498.7 2.62241
11500.3 3.63051
11501.8 5.00497
11503.4 6.89286
11505.0 9.51270
11506.6 13.1957
11508.1 18.4532
11509.7 26.0861
11511.3 37.3536
11512.8 54.1874
11514.4 79.2774
11517.2 150.748
11520.0 220.821
11521.4 223.748
11522.8 204.099
11525.6 145.852
11528.2 104.467
11530.8 77.8660
11533.4 60.7669
11536.0 49.3763
11541.1 35.5979
11546.3 27.9060
11551.5 23.1070
11556.7 19.8856
11567.0 15.8827
11577.3 13.5247
11587.7 11.9874
11598.0 10.9094
11608.4 10.1152
11629.1 9.02469
11649.8 8.31283
11670.4 7.81182
11691.1 7.43978
11732.5 6.92280
11773.9 6.57881
11815.3 6.33136
11856.7 6.14312
11939.4 5.87092
12022.2 5.67765
12187.7 5.40268
12353.2 5.19241
12518.8 5.00169
12601.5 4.90557
12684.3 4.80542
12725.7 4.75300
12767.1 4.69859
12808.4 4.64259
12829.1 4.61833
12839.5 4.62703
12842.1 4.64854
12844.7 4.71652
12846.0 4.81414
12847.2 5.08337
12847.9 5.44328
12848.5 6.35898
12848.9 7.52411
12849.0 8.54100
12849.2 10.1771
12849.3 13.0407
12849.5 18.6719
12849.6 23.7062
12849.7 31.6938
12849.7 44.9961
12849.8 69.4847
12849.9 107.382
12850.0 134.765
12850.1 107.686
12850.2 69.8588
12850.2 52.4931
12850.3 41.3168
12850.4 26.5393
12850.5 18.9044
12850.6 14.5795
12850.7 11.9282
12850.8 10.1970
12851.1 8.15933
12851.3 7.05628
12851.5 6.39428
12851.9 5.68534
12852.8 5.10745
12853.7 4.88944
12855.4 4.72132
12857.2 4.65792
12860.7 4.60709
12864.1 4.58508
12878.1 4.54652
12906.0 4.49747
12961.9 4.40166
13017.8 4.29730
13073.6 4.18104
13185.3 3.89886
13297.0 3.51427
13352.9 3.26092
13408.8 2.94586
13464.6 2.54278
13520.5 2.01113
13576.3 1.29409
13604.3 0.854237
13632.2 0.388058
13646.2 0.180093
13653.1 0.0983195
13660.1 0.0434904
13667.1 0.0304805
13674.1 0.0818600
13677.6 0.141866
13681.1 0.232291
13684.6 0.360648
13688.1 0.536477
13691.6 0.772754
13695.0 1.08390
13702.0 2.02076
13709.0 3.60285
13716.0 6.28990
13723.0 10.9486
13729.9 19.2874
13736.9 34.7627
13743.9 63.9801
13752.0 124.530
13760.0 185.968
13764.0 190.078
13768.1 174.835
13776.1 126.825
13781.8 99.0903
13787.4 78.9673
13793.0 64.5673
13798.7 54.1543
13810.0 40.5531
13821.3 32.3630
13832.6 27.0260
13843.8 23.3275
13866.4 18.6103
13889.0 15.7693
13911.6 13.8925
13956.7 11.5895
14001.9 10.2559
14024.4 9.79543
14047.0 9.44327
14069.6 9.21464
14080.9 9.17411
14092.2 9.23170
14097.8 9.32865
14103.5 9.50844
14109.1 9.83505
14114.7 10.4471
14120.4 11.7089
14123.2 12.8727
14126.0 14.7942
14128.9 18.2647
14130.3 21.1339
14131.7 25.4017
14133.1 32.0817
14134.5 43.1906
14135.9 62.9018
14137.3 99.1384
14138.7 154.077
14140.0 190.345
14141.4 153.434
14142.7 98.8893
14143.9 65.9545
14145.2 46.6938
14146.4 35.1984
14147.7 27.9906
14150.1 19.9675
14152.6 15.9013
14155.1 13.5778
14157.6 12.1293
14162.5 10.4921
14167.5 9.62630
14172.4 9.10832
14177.4 8.76718
14182.3 8.52721
14192.3 8.20882
14202.2 8.00227
14212.1 7.85204
14222.0 7.73379
14241.8 7.55042
14261.6 7.40636
14301.3 7.17801
14340.9 6.99438
14380.5 6.83842
14400.4 6.76828
14420.2 6.70294
14440.0 6.64580
14449.9 6.63903
14452.4 6.65611
14454.9 6.71813
14456.1 6.80948
14457.4 7.06557
14458.0 7.40531
14458.6 8.28489
14458.9 9.36377
14459.2 11.8774
14459.4 14.7142
14459.5 19.9436
14459.6 24.9172
14459.7 31.6912
14459.8 44.3395
14459.8 64.9494
14459.9 98.5626
14460.0 123.606
14460.1 98.7951
14460.2 65.2335
14460.3 44.6050
14460.3 33.1652
14460.4 25.1229
14460.5 20.6340
14460.6 15.1049
14460.8 12.4043
14461.1 9.65831
14461.4 8.50256
14461.9 7.52268
14462.5 7.13652
14463.7 6.83625
14464.9 6.72204
14467.3 6.63231
14469.6 6.59535
14479.0 6.53801
14497.9 6.47831
14535.6 6.37975
14573.3 6.29026
14611.0 6.20707
14686.4 6.05517
14761.9 5.91773
14912.7 5.67015
15063.5 5.44066
15214.4 5.21326
15289.8 5.09649
15365.2 4.97650
15440.6 4.85478
15478.4 4.79598
15516.1 4.74395
15553.8 4.71324
15572.6 4.71953
15591.5 4.76270
15600.9 4.81240
15610.3 4.89836
15619.8 5.05059
15629.2 5.33696
15638.6 5.94179
15643.3 6.51992
15648.1 7.50863
15652.8 9.40249
15655.1 11.0635
15657.5 13.6720
15659.8 18.1211
15662.2 26.4172
15663.4 33.4845
15664.6 44.1229
15665.7 60.6278
15666.9 86.0783
15668.5 135.610
15670.0 168.962
15671.6 136.234
15673.1 86.8811
15674.6 56.7734
15676.0 39.2684
15677.5 28.8707
15678.9 22.3738
15681.8 15.1672
15684.7 11.5393
15687.6 9.46821
15690.5 8.19206
15696.3 6.78371
15702.1 6.13158
15705.0 5.99141
15707.9 5.99614
15710.8 6.26382
15712.2 6.61050
15713.7 7.27403
15715.1 8.68105
15715.8 10.0223
15716.6 12.2588
15717.3 16.5052
15717.6 20.0997
15718.0 25.6274
15718.4 34.6851
15718.7 50.7689
15719.1 82.1910
15719.3 109.091
15719.4 148.088
15719.7 234.336
15720.0 292.114
15720.3 234.982
15720.6 148.892
15720.8 106.332
15721.0 79.2980
15721.2 60.2477
15721.3 47.8661
15721.7 32.3447
15722.1 23.7916
15722.5 18.6398
15722.9 15.3151
15723.7 11.4415
15724.5 9.36009
15725.2 8.11332
15726.8 6.75182
15728.4 6.05650
15729.9 5.64822
15731.5 5.38414
15733.0 5.20067
15736.2 4.96279
15739.3 4.81389
15745.5 4.63224
15751.8 4.51920
15758.0 4.43800
15770.5 4.32129
15782.9 4.23493
15795.4 4.16381
15820.3 4.04390
15920.1 3.62858
16019.9 3.16047
16119.6 2.55813
16219.4 1.74164
16269.3 1.22788
16319.2 0.654173
16344.1 0.369869
16369.1 0.130683
16381.5 0.0514836
16387.8 0.0290447
16394.0 0.0221332
16400.2 0.0347260
16406.5 0.0717909
16412.7 0.139780
16418.9 0.246494
16425.2 0.402541
16431.4 0.620593
16437.7 0.918454
16443.9 1.31746
16456.4 2.54840
16468.8 4.68857
16481.3 8.43025
16493.8 15.0975
16506.2 27.2627
16518.7 49.6238
16534.4 100.301
16550.0 154.468
16557.8 160.155
16565.7 149.335
16581.3 111.025
16592.5 87.6031
16603.8 70.4316
16615.0 58.1095
16626.2 49.1589
16648.7 37.4152
16671.1 30.3028
16693.6 25.6384
16716.0 22.3894
16760.9 18.2129
16805.9 15.6758
16850.8 13.9852
16940.6 11.8865
17030.4 10.6401
17120.2 9.81531
17210.0 9.22838
17232.5 9.10714
17254.9 8.99442
17277.4 8.89212
17288.6 8.85813
17294.2 8.90117
17295.6 8.96469
17297.0 9.14968
17297.7 9.40024
17298.4 10.0604
17298.8 10.8848
17299.1 12.8534
17299.3 15.1312
17299.5 19.5251
17299.6 23.8514
17299.7 31.1381
17299.8 44.2657
17299.8 65.8768
17299.9 101.982
17300.0 123.249
17300.1 102.200
17300.2 66.1573
17300.3 44.5249
17300.3 31.3595
17300.4 24.0392
17300.5 19.6859
17300.7 15.0825
17300.9 12.9512
17301.2 10.9508
17301.6 10.1067
17302.3 9.41681
17303.0 9.15355
17304.4 8.94724
17305.8 8.86761
17311.4 8.76857
17322.7 8.70197
17345.1 8.60813
17367.6 8.52377
17390.1 8.44472
17435.1 8.29929
17480.1 8.16819
17659.9 7.74928
17749.9 7.58582
17839.8 7.44478
17884.8 7.38185
17929.8 7.32457
17974.7 7.27794
17986.0 7.27198
17997.2 7.27759
18002.9 7.29572
18008.5 7.35704
18011.3 7.44609
18014.1 7.69701
18015.5 8.03652
18016.2 8.36211
18016.9 8.93175
18017.6 10.0874
18018.0 11.1395
18018.3 12.8892
18018.7 16.1066
18018.8 18.9201
18019.0 22.9644
18019.2 29.9079
18019.4 41.3422
18019.5 64.4999
18019.6 84.1859
18019.7 111.032
18019.9 174.238
18020.0 214.879
18020.1 174.553
18020.3 111.067
18020.4 77.1720
18020.5 55.2337
18020.6 41.6401
18020.8 32.8830
18021.0 22.8846
18021.2 17.7023
18021.5 14.7049
18021.7 12.8253
18022.2 10.6972
18022.7 9.58664
18023.2 8.93575
18024.1 8.24281
18025.1 7.90089
18026.0 7.70725
18028.0 7.50762
18031.8 7.35659
18035.6 7.30061
18043.3 7.25838
18050.9 7.24379
18066.3 7.24207
18081.6 7.27003
18089.3 7.30213
18096.9 7.35663
18104.6 7.45190
18112.2 7.63029
18116.1 7.78116
18119.9 8.00847
18123.7 8.37222
18127.6 9.00301
18131.4 10.2325
18133.3 11.3370
18135.2 13.1105
18137.2 16.2429
18139.1 22.3943
18140.0 27.9374
18141.0 36.7600
18141.9 51.4850
18142.9 76.1784
18144.0 118.222
18145.0 146.164
18146.1 118.376
18147.1 76.9096
18148.1 50.6180
18149.2 35.6729
18150.2 26.9548
18151.2 21.6199
18152.3 18.1050
18153.3 15.7069
18155.3 12.7669
18157.4 11.0944
18159.4 10.0649
18163.5 8.91049
18167.7 8.31050
18171.8 7.95915
18175.9 7.73499
18180.0 7.58289
18188.2 7.39303
18196.4 7.28202
18204.6 7.20985
18212.8 7.15914
18229.3 7.09150
18245.7 7.04676
18262.1 7.01331
18278.5 6.98614
18311.4 6.94189
18344.2 6.90484
18409.9 6.84087
18475.7 6.78395
18541.4 6.73117
18672.8 6.63376
18804.2 6.54412
18869.9 6.50180
18935.6 6.46154
19001.3 6.42505
19034.1 6.41004
19067.0 6.40037
19099.9 6.40438
19116.3 6.41938
19132.7 6.45612
19140.9 6.49114
19149.1 6.54776
19157.3 6.64446
19165.6 6.82424
19169.7 6.97645
19173.8 7.20794
19177.9 7.58290
19182.0 8.24374
19186.1 9.57578
19188.1 10.8070
19190.2 12.8680
19192.3 16.7179
19193.3 20.0089
19194.3 25.0138
19195.3 33.2883
19196.4 47.8156
19197.4 76.4353
19197.9 100.666
19198.4 135.663
19199.2 213.529
19200.0 265.703
19200.8 214.359
19201.6 136.718
19202.4 87.6975
19203.2 59.7835
19203.9 43.4838
19204.7 33.4267
19205.5 26.8762
19206.3 22.4051
19207.8 16.9029
19209.4 13.7924
19211.0 11.8707
19214.1 9.72339
19217.2 8.61503
19220.3 7.96902
19223.4 7.55935
19226.6 7.28368
19232.8 6.94399
19239.0 6.75018
19245.3 6.62829
19251.5 6.54607
19264.0 6.44347
19276.5 6.38258
19288.9 6.34189
19301.4 6.31228
19326.4 6.27023
19351.3 6.23965
19401.2 6.19254
19451.1 6.15289
19501.0 6.11594
19600.8 6.04396
19700.6 5.97039
19800.4 5.89233
20000.0 5.71084
20083.7 5.61693
20167.3 5.50100
20209.2 5.42619
20230.1 5.38011
20251.0 5.32335
20271.9 5.24622
20282.4 5.19292
20292.8 5.12057
20303.3 5.01088
20308.5 4.92881
20313.8 4.81149
20319.0 4.62639
20321.6 4.48503
20324.2 4.28339
20326.8 3.96848
20328.1 3.73474
20329.4 3.41513
20330.8 2.94832
20332.1 2.25045
20332.7 1.80074
20333.4 1.48951
20333.7 1.71058
20334.0 2.95234
20334.2 4.74085
20334.3 8.14798
20334.5 15.1069
20334.6 21.0395
20334.7 29.6863
20334.8 43.2112
20334.8 59.0810
20335.0 91.2742
20335.1 94.8557
20335.2 88.9359
20335.3 66.9390
20335.5 53.3833
20335.6 42.7687
20335.7 35.2991
20335.9 29.9601
20336.1 23.0870
20336.4 18.9931
20336.6 16.3379
20336.9 14.5003
20337.4 12.1875
20337.9 10.7569
20338.4 9.80826
20339.5 8.64479
20340.5 7.95004
20341.5 7.49713
20343.6 6.93725
20345.7 6.60348
20347.7 6.38338
20351.9 6.10793
20356.0 5.94166
20360.1 5.82926
20368.4 5.68438
20376.6 5.59218
20384.9 5.52600
20401.4 5.43201
20418.0 5.36283
20434.5 5.30541
20467.5 5.20590
20533.6 5.02061
20566.6 4.92830
20583.2 4.90216
20587.3 4.91561
20591.4 4.97731
20593.5 5.07288
20595.5 5.34145
20596.6 5.69984
20597.6 6.60749
20598.1 7.71286
20598.4 8.68812
20598.6 10.1641
20598.9 12.7729
20599.2 17.7332
20599.3 22.0084
20599.4 28.5352
20599.6 38.8372
20599.7 54.2534
20599.8 84.5055
20600.0 103.739
20600.2 84.6567
20600.3 54.2935
20600.5 36.1924
20600.6 25.3177
20600.8 19.0026
20601.0 15.3198
20601.3 11.0806
20601.6 8.94771
20601.9 7.73618
20602.2 6.98540
20602.8 6.14408
20604.1 5.45102
20605.3 5.18156
20607.8 4.96871
20610.3 4.88461
20615.2 4.81078
20620.2 4.77260
20640.1 4.67874
20660.0 4.59784
20669.9 4.56365
20674.9 4.57719
20677.4 4.70435
20678.0 4.83687
20678.6 5.18786
20678.9 5.62572
20679.2 6.66484
20679.4 7.86188
20679.5 10.1249
20679.7 16.0164
20679.8 22.5249
20679.8 33.4215
20679.9 50.2827
20680.0 62.6291
20680.1 50.5243
20680.2 33.7175
20680.3 20.7799
20680.4 14.1483
20680.5 10.7639
20680.6 8.86184
20680.8 6.94666
20680.9 6.09240
20681.3 5.30577
20681.7 4.99199
20683.3 4.63672
20686.5 4.52184
20692.8 4.46449
20705.4 4.39616
20730.7 4.26358
20756.0 4.11758
20781.2 3.95333
20831.8 3.55125
20882.3 3.00661
20932.8 2.23347
20958.1 1.72141
20983.3 1.10831
21008.6 0.433271
21021.2 0.146898
21027.6 0.0574497
21033.9 0.0409416
21037.0 0.0748167
21040.2 0.148392
21043.4 0.273764
21046.5 0.466924
21049.7 0.749188
21052.8 1.14922
21056.0 1.70596
21059.1 2.46995
21062.3 3.51978
21065.5 4.95677
21068.6 6.92672
21071.8 9.62651
21074.9 13.3659
21078.1 18.5492
21081.3 25.7357
21084.4 35.5917
21088.3 52.5703
21092.2 75.1136
21100.0 119.723
21103.9 125.902
21107.8 118.861
21115.6 90.2626
21120.5 74.2133
21125.4 61.7538
21135.1 45.2167
21144.9 35.4277
21154.6 29.2345
21164.4 25.0487
21174.1 22.0740
21193.6 18.1733
21213.1 15.7588
21232.7 14.1316
21271.7 12.0930
21310.7 10.8738
21349.7 10.0654
21388.7 9.49027
21427.7 9.06009
21505.7 8.45838
21583.8 8.05613
21622.8 7.90058
21661.8 7.76674
21700.8 7.65092
21720.3 7.60268
21730.1 7.59832
21734.9 7.67070
21736.2 7.75335
21737.4 7.98386
21738.0 8.28801
21738.6 9.06896
21738.9 10.0389
21739.2 12.1901
21739.4 14.4447
21739.5 18.7178
21739.7 27.9907
21739.7 37.5783
21739.8 51.6035
21739.9 79.0798
21740.0 95.6866
21740.1 79.2833
21740.2 51.6291
21740.3 39.4016
21740.3 30.1863
21740.5 20.6769
21740.6 15.7059
21740.7 13.2066
21741.0 10.6444
21741.3 9.49139
21741.8 8.51554
21742.3 8.12427
21743.4 7.81692
21744.5 7.70021
21748.8 7.57097
21757.4 7.51789
21774.7 7.46932
21809.1 7.39309
21843.6 7.32538
21878.1 7.26362
22015.9 7.05998
22291.6 6.77916
22567.4 6.58504
22843.1 6.43426
23118.8 6.30708
23256.7 6.24911
23394.5 6.19432
23532.4 6.14420
23601.3 6.12289
23670.3 6.10777
23704.7 6.10500
23739.2 6.10858
23773.7 6.12409
23808.1 6.16478
23825.4 6.20429
23842.6 6.26857
23859.8 6.37849
23877.1 6.58233
23885.7 6.75400
23894.3 7.01370
23902.9 7.43120
23911.5 8.16027
23920.2 9.60408
23924.5 10.9192
23928.8 13.0759
23933.1 16.9796
23935.2 20.2258
23937.4 25.0509
23939.5 32.6841
23941.7 45.4258
23943.8 68.2732
23946.0 110.852
23948.0 174.280
23950.0 216.505
23952.0 174.449
23954.0 111.511
23955.5 79.3083
23957.0 58.3477
23958.5 44.6681
23960.0 35.4871
23963.0 24.5548
23965.9 18.6660
23968.9 15.1524
23971.9 12.9136
23977.8 10.3248
23983.8 8.94667
23989.7 8.13005
23995.7 7.60563
24001.6 7.24861
24013.5 6.80622
24025.4 6.55200
24037.4 6.39117
24049.3 6.28226
24073.1 6.14602
24096.9 6.06472
24120.7 6.01011
24144.5 5.97001
24192.1 5.91221
24239.7 5.86900
24335.0 5.79913
24525.4 5.67244
24715.9 5.53237
24906.4 5.35810
25096.9 5.12042
25192.1 4.96141
25287.3 4.76188
25335.0 4.64609
25382.6 4.53574
25406.4 4.51092
25418.3 4.52811
25430.2 4.59736
25442.1 4.79946
25448.1 5.02230
25454.0 5.43957
25460.0 6.31530
25462.9 7.14819
25465.9 8.56070
25468.9 11.2372
25470.4 13.5534
25471.9 17.1272
25473.4 23.1039
25474.8 33.9444
25475.6 42.9133
25476.3 55.7980
25477.1 74.9176
25477.8 103.248
25478.9 163.904
25480.0 204.509
25481.1 164.804
25482.2 105.110
25483.5 61.6739
25484.8 39.5906
25486.1 27.7463
25487.3 20.8952
25488.6 16.5699
25489.9 13.7029
25492.5 10.2815
25495.1 8.38425
25497.6 7.23047
25502.8 5.94247
25507.9 5.26953
25513.1 4.86556
25523.4 4.40547
25533.7 4.14044
25544.0 3.95493
25564.6 3.67542
25605.8 3.18817
25647.0 2.62762
25688.1 1.90313
25729.3 1.00881
25749.9 0.657882
25760.2 0.654271
25765.4 0.752981
25770.5 0.962819
25775.7 1.33979
25780.8 1.96877
25786.0 2.98356
25791.1 4.59434
25796.3 7.15482
25801.4 11.2323
25806.6 17.7458
25811.7 28.0476
25816.3 41.7371
25820.9 60.0808
25830.0 97.4666
25834.6 103.517
25839.2 98.7391
25848.3 76.5060
25858.8 55.1297
25869.2 41.9014
25879.7 33.7366
25890.1 28.4331
25911.0 22.2160
25931.9 18.8575
25973.7 15.6738
26015.5 14.6972
26057.3 15.2601
26078.2 16.2773
26099.1 18.0915
26120.0 21.2401
26140.9 26.8521
26161.8 37.3998
26182.7 57.9243
26201.4 87.7782
26220.0 107.819
26238.7 87.7317
26257.3 57.7845
26271.2 42.5150
26285.1 32.5977
26299.0 26.1188
26312.9 21.7576
26340.7 16.5280
26368.5 13.6628
26396.3 11.9273
26424.1 10.7920
26479.7 9.42950
26535.3 8.65602
26590.9 8.16163
26646.5 7.81791
26702.1 7.56371
26813.3 7.20821
26924.5 6.96566
27035.7 6.78442
27146.9 6.63997
27369.3 6.41408
27591.8 6.23418
27703.0 6.15582
27758.6 6.12074
27814.2 6.09143
27869.8 6.07645
27897.6 6.08255
27925.4 6.11149
27939.3 6.14344
27953.2 6.19817
27967.1 6.29500
27981.0 6.47879
27987.9 6.63531
27994.9 6.87347
28001.8 7.25791
28008.8 7.93167
28015.7 9.26380
28019.2 10.4755
28022.7 12.4534
28026.1 16.0088
28027.9 18.9326
28029.6 23.2300
28031.4 29.9413
28033.1 40.9923
28034.8 60.3149
28036.6 94.8689
28038.3 148.713
28040.0 185.012
28041.7 149.764
28043.4 96.2000
28045.4 58.0061
28047.4 38.2914
28049.4 27.6054
28051.4 21.3449
28053.3 17.4132
28055.3 14.7995
28059.3 11.6710
28063.2 9.93904
28067.2 8.88722
28075.1 7.72333
28083.0 7.12662
28090.9 6.77862
28098.8 6.55668
28106.7 6.40544
28122.6 6.21584
28138.4 6.10310
28154.2 6.02826
28170.0 5.97428
28201.7 5.89908
28233.3 5.84597
28296.6 5.76717
28359.9 5.70390
28423.2 5.64729
28486.4 5.57666
28518.1 5.45381
28526.0 5.36294
28533.9 5.17246
28537.9 4.97947
28539.8 4.82665
28541.8 4.60380
28543.8 4.24746
28545.8 3.60226
28546.8 3.04511
28547.8 2.16802
28548.7 0.949745
28549.0 0.900148
28549.2 1.65652
28549.4 2.99862
28549.5 5.63796
28549.6 11.0905
28549.7 22.7197
28549.8 33.3574
28549.9 48.3284
28550.0 79.2195
28550.1 84.2418
28550.1 80.2717
28550.3 62.3942
28550.4 46.3565
28550.6 36.0771
28550.7 29.0174
28550.9 24.6253
28551.1 19.0900
28551.4 16.0444
28551.7 14.0397
28552.0 12.6754
28552.6 10.9758
28553.2 9.93432
28553.7 9.25479
28554.9 8.40981
28556.0 7.90470
28557.2 7.57542
28559.4 7.17014
28564.0 6.78461
28568.6 6.61152
28586.9 6.48193
28605.3 6.67637
28623.6 7.15539
28641.9 8.17134
28651.1 9.09302
28660.3 10.5634
28669.4 13.0735
28678.6 17.7392
28683.2 21.6453
28687.7 27.4252
28692.3 36.1841
28696.9 49.4687
28703.5 77.4195
28710.0 97.3648
28716.6 80.6088
28723.1 53.4782
28727.3 40.9033
28731.5 32.1432
28740.0 21.7524
28748.4 16.3224
28756.8 13.2107
28765.2 11.2735
28773.7 9.99086
28790.5 8.44514
28807.4 7.57827
28824.2 7.03722
28857.9 6.41019
28891.6 6.05842
28925.3 5.82853
28992.7 5.52673
29060.1 5.31043
29127.5 5.12180
29262.3 4.73585
29397.0 4.23494
29464.4 3.88965
29531.8 3.42795
29599.2 2.76683
29632.9 2.31539
29666.6 1.74522
29700.3 1.03072
29717.2 0.633005
29734.0 0.265369
29742.4 0.136903
29750.9 0.100936
29755.1 0.142702
29759.3 0.245561
29763.5 0.433786
29767.7 0.741797
29771.9 1.22047
29776.1 1.93971
29780.4 3.00660
29784.6 4.57901
29788.8 6.89307
29793.0 10.3003
29797.2 15.3105
29801.4 22.6115
29806.1 34.2476
29810.7 50.0114
29820.0 82.6307
29824.7 88.2147
29829.3 84.4147
29838.6 65.6004
29846.5 51.3094
29854.3 41.1140
29862.2 34.0280
29870.0 29.0090
29885.7 22.5686
29901.4 18.7321
29917.1 16.2290
29932.8 14.4850
29964.2 12.2286
29995.6 10.8386
30026.9 9.89618
30042.6 9.53006
30058.3 9.21674
30074.0 8.96171
30081.9 8.92309
30083.8 8.97963
30085.8 9.18417
30086.8 9.47454
30087.8 10.2398
30088.3 11.1799
30088.7 13.3586
30089.0 15.7606
30089.2 20.2556
30089.4 24.6044
30089.5 30.9725
30089.6 41.3411
30089.7 59.0112
30089.9 88.7426
30090.0 109.081
30090.1 88.6789
30090.3 58.7484
30090.4 42.3852
30090.5 32.2843
30090.7 21.6298
30090.9 16.6947
30091.2 14.0811
30091.6 11.5409
30092.1 10.4470
30092.9 9.51692
30093.8 9.14629
30095.6 8.84248
30097.4 8.71413
30104.5 8.51310
30118.6 8.30562
30132.8 8.13542
30147.0 7.98166
30175.4 7.70916
30203.7 7.47347
30232.1 7.27108
30246.2 7.18647
30260.4 7.12339
30274.6 7.11213
30281.7 7.15497
30288.8 7.27778
30295.9 7.59523
30299.4 7.92525
30303.0 8.51068
30306.5 9.65488
30308.3 10.6556
30310.1 12.2168
30311.8 14.8042
30313.6 19.4309
30315.4 28.4780
30316.3 36.2502
30317.1 47.3606
30318.6 73.6374
30320.0 92.5189
30321.4 77.0742
30322.9 51.8890
30324.4 34.0907
30326.0 24.4435
30327.6 19.0093
30329.1 15.7445
30330.7 13.6261
30332.3 12.1872
30335.4 10.4180
30338.6 9.40215
30341.7 8.76395
30347.9 8.02278
30354.2 7.61294
30360.5 7.35460
30373.0 7.04125
30385.5 6.84931
30398.1 6.71160
30423.1 6.50928
30448.2 6.35132
30473.3 6.21374
30523.4 5.96567
30623.7 5.49368
30723.9 4.97765
30824.2 4.33822
30874.3 3.93899
30924.4 3.46258
30974.6 2.89368
31024.7 2.27385
31049.8 2.05644
31062.3 2.05828
31074.8 2.25402
31087.3 2.91630
31093.6 3.64532
31099.9 4.95084
31106.1 7.47508
31109.3 9.65348
31112.4 13.0067
31115.5 18.4995
31118.7 28.1288
31121.8 46.5956
31123.4 62.1719
31124.9 84.2650
31127.5 135.024
31130.0 168.759
31132.5 134.969
31135.1 84.5298
31136.8 60.0580
31138.6 43.8103
31140.4 32.9657
31142.1 25.5714
31145.6 16.6788
31149.2 11.9242
31152.7 9.23662
31156.2 7.71246
31163.2 6.66337
31170.3 7.38187
31177.3 9.70123
31184.4 13.9969
31191.4 21.0337
31198.6 31.9966
31205.7 47.3420
31220.0 80.7557
31227.2 87.5100
31234.3 84.8858
31248.6 67.5310
31259.0 55.3831
31269.4 46.0769
31279.8 39.1999
31290.2 34.0866
31311.0 27.2103
31331.8 22.9225
31352.6 20.0463
31373.4 18.0033
31415.0 15.3189
31456.6 13.6461
31498.2 12.5088
31581.4 11.0651
31664.6 10.1864
31747.8 9.59415
31914.2 8.84406
32080.6 8.39270
32163.8 8.23619
32246.9 8.12340
32288.5 8.08850
32330.1 8.07613
32371.7 8.10166
32413.3 8.20191
32434.1 8.30682
32454.9 8.48081
32475.7 8.77891
32496.5 9.32364
32517.3 10.4332
32527.7 11.4568
32538.1 13.1485
32548.5 16.2057
32553.7 18.7319
32558.9 22.4832
32564.1 28.3341
32569.3 38.0025
32574.5 54.9751
32579.7 85.6392
32584.9 133.634
32590.0 166.548
32595.1 135.758
32600.3 88.3269
32603.8 65.7536
32607.2 50.4573
32610.7 40.0546
32614.2 32.8727
32621.1 24.0137
32628.1 19.0606
32635.0 16.0433
32642.0 14.0777
32655.9 11.7628
32669.8 10.5002
32683.7 9.73431
32711.5 8.88383
32739.3 8.43867
32767.1 8.17077
32794.9 7.99276
32822.6 7.86561
32878.2 7.69338
32933.8 7.57827
32989.4 7.49227
33045.0 7.42286
33156.2 7.31042
33267.4 7.21168
33378.5 7.09189
33406.3 7.04228
33434.1 6.95974
33448.0 6.88555
33455.0 6.82889
33461.9 6.74661
33468.9 6.61360
33472.3 6.50976
33475.8 6.35804
33479.3 6.11268
33482.8 5.65077
33484.5 5.22119
33486.2 4.45954
33487.1 3.80565
33488.0 2.78248
33488.8 1.31530
33489.3 1.64227
33489.5 4.59793
33489.6 8.68254
33489.7 16.3614
33489.8 25.2398
33489.9 36.8834
33490.0 64.4382
33490.1 70.3529
33490.2 68.3852
33490.3 55.2108
33490.4 45.0911
33490.5 37.1886
33490.8 27.4415
33491.0 22.0903
33491.2 18.9492
33491.7 15.2982
33492.2 13.3271
33492.7 12.0864
33493.1 11.2677
33494.1 10.2339
33495.0 9.60503
33496.0 9.19037
33497.9 8.66966
33499.7 8.35795
33501.6 8.15044
33505.4 7.89118
33509.2 7.73536
33513.0 7.63109
33520.5 7.49976
33528.1 7.41951
33535.6 7.36492
33550.7 7.29398
33581.0 7.21602
33611.2 7.17020
33732.1 7.06920
33973.9 6.94915
34094.8 6.90030
34215.7 6.85725
34276.1 6.84156
34306.3 6.83844
34336.5 6.84357
34366.8 6.87040
34381.9 6.90457
34397.0 6.97348
34404.6 7.03439
34412.1 7.12929
34419.7 7.28682
34427.2 7.57125
34431.0 7.80679
34434.8 8.15815
34438.6 8.71311
34442.3 9.65679
34446.1 11.4565
34448.0 13.0284
34449.9 15.4998
34451.8 19.6760
34453.7 27.4338
34454.6 33.9991
34455.6 43.6787
34456.5 58.4665
34457.4 81.1049
34458.7 126.464
34460.0 156.879
34461.3 127.338
34462.6 82.6736
34463.4 62.5781
34464.2 48.7002
34465.8 32.1657
34467.4 23.5149
34469.0 18.5634
34470.6 15.5022
34472.2 13.4895
34475.4 11.1011
34478.6 9.79562
34481.8 9.00567
34488.2 8.13751
34494.6 7.69401
34501.0 7.43677
34507.4 7.27331
34513.8 7.16245
34526.6 7.02483
34539.4 6.94507
34565.0 6.86082
34590.6 6.82764
34603.4 6.82916
34616.2 6.85304
34629.0 6.92974
34635.4 7.01611
34641.8 7.17962
34648.2 7.52635
34651.4 7.85745
34654.6 8.42231
34657.8 9.48763
34659.4 10.4043
34661.0 11.8188
34662.6 14.1404
34664.2 18.2566
34665.8 26.2464
34666.6 33.0315
34667.4 42.8061
34668.7 65.3859
34670.0 81.2061
34671.3 67.1840
34672.6 45.0556
34673.8 31.3324
34675.0 23.2896
34676.2 18.4804
34677.4 15.4567
34679.8 12.0741
34682.3 10.3457
34684.7 9.35000
34687.1 8.72466
34691.9 8.01226
34696.8 7.63351
34701.6 7.40730
34711.3 7.15994
34721.0 7.03358
34730.6 6.96152
34750.0 6.89764
34759.7 6.89463
34769.3 6.91446
34779.0 6.97100
34788.7 7.10021
34793.5 7.21908
34798.4 7.40720
34803.2 7.72070
34808.0 8.28305
34812.9 9.41911
34815.3 10.4606
34817.7 12.1614
34820.1 15.2110
34822.5 21.3474
34823.8 26.9323
34825.0 35.9191
34826.2 51.1086
34827.4 77.0308
34828.7 121.248
34830.0 151.993
34831.3 124.687
34832.6 81.7791
34834.1 50.8428
34835.6 34.6210
34837.1 25.7158
34838.6 20.4427
34840.1 17.0998
34841.6 14.8584
34844.6 12.1470
34847.6 10.6222
34850.6 9.68411
34856.6 8.62672
34862.6 8.07170
34868.6 7.74116
34874.6 7.52645
34880.6 7.37785
34892.5 7.18839
34904.5 7.07426
34916.5 6.99848
34928.5 6.94452
34952.4 6.87228
34976.4 6.82526
35024.3 6.76497
35072.3 6.72504
35120.2 6.69439
35216.0 6.64587
35311.9 6.60487
35407.7 6.56658
35503.6 6.52838
35551.5 6.51037
35575.4 6.51547
35581.4 6.53229
35587.4 6.58953
35590.4 6.67408
35593.4 6.91081
35594.9 7.22276
35596.4 8.00774
35597.2 8.92785
35597.9 10.9237
35598.3 12.9349
35598.7 16.3940
35599.0 23.0267
35599.2 28.7846
35599.4 36.9418
35599.7 55.7570
35600.0 68.5059
35600.3 56.6462
35600.6 38.0572
35600.9 26.8279
35601.2 20.3263
35601.4 16.3702
35601.7 13.8513
35602.2 11.0015
35602.8 9.53269
35603.9 8.15016
35604.9 7.54295
35607.1 7.03184
35609.3 6.82706
35613.6 6.66253
35617.9 6.59733
35626.6 6.54380
35635.2 6.52086
35669.9 6.48908
35687.2 6.48736
35704.5 6.50736
35713.2 6.54731
35721.8 6.67435
35726.2 6.85596
35728.3 7.03664
35730.5 7.35795
35732.7 8.01453
35733.8 8.62505
35734.8 9.65238
35735.9 11.5682
35736.5 13.2064
35737.0 15.7268
35737.5 19.8572
35738.1 27.1875
35738.6 41.4820
35738.9 53.6932
35739.2 71.5253
35739.6 111.582
35740.0 138.141
35740.4 112.863
35740.8 73.0613
35741.3 44.8697
35741.8 30.1591
35742.3 22.2732
35742.8 17.7591
35743.3 14.8685
35743.8 12.9870
35744.8 10.7038
35745.8 9.43396
35746.8 8.67007
35748.8 7.82511
35750.8 7.39000
35752.8 7.13811
35756.7 6.86895
35760.7 6.73466
35764.7 6.65719
35772.6 6.57426
35788.5 6.50636
35804.4 6.47732
35836.1 6.45170
35867.9 6.44721
35899.6 6.47322
35915.5 6.51350
35931.4 6.59929
35947.3 6.79841
35955.2 6.99972
35963.1 7.35840
35971.1 8.07061
35975.0 8.71188
35979.0 9.74388
35983.0 11.5342
35987.0 14.9681
35988.9 17.9468
35990.9 22.4740
35992.9 29.6095
35994.9 40.9346
35997.4 62.9431
36000.0 78.6674
36002.6 65.4236
36005.1 44.0400
36006.9 33.3139
36008.8 26.1544
36010.6 21.3277
36012.4 18.0329
36016.0 13.9941
36019.6 11.7483
36023.3 10.3820
36026.9 9.49092
36034.2 8.43695
36041.4 7.85859
36048.7 7.50516
36063.2 7.10927
36077.7 6.90078
36092.2 6.77556
36121.3 6.63629
36150.3 6.56390
36179.4 6.52346
36237.4 6.50122
36266.5 6.52010
36295.5 6.57047
36324.6 6.67647
36353.6 6.89614
36368.1 7.09024
36382.6 7.39031
36397.2 7.87853
36411.7 8.73219
36426.2 10.3894
36433.5 11.8523
36440.7 14.1644
36448.0 18.0817
36455.2 25.3483
36458.9 31.4316
36462.5 40.4441
36466.1 54.1331
36469.7 74.8851
36474.9 118.089
36480.0 148.534
36485.1 121.968
36490.3 79.7590
36494.7 55.0540
36499.2 39.9576
36503.6 30.6180
36508.1 24.6058
36516.9 17.6973
36525.8 14.0807
36534.7 11.9618
36543.6 10.6175
36561.4 9.06471
36579.2 8.22881
36597.0 7.72269
36614.8 7.38896
36632.5 7.15478
36668.1 6.84906
36703.7 6.65691
36739.3 6.52181
36774.8 6.41814
36846.0 6.25795
36917.1 6.12205
36952.7 6.05339
36988.2 5.97689
37006.0 5.93140
37023.8 5.87556
37041.6 5.81176
37046.1 5.81635
37050.5 5.90748
37052.7 6.09139
37054.9 6.67833
37056.1 7.48821
37056.6 8.26011
37057.2 9.52642
37057.7 11.8694
37058.3 16.5550
37058.6 20.9194
37058.8 27.9908
37059.1 40.0127
37059.4 60.1874
37059.7 95.7255
37060.0 122.370
37060.3 102.066
37060.6 68.0908
37060.9 45.6960
37061.2 32.4908
37061.5 24.7470
37061.9 19.9392
37062.2 16.7825
37062.5 14.6075
37063.1 11.8910
37063.7 10.3204
37064.3 9.32729
37065.6 8.18021
37066.8 7.55984
37068.1 7.18152
37070.5 6.75459
37073.0 6.52538
37075.5 6.38430
37080.4 6.22074
37090.4 6.06657
37100.3 5.98746
37120.1 5.89364
37139.9 5.82763
37219.2 5.60697
37298.5 5.35599
37377.8 5.01636
37457.1 4.50272
37496.7 4.12693
37536.3 3.61250
37576.0 2.86976
37595.8 2.36655
37615.6 1.74251
37635.4 0.991234
37645.4 0.596887
37655.3 0.262869
37660.2 0.166800
37665.2 0.172440
37670.1 0.358054
37672.6 0.558023
37675.1 0.860223
37677.6 1.30181
37680.0 1.92894
37682.5 2.80575
37685.0 4.01373
37687.5 5.68030
37690.0 7.95901
37694.9 15.1998
37698.7 24.2017
37702.5 36.8287
37710.0 65.0379
37713.8 71.3096
37717.6 69.8390
37725.1 56.4234
37732.7 43.4870
37740.4 34.6321
37748.0 28.7414
37755.7 24.7014
37763.3 21.8095
37770.9 19.6668
37786.2 16.7327
37801.5 14.8408
37816.7 13.5297
37847.3 11.8420
37877.8 10.8070
37908.4 10.1072
37923.6 9.83491
37938.9 9.60006
37954.2 9.41309
37958.0 9.39601
37961.8 9.45241
37963.7 9.58196
37965.6 9.98441
37966.6 10.5222
37967.5 11.8094
37968.0 13.2372
37968.5 15.9815
37968.7 18.4605
37969.0 22.3550
37969.2 28.7211
37969.4 38.7517
37969.7 57.8057
37970.0 70.8340
37970.3 59.8472
37970.6 41.3243
37970.8 30.8009
37971.1 24.2963
37971.3 20.2160
37971.5 17.5558
37972.0 14.4701
37972.5 12.8362
37973.5 11.2439
37974.4 10.5296
37976.4 9.89876
37978.3 9.62615
37982.1 9.37734
37986.0 9.25384
37993.7 9.11038
38001.4 9.01284
38016.8 8.86264
38032.2 8.73948
38063.0 8.53591
38093.8 8.36971
38155.5 8.10976
38217.1 7.91338
38278.7 7.75741
38340.4 7.62736
38402.0 7.51647
38417.4 7.49950
38432.8 7.51741
38440.5 7.58184
38444.4 7.65990
38448.2 7.81501
38452.1 8.15984
38454.0 8.50172
38455.9 9.09806
38457.9 10.2670
38458.8 11.2975
38459.8 12.9285
38460.8 15.7329
38461.7 20.9020
38462.2 25.2316
38462.7 31.6452
38463.2 41.3810
38463.6 56.1740
38464.3 86.9580
38465.0 108.849
38465.7 89.9619
38466.4 60.1435
38467.0 41.4857
38467.7 30.4967
38468.3 23.8967
38468.9 19.7832
38470.2 15.0723
38471.5 12.6666
38472.8 11.2601
38474.0 10.3787
38476.6 9.36329
38479.1 8.81661
38481.7 8.48681
38486.8 8.12048
38491.9 7.92680
38496.9 7.80940
38507.1 7.67455
38517.3 7.59850
38527.5 7.54833
38547.9 7.48282
38588.6 7.40411
38629.4 7.35012
38670.1 7.30654
38710.9 7.26891
38792.4 7.20458
38873.9 7.14939
38955.4 7.09922
39036.9 7.05168
39057.3 7.04346
39077.6 7.05088
39087.8 7.08093
39098.0 7.19411
39103.1 7.36611
39105.7 7.53894
39108.2 7.84502
39110.8 8.45550
39112.0 9.00406
39113.3 9.88797
39114.6 11.4410
39115.9 14.4164
39116.5 17.0274
39117.1 20.9724
39117.8 27.3400
39118.4 37.3735
39119.2 56.8090
39120.0 70.4626
39120.8 58.7265
39121.6 40.0863
39122.5 27.1759
39123.3 20.1085
39124.2 16.1005
39125.1 13.6719
39125.9 12.1063
39126.8 11.0433
39128.5 9.74245
39130.2 8.99847
39131.9 8.53715
39135.3 8.01073
39138.8 7.73126
39142.2 7.56341
39149.1 7.37729
39155.9 7.27920
39162.8 7.21979
39176.5 7.15172
39204.0 7.08827
39231.4 7.05562
39286.3 7.01674
39341.2 6.99012
39451.0 6.94962
39560.8 6.91692
39780.4 6.86346
40000.0 6.81994
40000.0 9.25124
50000.0 9.26113
60000.0 9.28195
70000.0 9.30625
80000.0 9.33065
90000.0 9.35357
99999.9 9.37425
100000 9.15146
144665 9.27963
150000 9.29230
200000 9.28411
206067 9.27196
206246 9.27158
206247 9.27158
206269 9.27153
206270 9.27153
226973 9.22989
250000 9.18782
300000 9.04007
420000 8.53297
420000 8.53297
485906 8.31330
485910 8.31329
485956 8.31315
485957 8.31315
490000 8.30076
500000 8.27056
507813 8.24357
515625 8.21699
520504 8.20060
523438 8.19081
531250 8.16502
539063 8.13960
541007 8.13333
541010 8.13332
541231 8.13261
541232 8.13261
546875 8.11455
554688 8.08986
555848 8.08622
562500 8.06551
570313 8.04149
570463 8.04104
578125 8.01781
585079 7.99699
585938 7.99444
593750 7.97138
599694 7.95404
600000 7.95315
600000 7.95315
601563 7.94717
609375 7.91753
616012 7.89264
617188 7.88826
625000 7.85936
632813 7.83082
640380 7.80351
640625 7.80263
648438 7.77478
656250 7.74727
664063 7.72008
664748 7.71771
664817 7.71747
671875 7.69321
679688 7.66666
686670 7.64318
686674 7.64317
687500 7.64041
695313 7.61444
700000 7.59901
701411 7.59396
701701 7.59292
703125 7.58783
710938 7.56010
718750 7.53268
726563 7.50555
726686 7.50512
726690 7.50510
726762 7.50485
726763 7.50485
726989 7.50407
728303 7.49952
728606 7.49849
734375 7.47869
742188 7.45213
742370 7.45152
742471 7.45118
742526 7.45099
750000 7.42586
757813 7.39985
760838 7.38985
760917 7.38959
765625 7.37411
773438 7.34863
773939 7.34701
781250 7.32341
786380 7.30699
786385 7.30697
786486 7.30665
789063 7.29844
794556 7.28103
795510 7.27802
795512 7.27801
796875 7.27371
800000 7.26389
803275 7.25311
804688 7.24848
812500 7.22300
816252 7.21085
820313 7.19776
828125 7.17276
829228 7.16925
829321 7.16895
835938 7.14799
843750 7.12346
849653 7.10507
851563 7.09914
859375 7.07506
864956 7.05798
867188 7.05119
875000 7.02753
880259 7.01173
880260 7.01173
880356 7.01144
880457 7.01114
880460 7.01113
882813 7.00409
890625 6.98086
897344 6.96103
897445 6.96074
898438 6.95782
900000 6.95323
906250 6.93479
914063 6.91191
914416 6.91088
921875 6.88923
928832 6.86919
929688 6.86674
937500 6.84443
943248 6.82814
945313 6.82232
953125 6.80038
957664 6.78772
957665 6.78772
957770 6.78743
957772 6.78742
957873 6.78715
960938 6.77863
968750 6.75706
976563 6.73565
978937 6.72918
984375 6.71442
992188 6.69335
999999 6.67246
1.00000E+06 6.67245
1.00334E+06 6.66422
1.01563E+06 6.63414
1.03125E+06 6.59643
1.03516E+06 6.58708
1.03520E+06 6.58698
1.03527E+06 6.58681
1.03528E+06 6.58679
1.04688E+06 6.55927
1.05014E+06 6.55159
1.05024E+06 6.55135
1.06250E+06 6.52268
1.06781E+06 6.51037
1.06790E+06 6.51016
1.06793E+06 6.51009
1.07026E+06 6.50471
1.07444E+06 6.49509
1.07813E+06 6.48662
1.08510E+06 6.47070
1.08511E+06 6.47067
1.08552E+06 6.46974
1.09375E+06 6.45109
1.10397E+06 6.42812
1.10417E+06 6.42768
1.10938E+06 6.41605
1.12500E+06 6.38152
1.12832E+06 6.37424
1.12840E+06 6.37406
1.12842E+06 6.37402
1.12854E+06 6.37376
1.12855E+06 6.37374
1.12863E+06 6.37356
1.12874E+06 6.37332
1.14063E+06 6.34745
1.14747E+06 6.33270
1.14757E+06 6.33247
1.15625E+06 6.31386
1.15997E+06 6.30593
1.16056E+06 6.30467
1.16240E+06 6.30076
1.17188E+06 6.28071
1.18750E+06 6.24802
1.20000E+06 6.22216
1.20313E+06 6.21627
1.21875E+06 6.18707
1.23438E+06 6.15822
1.23549E+06 6.15618
1.25000E+06 6.12976
1.26563E+06 6.10159
1.27630E+06 6.08257
1.28125E+06 6.07380
1.28180E+06 6.07283
1.28625E+06 6.06498
1.29688E+06 6.04633
1.29736E+06 6.04549
1.29797E+06 6.04442
1.31250E+06 6.01920
1.31599E+06 6.01318
1.31614E+06 6.01292
1.32392E+06 5.99958
1.32813E+06 5.99239
1.34375E+06 5.96590
1.35938E+06 5.93970
1.37500E+06 5.91383
1.38426E+06 5.89863
1.39062E+06 5.88825
1.39063E+06 5.88823
1.40000E+06 5.87303
1.40625E+06 5.86254
1.42188E+06 5.83650
1.42417E+06 5.83271
1.43750E+06 5.81077
1.44069E+06 5.80555
1.44085E+06 5.80528
1.44706E+06 5.79516
1.44823E+06 5.79326
1.45226E+06 5.78671
1.45313E+06 5.78530
1.46206E+06 5.77086
1.46875E+06 5.76012
1.47807E+06 5.74522
1.48438E+06 5.73519
1.50000E+06 5.71055
1.50000E+06 5.71055
1.51345E+06 5.68902
1.51355E+06 5.68887
1.51563E+06 5.68556
1.52556E+06 5.66982
1.52566E+06 5.66966
1.52607E+06 5.66901
1.52610E+06 5.66896
1.53125E+06 5.66058
1.53138E+06 5.66037
1.54688E+06 5.63583
1.55700E+06 5.62036
1.55718E+06 5.62008
1.55738E+06 5.61978
1.56128E+06 5.61394
1.56250E+06 5.61213
1.56260E+06 5.61198
1.56819E+06 5.60308
1.56930E+06 5.60133
1.57813E+06 5.58759
1.58139E+06 5.58260
1.59060E+06 5.56874
1.59375E+06 5.56408
1.59645E+06 5.56012
1.60000E+06 5.55495
1.60938E+06 5.54015
1.62500E+06 5.51602
1.63724E+06 5.49755
1.63742E+06 5.49728
1.64063E+06 5.49251
1.64300E+06 5.48900
1.64310E+06 5.48885
1.64512E+06 5.48587
1.64522E+06 5.48572
1.65625E+06 5.46964
1.66248E+06 5.46070
1.66258E+06 5.46055
1.67188E+06 5.44737
1.68750E+06 5.42571
1.68775E+06 5.42537
1.70000E+06 5.40880
1.70089E+06 5.40748
1.70313E+06 5.40418
1.71875E+06 5.38144
1.72514E+06 5.37226
1.73438E+06 5.35910
1.75000E+06 5.33719
1.76071E+06 5.32237
1.76082E+06 5.32222
1.76122E+06 5.32166
1.76563E+06 5.31562
1.77662E+06 5.30069
1.78125E+06 5.29446
1.78140E+06 5.29426
1.78353E+06 5.29140
1.78827E+06 5.28506
1.79688E+06 5.27365
1.80000E+06 5.26954
1.80160E+06 5.26734
1.81250E+06 5.25243
1.82813E+06 5.23129
1.84375E+06 5.21047
1.85938E+06 5.18992
1.86620E+06 5.18104
1.87500E+06 5.16966
1.88390E+06 5.15824
1.88422E+06 5.15783
1.88433E+06 5.15770
1.88916E+06 5.15154
1.89063E+06 5.14967
1.90000E+06 5.13783
1.90028E+06 5.13747
1.90625E+06 5.12974
1.92188E+06 5.10967
1.92736E+06 5.10269
1.92740E+06 5.10264
1.93750E+06 5.08986
1.95313E+06 5.07026
1.95860E+06 5.06346
1.96875E+06 5.05091
1.98040E+06 5.03663
1.98438E+06 5.03177
1.98524E+06 5.03072
1.98566E+06 5.03020
1.99911E+06 5.01393
1.99921E+06 5.01381
2.00000E+06 5.01286
2.00596E+06 5.00587
2.01000E+06 5.00115
2.01000E+06 5.00115
2.02126E+06 4.98805
2.03829E+06 4.96843
2.03830E+06 4.96841
2.03839E+06 4.96831
2.05320E+06 4.95142
2.05353E+06 4.95104
2.05859E+06 4.94532
2.05902E+06 4.94484
2.06060E+06 4.94305
2.06250E+06 4.94090
2.08961E+06 4.91057
2.09184E+06 4.90809
2.09403E+06 4.90567
2.09450E+06 4.90516
2.11764E+06 4.87974
2.12262E+06 4.87433
2.12500E+06 4.87174
2.12648E+06 4.87014
2.12659E+06 4.87001
2.18750E+06 4.80524
2.20000E+06 4.79224
2.22903E+06 4.76193
2.22950E+06 4.76144
2.22964E+06 4.76130
2.24264E+06 4.74785
2.24671E+06 4.74366
2.24691E+06 4.74345
2.25000E+06 4.74027
2.25800E+06 4.73205
2.26533E+06 4.72455
2.26860E+06 4.72120
2.30660E+06 4.68272
2.30765E+06 4.68167
2.30765E+06 4.68166
2.31250E+06 4.67681
2.31864E+06 4.67067
2.31985E+06 4.66946
2.35740E+06 4.63231
2.35744E+06 4.63227
2.36362E+06 4.62620
2.36774E+06 4.62218
2.36785E+06 4.62207
2.36815E+06 4.62177
2.37500E+06 4.61509
2.39520E+06 4.59548
2.40000E+06 4.59085
2.41836E+06 4.57327
2.41870E+06 4.57294
2.41891E+06 4.57275
2.42150E+06 4.57027
2.42972E+06 4.56244
2.43750E+06 4.55505
2.43999E+06 4.55269
2.44473E+06 4.54820
2.44903E+06 4.54413
2.44953E+06 4.54367
2.45162E+06 4.54168
2.45172E+06 4.54159
2.45280E+06 4.54057
2.46405E+06 4.52998
2.46627E+06 4.52788
2.47524E+06 4.51946
2.49494E+06 4.50106
2.50000E+06 4.49635
2.50679E+06 4.49115
2.50709E+06 4.49092
2.51101E+06 4.48794
2.52000E+06 4.48109
2.52000E+06 4.48109
2.52050E+06 4.48071
2.52629E+06 4.47629
2.52781E+06 4.47514
2.53212E+06 4.47187
2.54735E+06 4.46034
2.54735E+06 4.46033
2.55473E+06 4.45479
2.55483E+06 4.45471
2.55484E+06 4.45471
2.55607E+06 4.45378
2.55790E+06 4.45241
2.56054E+06 4.45043
2.56055E+06 4.45042
2.56092E+06 4.45015
2.56110E+06 4.45001
2.56112E+06 4.44999
2.56250E+06 4.44896
2.56712E+06 4.44550
2.58908E+06 4.42915
2.59437E+06 4.42525
2.59457E+06 4.42509
2.60000E+06 4.42108
2.61615E+06 4.40920
2.62128E+06 4.40543
2.62159E+06 4.40520
2.62500E+06 4.40271
2.63803E+06 4.39321
2.63955E+06 4.39210
2.64107E+06 4.39099
2.64107E+06 4.39099
2.64168E+06 4.39056
2.64645E+06 4.38712
2.68750E+06 4.35771
2.75000E+06 4.31356
2.76861E+06 4.30056
2.76923E+06 4.30014
2.76943E+06 4.30000
2.78973E+06 4.28590
2.79029E+06 4.28551
2.79069E+06 4.28523
2.79070E+06 4.28523
2.79301E+06 4.28364
2.79783E+06 4.28033
2.80000E+06 4.27884
2.81250E+06 4.27032
2.83530E+06 4.25485
2.83594E+06 4.25442
2.85081E+06 4.24438
2.86636E+06 4.23392
2.87500E+06 4.22812
2.87936E+06 4.22520
2.88098E+06 4.22412
2.88100E+06 4.22411
2.90038E+06 4.21126
2.90103E+06 4.21083
2.90325E+06 4.20937
2.93750E+06 4.18687
2.98688E+06 4.15485
2.98755E+06 4.15442
2.99000E+06 4.15284
2.99000E+06 4.15284
2.99685E+06 4.14845
2.99690E+06 4.14840
2.99695E+06 4.14837
3.00000E+06 4.14642
3.03030E+06 4.13256
3.03120E+06 4.13214
3.03125E+06 4.13212
3.03160E+06 4.13196
3.03190E+06 4.13182
3.03292E+06 4.13136
3.04000E+06 4.12812
3.04000E+06 4.12812
3.06250E+06 4.11797
3.09375E+06 4.10391
3.09632E+06 4.10275
3.09773E+06 4.10212
3.12500E+06 4.09001
3.12520E+06 4.08992
3.12523E+06 4.08991
3.12523E+06 4.08991
3.18750E+06 4.06332
3.19817E+06 4.05877
3.21619E+06 4.05110
3.22371E+06 4.04792
3.25000E+06 4.03675
3.30646E+06 4.01287
3.30712E+06 4.01259
3.37500E+06 3.98402
3.40452E+06 3.97165
3.40608E+06 3.97100
3.41362E+06 3.96796
3.46410E+06 3.94774
3.50000E+06 3.93341
3.50000E+06 3.93341
3.53530E+06 3.92473
3.53610E+06 3.92452
3.53680E+06 3.92435
3.53760E+06 3.92416
3.57924E+06 3.91391
3.58087E+06 3.91351
3.61959E+06 3.90415
3.62153E+06 3.90368
3.62500E+06 3.90285
3.65927E+06 3.89466
3.66094E+06 3.89426
3.66458E+06 3.89339
3.72848E+06 3.87834
3.72850E+06 3.87834
3.75000E+06 3.87340
3.84211E+06 3.85237
3.87500E+06 3.84493
4.00000E+06 3.81712
4.02000E+06 3.81569
4.02000E+06 3.81569
4.11900E+06 3.80847
4.21930E+06 3.80095
4.23800E+06 3.79953
4.35700E+06 3.79038
4.45062E+06 3.78308
4.47600E+06 3.78109
4.50000E+06 3.77921
4.51000E+06 3.77962
4.51000E+06 3.77962
4.59500E+06 3.78317
4.69462E+06 3.78749
4.71400E+06 3.78836
4.83300E+06 3.79389
4.95200E+06 3.79985
5.00000E+06 3.80160
5.00000E+06 3.80160
5.21019E+06 3.83658
5.34771E+06 3.85823
5.48524E+06 3.87959
5.50000E+06 3.88183
5.50152E+06 3.88206
5.66944E+06 3.90752
5.68506E+06 3.90984
6.00000E+06 3.95506
6.02000E+06 3.95885
6.02000E+06 3.95886
6.03166E+06 3.96106
6.06332E+06 3.96704
6.09498E+06 3.97298
6.12664E+06 3.97890
6.15830E+06 3.98479
6.18996E+06 3.99065
6.22162E+06 3.99649
6.25000E+06 4.00170
6.25328E+06 4.00230
6.27109E+06 4.00555
6.28891E+06 4.00880
6.30672E+06 4.01205
6.32454E+06 4.01528
6.34235E+06 4.01850
6.36016E+06 4.02172
6.37798E+06 4.02493
6.39579E+06 4.02813
6.41703E+06 4.03193
6.43827E+06 4.03571
6.45950E+06 4.03949
6.48074E+06 4.04326
6.50000E+06 4.04666
6.50602E+06 4.04773
6.53130E+06 4.05219
6.55658E+06 4.05663
6.58186E+06 4.06105
6.60714E+06 4.06546
6.63242E+06 4.06986
6.65770E+06 4.07424
6.68298E+06 4.07861
6.70826E+06 4.08296
6.73353E+06 4.08729
6.75000E+06 4.09011
6.75881E+06 4.09162
6.78409E+06 4.09592
6.80937E+06 4.10022
6.83465E+06 4.10450
6.85993E+06 4.10876
6.88521E+06 4.11302
6.88694E+06 4.11331
6.88766E+06 4.11343
6.89675E+06 4.11496
6.92058E+06 4.11894
6.94440E+06 4.12292
6.96823E+06 4.12688
6.99205E+06 4.13083
7.00000E+06 4.13215
7.03335E+06 4.13633
7.04000E+06 4.13717
7.04000E+06 4.13717
7.06546E+06 4.14035
7.10850E+06 4.14570
7.15154E+06 4.15102
7.19458E+06 4.15631
7.23762E+06 4.16158
7.29158E+06 4.16815
7.34555E+06 4.17467
7.39951E+06 4.18115
7.45347E+06 4.18759
7.45430E+06 4.18769
7.45598E+06 4.18789
7.48331E+06 4.19113
7.53044E+06 4.19668
7.54412E+06 4.19828
7.54566E+06 4.19846
7.54755E+06 4.19868
7.56445E+06 4.20066
7.63750E+06 4.20913
7.71054E+06 4.21754
7.71191E+06 4.21769
7.73734E+06 4.22060
7.81399E+06 4.22932
7.89064E+06 4.23796
7.89065E+06 4.23796
7.94533E+06 4.24408
8.00000E+06 4.25015
8.00000E+06 4.25015
8.02988E+06 4.25213
8.05977E+06 4.25411
8.08965E+06 4.25607
8.11954E+06 4.25803
8.14942E+06 4.25999
8.17930E+06 4.26194
8.20919E+06 4.26388
8.23907E+06 4.26582
8.26659E+06 4.26759
8.29411E+06 4.26935
8.31543E+06 4.27072
8.33674E+06 4.27209
8.35806E+06 4.27345
8.37937E+06 4.27481
8.38459E+06 4.27514
8.40720E+06 4.27658
8.42982E+06 4.27801
8.45243E+06 4.27945
8.47504E+06 4.28087
8.48528E+06 4.28151
8.50977E+06 4.28305
8.53426E+06 4.28457
8.55875E+06 4.28610
8.58324E+06 4.28762
8.58822E+06 4.28792
8.61632E+06 4.28966
8.64442E+06 4.29139
8.67251E+06 4.29312
8.70061E+06 4.29484
8.73003E+06 4.29663
8.73046E+06 4.29666
8.73143E+06 4.29672
8.73609E+06 4.29702
8.73885E+06 4.29718
8.76111E+06 4.29853
8.78336E+06 4.29988
8.80562E+06 4.30123
8.82787E+06 4.30258
8.84981E+06 4.30390
8.87175E+06 4.30522
8.89369E+06 4.30654
8.91563E+06 4.30786
8.93361E+06 4.30894
8.96681E+06 4.31092
8.99000E+06 4.31230
8.99000E+06 4.31230
9.00000E+06 4.31289
9.06005E+06 4.31385
9.12011E+06 4.31481
9.18016E+06 4.31577
9.24021E+06 4.31673
9.25057E+06 4.31689
9.25523E+06 4.31696
9.31639E+06 4.31794
9.32621E+06 4.31810
9.39440E+06 4.31919
9.39472E+06 4.31920
9.39988E+06 4.31928
9.40010E+06 4.31929
9.47852E+06 4.32055
9.48683E+06 4.32068
9.55576E+06 4.32174
9.62468E+06 4.32281
9.62972E+06 4.32289
9.68488E+06 4.32374
9.74004E+06 4.32460
9.74409E+06 4.32466
9.77649E+06 4.32517
9.78944E+06 4.32537
9.89603E+06 4.32702
9.89837E+06 4.32706
1.00000E+07 4.32865
1.00300E+07 4.32771
1.00300E+07 4.32771
1.01220E+07 4.32492
1.02441E+07 4.32145
1.03661E+07 4.31825
1.04881E+07 4.31531
1.05000E+07 4.31504
1.06108E+07 4.31261
1.07215E+07 4.31039
1.08608E+07 4.30789
1.10000E+07 4.30571
1.11485E+07 4.29587
1.12491E+07 4.28953
1.14891E+07 4.27573
1.15000E+07 4.27515
1.17926E+07 4.26088
1.18715E+07 4.25748
1.20000E+07 4.25234
1.20000E+07 4.25234
1.22058E+07 4.23468
1.24117E+07 4.21837
1.26175E+07 4.20337
1.28233E+07 4.18967
1.28314E+07 4.18914
1.28736E+07 4.18598
1.29157E+07 4.18287
1.29579E+07 4.17982
1.30000E+07 4.17683
1.30625E+07 4.16939
1.31250E+07 4.16208
1.31875E+07 4.15489
1.32500E+07 4.14782
1.33125E+07 4.14088
1.33750E+07 4.13405
1.34375E+07 4.12735
1.35000E+07 4.12076
1.35517E+07 4.11540
1.36035E+07 4.11013
1.36552E+07 4.10493
1.37069E+07 4.09981
1.37706E+07 4.09362
1.38342E+07 4.08755
1.38979E+07 4.08161
1.39615E+07 4.07578
1.39800E+07 4.07411
1.39800E+07 4.07411
1.40000E+07 4.07231
1.40903E+07 4.05959
1.41806E+07 4.04710
1.42708E+07 4.03484
1.43611E+07 4.02281
1.43671E+07 4.02201
1.43694E+07 4.02171
1.44347E+07 4.01317
1.45000E+07 4.00475
1.45009E+07 4.00463
1.45019E+07 4.00449
1.45039E+07 4.00423
1.45058E+07 4.00398
1.45078E+07 4.00372
1.45117E+07 4.00321
1.45156E+07 4.00270
1.45195E+07 4.00218
1.45234E+07 4.00167
1.45312E+07 4.00065
1.45390E+07 3.99964
1.45468E+07 3.99862
1.45625E+07 3.99657
1.45781E+07 3.99456
1.45937E+07 3.99256
1.46250E+07 3.98854
1.46562E+07 3.98456
1.46875E+07 3.98059
1.47187E+07 3.97666
1.47500E+07 3.97275
1.47812E+07 3.96888
1.48125E+07 3.96503
1.48750E+07 3.95741
1.49597E+07 3.94726
1.50000E+07 3.94250
1.51852E+07 3.91685
1.52933E+07 3.90221
1.54015E+07 3.88782
1.55096E+07 3.87366
1.56177E+07 3.85975
1.56321E+07 3.85791
1.56503E+07 3.85560
1.56847E+07 3.85125
1.57274E+07 3.84588
1.58773E+07 3.82732
1.60000E+07 3.81247
1.61365E+07 3.79727
1.61510E+07 3.79568
1.62958E+07 3.77988
1.63869E+07 3.77009
1.64472E+07 3.76368
1.67032E+07 3.73702
1.67087E+07 3.73647
1.67104E+07 3.73629
1.69056E+07 3.71660
1.69900E+07 3.70825
1.69900E+07 3.70825
1.70000E+07 3.70727
1.72289E+07 3.68994
1.72426E+07 3.68891
1.74015E+07 3.67720
1.76685E+07 3.65769
1.79355E+07 3.63883
1.79482E+07 3.63796
1.79483E+07 3.63795
1.80000E+07 3.63437
1.85000E+07 3.59890
1.90000E+07 3.56542
1.95000E+07 3.53184
2.00000E+07 3.50001