Mo-97(n,g) ENDF/B-VII.1
Energy(eV) XS(b)
1.00000E-05 110.535
1.25000E-05 98.8656
1.50000E-05 90.2515
2.00000E-05 78.1601
2.75000E-05 66.6552
3.50000E-05 59.0835
4.25000E-05 53.6174
5.00000E-05 49.4328
6.25000E-05 44.2140
7.50000E-05 40.3617
0.000100000 34.9542
0.000125000 31.2640
0.000150000 28.5400
0.000200000 24.7163
0.000275000 21.0781
0.000350000 18.6837
0.000425000 16.9551
0.000500000 15.6318
0.000625000 13.9815
0.000750000 12.7633
0.00100000 11.0532
0.00125000 9.88626
0.00150000 9.02482
0.00200000 7.81563
0.00275000 6.66506
0.00350000 5.90784
0.00425000 5.36118
0.00500000 4.94267
0.00625000 4.42072
0.00750000 4.03542
0.0100000 3.49456
0.0125000 3.12543
0.0150000 2.85294
0.0200000 2.47041
0.0253000 2.19617
0.0314750 1.96869
0.0376500 1.79975
0.0500000 1.56126
0.0625000 1.39600
0.0750000 1.27397
0.100000 1.10261
0.125000 0.985589
0.150000 0.899158
0.200000 0.777729
0.275000 0.662020
0.350000 0.585731
0.500000 0.488250
0.750000 0.396219
1.00000 0.341051
1.50000 0.275126
2.00000 0.235442
2.75000 0.197281
3.50000 0.171876
5.00000 0.139058
7.50000 0.107687
10.0000 0.0887842
15.0000 0.0664769
20.0000 0.0536992
27.5000 0.0428704
35.0000 0.0378868
42.5000 0.0378606
50.0000 0.0457251
55.2112 0.0629633
57.8168 0.0811624
60.4225 0.115031
61.7253 0.143836
63.0281 0.188064
64.3309 0.260952
65.6337 0.393824
66.2851 0.505729
66.9365 0.676580
67.5879 0.956554
68.2393 1.46341
68.5650 1.88746
68.8907 2.53061
69.2164 3.57491
69.5421 5.43961
69.7050 6.97775
69.8678 9.27800
70.0307 12.9406
70.1935 19.2955
70.3564 31.7885
70.4378 43.1260
70.5192 61.7321
70.6006 95.3049
70.6413 123.125
70.6821 164.667
70.7228 230.115
70.7635 339.982
70.8042 537.695
70.8246 694.416
70.8449 908.002
70.8825 1452.62
70.9200 1815.38
70.9576 1451.69
70.9951 906.912
71.0283 588.871
71.0615 398.538
71.0947 282.782
71.1278 209.247
71.1942 126.369
71.2606 83.9466
71.3269 59.6011
71.3933 44.4239
71.5260 27.3373
71.6588 18.4750
71.7915 13.3055
71.9242 10.0328
72.0570 7.83221
72.3224 5.15023
72.5879 3.64141
72.8533 2.70984
73.1188 2.09489
73.6497 1.35954
74.1807 0.953778
74.7116 0.706763
75.2425 0.545605
76.3044 0.356328
77.3662 0.257959
78.4281 0.226633
78.6935 0.245756
78.9590 0.316271
79.0917 0.412965
79.1581 0.503064
79.2244 0.652886
79.2908 0.926109
79.3572 1.49609
79.3904 2.03802
79.4235 2.95399
79.4567 4.61753
79.4899 7.76996
79.5200 12.3476
79.5500 15.4008
79.5801 12.3503
79.6101 7.77196
79.6300 5.64469
79.6499 4.19369
79.6898 2.52018
79.7296 1.67380
79.7694 1.20044
79.8092 0.912310
79.8491 0.725029
79.9287 0.505067
80.0084 0.385796
80.0880 0.313746
80.2473 0.234027
80.5659 0.167131
80.8845 0.137990
81.5217 0.109517
82.1588 0.0936766
84.7076 0.0612951
87.2563 0.0452064
89.8051 0.0355342
94.9025 0.0249607
100.000 0.0202010
102.369 0.0196410
104.738 0.0215448
105.922 0.0254400
106.514 0.0295819
107.106 0.0372634
107.699 0.0535592
107.995 0.0694314
108.291 0.0974622
108.587 0.153933
108.735 0.206487
108.883 0.294976
109.031 0.461143
109.105 0.604465
109.179 0.827425
109.253 1.19919
109.327 1.87737
109.364 2.43795
109.401 3.26029
109.438 4.49557
109.475 6.35049
109.528 10.1430
109.580 12.6683
109.633 10.1478
109.685 6.35647
109.718 4.65108
109.752 3.46774
109.819 2.07584
109.885 1.35805
109.952 0.951592
110.019 0.702413
110.086 0.539711
110.219 0.348229
110.353 0.244614
110.487 0.182470
110.754 0.114954
111.021 0.0810447
111.288 0.0616450
111.823 0.0414260
112.357 0.0316282
112.891 0.0261379
113.960 0.0205157
116.098 0.0164508
118.235 0.0153860
120.373 0.0158963
122.510 0.0190306
123.579 0.0235367
124.113 0.0279268
124.648 0.0357161
125.182 0.0516966
125.449 0.0669694
125.716 0.0936110
125.984 0.146584
126.117 0.195319
126.251 0.276572
126.384 0.426750
126.451 0.554388
126.518 0.749914
126.585 1.06896
126.652 1.63260
126.718 2.72612
126.752 3.65614
126.785 4.99200
126.838 7.97080
126.890 9.95446
126.943 7.97419
126.995 4.99636
127.031 3.56844
127.067 2.60979
127.103 1.96502
127.139 1.52179
127.211 0.980263
127.283 0.681297
127.355 0.500718
127.427 0.384347
127.571 0.248959
127.715 0.176531
127.859 0.133536
128.148 0.0873939
128.436 0.0647121
128.724 0.0521521
129.300 0.0401013
129.876 0.0356955
130.453 0.0349401
131.605 0.0407216
132.758 0.0593852
133.334 0.0790759
133.910 0.115155
134.198 0.145359
134.486 0.190968
134.774 0.264411
135.063 0.393686
135.351 0.653351
135.495 0.894252
135.639 1.29874
135.783 2.05522
135.855 2.70499
135.927 3.71151
135.999 5.38275
136.071 8.40141
136.107 10.8743
136.143 14.4711
136.179 19.8166
136.215 27.7467
136.268 44.3013
136.320 55.3048
136.373 44.3180
136.425 27.7678
136.487 15.7530
136.549 9.66669
136.611 6.41515
136.673 4.53032
136.736 3.35618
136.798 2.58072
136.922 1.65836
137.046 1.15340
137.170 0.848482
137.418 0.515303
137.667 0.347014
137.915 0.250510
138.164 0.190062
138.412 0.149742
138.909 0.100938
139.405 0.0736389
139.902 0.0568261
140.399 0.0457334
141.392 0.0324378
142.385 0.0250540
144.372 0.0175130
146.359 0.0138924
148.345 0.0118527
152.319 0.00971822
160.266 0.00806066
168.213 0.00749100
184.106 0.00766307
192.053 0.00857447
196.027 0.00960273
200.000 0.0118031
202.469 0.0149436
203.703 0.0179342
204.938 0.0232394
206.172 0.0342803
206.789 0.0450651
207.406 0.0643954
207.715 0.0804360
208.024 0.104591
208.332 0.143443
208.641 0.211889
208.949 0.349784
209.104 0.478286
209.258 0.695404
209.412 1.10477
209.489 1.46024
209.567 2.01571
209.644 2.95092
209.721 4.67640
209.759 6.12291
209.798 8.26482
209.837 11.5393
209.875 16.5261
209.928 26.3849
209.980 32.9379
210.033 26.3915
210.085 16.5343
210.119 12.0292
210.153 8.92255
210.221 5.30055
210.289 3.44446
210.357 2.40047
210.425 1.76178
210.493 1.34647
210.629 0.858824
210.764 0.595427
210.900 0.437878
211.172 0.267023
211.444 0.181479
211.715 0.132708
212.259 0.0821871
212.802 0.0580187
213.346 0.0447253
214.432 0.0316605
215.519 0.0261058
216.606 0.0237695
218.780 0.0240536
220.953 0.0302891
222.040 0.0374039
223.127 0.0506274
224.214 0.0787041
224.757 0.106255
225.300 0.155594
225.572 0.196435
225.844 0.257750
226.116 0.355942
226.387 0.527810
226.659 0.870516
226.795 1.18650
226.931 1.71358
227.067 2.68990
227.134 3.52017
227.202 4.79341
227.270 6.87800
227.338 10.5653
227.406 17.7457
227.440 23.8867
227.474 32.7428
227.527 52.3821
227.580 65.4790
227.633 52.3939
227.686 32.7581
227.729 21.9657
227.773 15.2448
227.816 11.0222
227.859 8.27667
227.946 5.09722
228.032 3.43271
228.119 2.46198
228.205 1.85119
228.378 1.15646
228.552 0.792978
228.725 0.579919
229.071 0.353867
229.417 0.243708
229.763 0.182993
230.456 0.126248
231.148 0.112744
231.494 0.120066
231.840 0.142783
232.187 0.198149
232.360 0.253174
232.533 0.348952
232.706 0.534288
232.792 0.698439
232.879 0.959601
232.966 1.40996
233.052 2.27129
233.095 3.02012
233.139 4.16959
233.182 6.00859
233.225 8.96304
233.278 14.2969
233.330 17.8447
233.383 14.2993
233.435 8.96551
233.491 5.36203
233.547 3.42227
233.604 2.33449
233.660 1.68453
233.716 1.26960
233.772 0.991465
233.884 0.654695
233.996 0.467175
234.109 0.352664
234.333 0.225845
234.558 0.160871
234.782 0.123153
235.231 0.0831297
235.680 0.0633068
236.129 0.0520096
237.027 0.0403097
238.823 0.0323689
240.620 0.0319577
242.416 0.0371605
243.314 0.0433803
244.212 0.0550056
245.110 0.0796491
245.559 0.103735
246.008 0.146666
246.457 0.234892
246.682 0.318946
246.906 0.464605
247.131 0.750438
247.243 1.00946
247.355 1.43331
247.467 2.19626
247.523 2.82589
247.580 3.76276
247.636 5.23456
247.692 7.68595
247.748 12.0566
247.804 20.1483
247.857 32.3135
247.910 40.4632
247.963 32.3203
248.016 20.1570
248.055 14.0428
248.094 10.0532
248.133 7.44262
248.172 5.68682
248.249 3.59177
248.327 2.45849
248.405 1.78464
248.483 1.35403
248.638 0.857779
248.794 0.594625
248.950 0.438929
249.261 0.272014
249.572 0.189381
249.883 0.142692
250.506 0.0949450
251.128 0.0726519
251.750 0.0608715
252.995 0.0505527
255.485 0.0491658
257.974 0.0600951
260.464 0.0875558
261.708 0.114952
262.953 0.164219
263.575 0.205276
264.198 0.267507
264.820 0.368782
265.443 0.550846
265.754 0.702411
266.065 0.931360
266.376 1.30125
266.687 1.95729
266.843 2.49487
266.999 3.29363
267.154 4.55435
267.310 6.71407
267.465 10.8752
267.543 14.5699
267.621 20.4938
267.699 30.8139
267.777 50.9625
267.815 68.8329
267.854 96.9363
267.893 143.108
267.913 176.731
267.932 219.828
267.954 281.101
267.976 350.987
268.020 438.116
268.042 412.484
268.064 350.922
268.108 219.751
268.143 149.280
268.178 104.648
268.212 76.2115
268.247 57.4884
268.317 35.6347
268.386 24.0787
268.456 17.2927
268.525 13.0046
268.665 8.10467
268.804 5.52931
268.943 4.01420
269.082 3.04934
269.221 2.39777
269.499 1.60043
269.777 1.15024
270.056 0.871894
270.334 0.688214
270.890 0.469405
271.447 0.350141
272.559 0.234847
273.672 0.188177
274.785 0.171639
277.011 0.189533
278.123 0.223008
279.236 0.281249
280.349 0.382457
281.462 0.570929
282.018 0.730409
282.575 0.973649
283.131 1.37046
283.687 2.08227
283.966 2.67158
284.244 3.55568
284.522 4.96910
284.800 7.43518
285.078 12.3245
285.218 16.8014
285.357 24.2206
285.496 37.8013
285.565 49.2355
285.635 66.5426
285.704 94.4116
285.774 142.532
285.809 180.306
285.844 233.078
285.878 307.797
285.913 412.590
285.972 660.057
286.030 824.941
286.089 659.856
286.147 412.369
286.198 270.430
286.248 184.415
286.299 131.592
286.349 97.8253
286.450 59.4044
286.551 39.6140
286.652 28.1946
286.753 21.0592
286.955 13.0002
287.156 8.80519
287.358 6.35435
287.560 4.79957
287.762 3.75335
288.166 2.47592
288.569 1.75629
288.973 1.31138
289.377 1.01732
290.184 0.665105
290.992 0.470370
291.799 0.351572
292.607 0.273877
294.221 0.182033
295.836 0.132303
297.451 0.102963
299.066 0.0849961
302.296 0.0692933
303.911 0.0700139
305.525 0.0791176
307.140 0.105979
307.948 0.135029
308.755 0.189286
309.159 0.235331
309.563 0.305649
309.966 0.420485
310.370 0.626624
310.572 0.797384
310.774 1.05345
310.976 1.46304
311.177 2.17722
311.379 3.59351
311.480 4.88926
311.581 7.03545
311.682 10.9661
311.733 14.2718
311.783 19.2687
311.833 27.3109
311.884 41.1679
311.934 67.1961
311.960 88.5805
311.985 118.606
312.006 151.937
312.027 189.847
312.070 237.188
312.113 189.641
312.155 118.572
312.190 79.6034
312.225 55.3484
312.259 40.0676
312.294 30.0913
312.363 18.5441
312.432 12.4799
312.501 8.94296
312.571 6.71279
312.709 4.17528
312.848 2.84501
312.986 2.06459
313.124 1.56819
313.263 1.23322
313.540 0.823430
313.816 0.592208
314.093 0.449194
314.370 0.354762
314.924 0.242175
315.477 0.180918
316.585 0.123471
317.692 0.107820
318.246 0.112964
318.799 0.132107
319.353 0.181463
319.630 0.232172
319.907 0.323197
320.184 0.507619
320.322 0.678803
320.460 0.965792
320.599 1.49932
320.668 1.95502
320.737 2.65632
320.806 3.80778
320.876 5.86063
320.945 9.90019
320.979 13.3850
321.014 18.4713
321.067 29.5960
321.120 37.0407
321.173 29.6002
321.226 18.4762
321.287 10.5857
321.349 6.54907
321.410 4.37495
321.471 3.10731
321.533 2.31431
321.594 1.78892
321.716 1.16194
321.839 0.817477
321.961 0.609045
322.207 0.380321
322.452 0.264256
322.697 0.197356
323.187 0.126894
323.677 0.0922152
324.168 0.0724391
325.148 0.0515551
326.128 0.0410736
327.109 0.0349408
329.070 0.0282985
332.992 0.0233911
336.914 0.0231588
340.836 0.0272272
342.797 0.0322955
344.757 0.0420400
346.718 0.0632723
347.699 0.0844724
348.679 0.123001
349.170 0.155324
349.660 0.204429
350.150 0.284319
350.640 0.427305
350.885 0.545544
351.131 0.722616
351.376 1.00517
351.621 1.49681
351.866 2.46727
351.988 3.35201
352.111 4.80920
352.234 7.45715
352.295 9.66621
352.356 12.9800
352.417 18.2525
352.479 27.2161
352.540 43.6393
352.601 75.0765
352.656 120.225
352.710 150.281
352.765 120.152
352.819 75.0972
352.874 46.1108
352.928 29.9279
352.983 20.6219
353.038 14.9521
353.092 11.2817
353.147 8.79648
353.256 5.75518
353.366 4.04815
353.475 2.99942
353.693 1.83490
353.912 1.23823
354.131 0.893092
354.349 0.675738
354.568 0.530128
355.005 0.353300
355.442 0.254201
355.880 0.193162
356.317 0.152967
357.191 0.105055
358.066 0.0787798
359.815 0.0527558
361.564 0.0412099
363.313 0.0356429
366.811 0.0326634
370.309 0.0365962
372.058 0.0418100
373.807 0.0512440
375.556 0.0702552
376.430 0.0882382
377.305 0.119803
378.179 0.184555
378.616 0.247010
379.054 0.357559
379.491 0.583466
379.709 0.797839
379.928 1.16807
380.147 1.89125
380.256 2.54317
380.365 3.60570
380.475 5.50266
380.529 7.05955
380.584 9.35534
380.639 12.9254
380.693 18.7865
380.748 29.0490
380.802 47.5125
380.856 76.0204
380.910 95.0393
380.964 76.0304
381.018 47.5260
381.080 27.1364
381.143 16.7488
381.206 11.1639
381.268 7.91193
381.331 5.87722
381.393 4.53292
381.519 2.92949
381.644 2.05033
381.769 1.51944
382.020 0.939047
382.270 0.646409
382.520 0.479257
383.021 0.306501
383.522 0.225035
384.023 0.181663
385.025 0.143256
386.027 0.133264
387.029 0.137650
389.032 0.179889
390.034 0.222863
391.036 0.291417
392.038 0.406219
393.040 0.616414
393.541 0.793169
394.042 1.06189
394.542 1.49914
395.043 2.28144
395.294 2.92782
395.544 3.89517
395.795 5.43813
396.045 8.11866
396.296 13.4030
396.421 18.2077
396.546 26.1121
396.609 32.1304
396.671 40.4373
396.734 52.3441
396.797 70.1864
396.859 98.4218
396.922 146.145
396.953 182.738
396.984 232.849
397.016 302.158
397.047 397.295
397.104 635.695
397.160 794.133
397.217 635.114
397.273 397.150
397.332 240.378
397.390 154.473
397.449 105.700
397.507 76.2106
397.566 57.2610
397.624 44.4978
397.741 28.9758
397.858 20.3017
397.975 14.9965
398.209 9.12401
398.444 6.12429
398.678 4.39193
398.912 3.30265
399.146 2.57402
399.614 1.68987
400.082 1.19477
400.550 0.889922
401.018 0.689027
401.955 0.449085
402.891 0.316736
403.827 0.236087
404.763 0.183340
406.636 0.120807
408.508 0.0865698
410.381 0.0658193
412.253 0.0523102
415.999 0.0364113
419.744 0.0278302
427.234 0.0195842
434.724 0.0163139
442.214 0.0155194
445.959 0.0161445
449.704 0.0186027
451.577 0.0220893
452.513 0.0255357
453.449 0.0317575
454.385 0.0448335
454.853 0.0576223
455.322 0.0804671
455.790 0.127560
456.024 0.172565
456.258 0.250734
456.492 0.404810
456.609 0.544875
456.726 0.775255
456.843 1.19266
456.902 1.53946
456.960 2.05893
457.019 2.88054
457.077 4.26809
457.136 6.78605
457.194 11.5544
457.247 18.4780
457.300 23.0940
457.353 18.4801
457.406 11.5570
457.448 7.87019
457.489 5.53049
457.531 4.03674
457.572 3.05150
457.656 1.89935
457.739 1.28827
457.822 0.929583
457.905 0.702417
458.072 0.442855
458.238 0.306312
458.404 0.225929
458.737 0.140121
459.070 0.0977348
459.403 0.0737793
460.068 0.0491524
460.734 0.0374413
461.399 0.0310144
462.730 0.0246674
465.392 0.0205320
468.055 0.0196887
473.379 0.0208760
478.703 0.0242559
484.027 0.0305503
489.352 0.0432991
492.014 0.0554534
494.676 0.0770104
497.338 0.121967
498.669 0.166097
500.000 0.245770
500.667 0.312551
501.333 0.414062
502.000 0.579531
502.666 0.876853
502.999 1.12386
503.332 1.49569
503.666 2.09354
503.999 3.14488
504.166 3.99947
504.332 5.25761
504.499 7.21957
504.665 10.5225
504.832 16.7156
504.915 22.0579
504.999 30.3674
505.082 44.2213
505.124 54.8402
505.165 69.4954
505.207 90.4209
505.249 121.052
505.290 167.199
505.332 236.379
505.391 378.166
505.450 472.659
505.509 378.099
505.568 236.306
505.613 163.533
505.657 116.382
505.701 85.7345
505.745 65.2727
505.834 40.9353
505.922 27.8595
506.011 20.1049
506.100 15.1683
506.277 9.48981
506.454 6.48575
506.631 4.71082
506.808 3.57697
506.985 2.80978
507.339 1.86771
507.693 1.33412
508.047 1.00299
508.402 0.783699
509.110 0.520546
509.818 0.374983
510.527 0.286311
511.235 0.228502
512.652 0.160688
514.068 0.124587
516.901 0.0914652
519.735 0.0807419
522.568 0.0822764
523.985 0.0886861
525.401 0.105022
526.110 0.124663
526.818 0.173601
527.172 0.234685
527.349 0.291308
527.526 0.387152
527.703 0.569796
527.792 0.730625
527.880 0.986136
527.969 1.42708
528.057 2.27353
528.102 3.01302
528.146 4.15442
528.190 5.99413
528.234 8.97774
528.287 14.3029
528.340 17.8524
528.393 14.3053
528.446 8.98166
528.487 6.16468
528.528 4.37007
528.569 3.22064
528.610 2.46221
528.692 1.57083
528.774 1.09784
528.856 0.819821
528.939 0.644172
529.103 0.444166
529.267 0.340147
529.431 0.280148
529.760 0.219496
530.417 0.185511
531.074 0.196614
531.732 0.247995
532.060 0.302439
532.389 0.400215
532.717 0.598804
532.882 0.784584
533.046 1.09955
533.210 1.69658
533.293 2.21798
533.375 3.03788
533.457 4.43075
533.539 7.03724
533.580 9.25430
533.621 12.5851
533.662 17.7707
533.703 25.8412
533.757 41.2910
533.810 51.5652
533.864 41.2645
533.917 25.8471
533.973 15.6618
534.028 10.0867
534.084 6.92972
534.139 5.02732
534.195 3.80562
534.250 2.98207
534.362 1.98256
534.473 1.42467
534.584 1.08389
534.806 0.707389
535.028 0.516036
535.251 0.406291
535.695 0.292984
536.140 0.240089
536.584 0.212581
537.474 0.189910
539.252 0.191183
541.030 0.217789
542.808 0.265164
544.587 0.347264
545.476 0.418581
546.365 0.553961
546.810 0.696710
547.254 1.02536
547.476 1.41105
547.588 1.75318
547.699 2.30626
547.810 3.29137
547.921 5.29324
547.977 7.15644
548.032 10.2341
548.088 15.6734
548.143 25.5829
548.197 40.6309
548.250 50.6396
548.304 40.6155
548.357 25.6095
548.395 18.2057
548.433 13.3141
548.471 10.0640
548.509 7.86288
548.585 5.20816
548.661 3.76158
548.737 2.89946
548.814 2.34941
548.966 1.72108
549.118 1.39628
549.270 1.21267
549.575 1.03787
550.183 0.972338
550.792 1.04045
552.010 1.37872
553.227 2.04763
553.836 2.60600
554.445 3.44011
555.053 4.76160
555.662 7.03229
555.966 8.83344
556.271 11.4251
556.575 15.3411
556.880 21.6431
557.184 32.6926
557.336 41.5830
557.488 54.4781
557.641 74.0062
557.793 105.058
557.945 156.847
558.097 244.763
558.264 391.422
558.430 489.022
558.597 391.163
558.763 244.507
558.925 152.252
559.088 99.8548
559.250 69.3001
559.412 50.4708
559.574 38.2150
559.736 29.8659
560.061 19.6093
560.385 13.8253
560.710 10.2648
561.359 6.31157
562.007 4.30842
562.656 3.21886
563.305 2.87401
563.467 3.06753
563.630 3.68968
563.711 4.40687
563.792 5.80234
563.873 8.83132
563.913 11.6798
563.954 16.1184
564.007 24.6649
564.060 30.3389
564.113 24.5888
564.166 15.9994
564.224 10.0848
564.283 6.94344
564.341 5.19491
564.399 4.14669
564.516 3.01535
564.632 2.44661
564.865 1.89643
565.098 1.62954
565.563 1.36525
566.029 1.25603
566.495 1.27627
566.961 1.56869
567.194 2.01624
567.310 2.44131
567.426 3.15159
567.543 4.44935
567.659 7.14569
567.718 9.69362
567.776 13.9711
567.834 21.6593
567.892 36.0268
567.946 57.2694
568.000 71.4020
568.054 57.2201
568.108 36.0089
568.167 21.5394
568.225 13.8303
568.284 9.55189
568.343 7.00834
568.460 4.30691
568.577 2.99624
568.695 2.26697
568.812 1.82054
569.046 1.32527
569.281 1.07243
569.516 0.929602
569.985 0.804586
570.454 0.823511
570.689 0.903511
570.923 1.07593
571.158 1.44974
571.275 1.80125
571.392 2.38672
571.510 3.45271
571.568 4.34067
571.627 5.66683
571.686 7.76174
571.744 11.2751
571.803 17.6091
571.862 29.4468
571.916 46.9053
571.970 58.5509
572.024 46.9015
572.078 29.4367
572.128 18.9808
572.177 12.8263
572.227 9.13490
572.276 6.81210
572.375 4.21799
572.474 2.89946
572.573 2.14497
572.672 1.67444
572.870 1.14250
573.068 0.863287
573.266 0.697445
573.662 0.515621
574.454 0.363335
575.246 0.299289
576.038 0.271014
576.830 0.279847
577.226 0.318162
577.622 0.436955
577.820 0.590693
577.919 0.730140
578.018 0.956842
578.117 1.35785
578.216 2.15659
578.266 2.87913
578.315 4.03817
578.365 5.99386
578.414 9.36453
578.467 14.8849
578.520 18.5666
578.573 14.8841
578.626 9.36201
578.662 6.71371
578.698 4.93933
578.771 2.92752
578.844 1.92936
578.916 1.37769
578.989 1.04470
579.062 0.829455
579.207 0.578233
579.353 0.442633
579.498 0.361022
579.789 0.271062
580.370 0.195914
580.952 0.163355
582.115 0.131716
583.277 0.114186
587.929 0.0780783
592.581 0.0597007
597.233 0.0485290
606.536 0.0367122
615.840 0.0323170
625.144 0.0327953
634.447 0.0386903
643.751 0.0555041
648.402 0.0790678
649.565 0.0934126
650.728 0.125251
651.310 0.163562
651.601 0.199216
651.891 0.260723
652.182 0.382535
652.327 0.494779
652.473 0.682618
652.618 1.03312
652.691 1.33413
652.763 1.79959
652.836 2.57210
652.909 3.96989
652.945 5.11797
652.982 6.78499
653.018 9.26496
653.054 12.9497
653.107 20.6747
653.160 25.8128
653.213 20.6615
653.266 12.9531
653.310 8.61820
653.355 5.95587
653.399 4.30264
653.444 3.23527
653.533 2.01367
653.622 1.37967
653.711 1.01215
653.800 0.781749
653.978 0.521441
654.156 0.386181
654.334 0.307603
654.690 0.225470
655.401 0.166320
656.113 0.149038
657.537 0.147507
658.960 0.161727
661.807 0.218210
664.655 0.327780
666.078 0.420686
667.502 0.562349
668.925 0.793468
670.349 1.20842
671.061 1.55248
671.772 2.06953
672.484 2.89820
673.196 4.34927
673.552 5.52294
673.908 7.24426
674.264 9.91292
674.620 14.3683
674.798 17.8048
674.975 22.6163
675.153 29.6390
675.331 40.4061
675.509 58.0195
675.687 89.2087
675.776 114.262
675.865 149.977
675.954 201.913
676.043 276.956
676.182 442.586
676.320 552.721
676.459 441.772
676.598 275.780
676.738 168.796
676.879 109.298
677.019 75.1815
677.160 54.4078
677.300 41.0089
677.440 31.9320
677.721 20.8545
678.002 14.6429
678.283 10.8308
678.844 6.60274
679.406 4.43920
679.967 3.18842
680.529 2.40130
681.090 1.87460
682.214 1.23608
683.337 0.879415
684.460 0.661200
685.583 0.519295
687.829 0.358528
690.075 0.297644
691.198 0.311406
691.760 0.342567
692.321 0.409973
692.883 0.562818
693.164 0.714571
693.445 0.983322
693.725 1.52257
693.866 2.02011
694.006 2.84908
694.146 4.37988
694.217 5.67799
694.287 7.66140
694.357 10.8854
694.427 16.5488
694.497 27.4418
694.533 36.6306
694.568 49.7474
694.624 79.5455
694.680 99.3710
694.736 79.4928
694.793 49.7526
694.838 33.4688
694.884 23.3208
694.929 16.9256
694.975 12.7494
695.066 7.91071
695.158 5.37241
695.249 3.89025
695.340 2.95672
695.523 1.89390
695.705 1.33730
695.888 1.01092
696.252 0.665096
696.617 0.497922
696.982 0.408317
697.712 0.337047
698.442 0.357359
698.807 0.411665
699.172 0.525262
699.537 0.773547
699.720 1.01308
699.902 1.42592
700.085 2.22243
700.176 2.92821
700.267 4.05352
700.358 6.00165
700.450 9.75374
700.495 13.0362
700.541 18.1267
700.586 26.3379
700.632 39.7345
700.686 63.5357
700.740 79.3674
700.794 63.4912
700.848 39.7364
700.890 27.2479
700.932 19.2605
700.973 14.1265
701.015 10.7290
701.098 6.72293
701.182 4.58885
701.265 3.32978
701.348 2.53102
701.515 1.61466
701.682 1.13058
701.848 0.844411
702.182 0.536800
702.515 0.383064
702.849 0.294815
703.515 0.201460
704.182 0.154630
704.849 0.127111
706.183 0.0964524
708.850 0.0688379
711.517 0.0553969
716.851 0.0415294
722.186 0.0345130
732.854 0.0290456
743.523 0.0306945
754.192 0.0414874
759.526 0.0540576
764.861 0.0780075
767.528 0.0985424
770.195 0.130155
772.862 0.182283
775.529 0.277121
776.863 0.356725
778.197 0.477751
779.530 0.674789
780.864 1.02781
781.531 1.31989
782.197 1.75794
782.864 2.45801
783.531 3.67902
783.864 4.66237
784.198 6.09863
784.531 8.31295
784.865 11.9805
785.031 14.7863
785.198 18.6881
785.365 24.3254
785.531 32.8625
785.698 46.5703
785.865 70.2267
785.948 88.7469
786.031 114.535
786.115 150.946
786.198 202.030
786.339 322.912
786.480 403.316
786.621 322.788
786.762 201.906
786.849 148.788
786.937 111.603
787.111 67.2855
787.286 44.1344
787.460 30.9192
787.634 22.7656
787.809 17.4231
788.158 11.1089
788.507 7.67943
788.856 5.61907
789.553 3.37734
790.251 2.25064
790.949 1.60654
791.647 1.20435
792.345 0.936613
793.740 0.613655
795.136 0.433893
796.532 0.323824
797.927 0.251789
800.719 0.167405
803.510 0.125710
804.906 0.117652
806.301 0.127126
806.999 0.151709
807.348 0.178365
807.697 0.227616
808.046 0.330115
808.220 0.427409
808.395 0.593816
808.569 0.912654
808.657 1.19319
808.744 1.63845
808.831 2.40353
808.918 3.86009
808.962 5.11916
809.005 7.04845
809.049 10.1121
809.093 15.0179
809.146 23.9897
809.200 29.9719
809.254 23.9906
809.307 15.0186
809.359 9.41118
809.411 6.21473
809.463 4.33976
809.515 3.18321
809.619 1.91261
809.722 1.27833
809.826 0.919326
809.930 0.697627
810.137 0.450112
810.344 0.322323
810.552 0.247834
810.966 0.168467
811.381 0.128873
811.796 0.105959
812.625 0.0811093
814.284 0.0596872
815.943 0.0494559
819.260 0.0383504
822.578 0.0318770
829.213 0.0245494
835.848 0.0213248
842.483 0.0216800
845.800 0.0240212
849.118 0.0294882
852.436 0.0425021
854.094 0.0559513
855.753 0.0808203
856.582 0.101907
857.412 0.134204
858.241 0.187236
859.071 0.283291
859.485 0.363614
859.900 0.485296
860.315 0.682432
860.729 1.03309
860.937 1.32119
861.144 1.74992
861.351 2.42867
861.559 3.59488
861.766 5.85478
861.870 7.87280
861.973 11.1238
862.077 16.8413
862.181 28.1448
862.233 38.3383
862.284 54.5856
862.336 81.8305
862.388 128.437
862.444 205.531
862.500 256.936
862.556 205.511
862.612 128.416
862.654 88.8406
862.696 63.2101
862.738 46.5560
862.780 35.4407
862.864 22.2323
862.948 15.1268
863.032 10.9175
863.116 8.23453
863.283 5.15017
863.451 3.51822
863.619 2.55386
863.787 1.93773
863.955 1.52058
864.290 1.00842
864.626 0.718237
864.961 0.538098
865.297 0.418676
865.968 0.275169
866.640 0.195538
867.311 0.146799
867.982 0.114819
869.325 0.0767699
870.667 0.0558453
872.010 0.0431106
873.352 0.0347838
876.037 0.0249186
878.722 0.0195455
884.092 0.0144137
889.462 0.0128774
894.832 0.0148607
897.517 0.0192906
898.859 0.0240333
900.202 0.0329021
901.544 0.0520261
902.216 0.0710272
902.887 0.105377
903.223 0.134033
903.558 0.177307
903.894 0.247119
904.229 0.370503
904.397 0.471182
904.565 0.620106
904.733 0.853658
904.901 1.24999
905.068 2.00224
905.152 2.65954
905.236 3.69560
905.320 5.45628
905.404 8.76299
905.446 11.5833
905.488 15.8319
905.530 22.4685
905.572 32.8383
905.626 52.5512
905.680 65.6590
905.734 52.5151
905.788 32.8418
905.822 24.1164
905.856 18.0454
905.924 10.8468
905.991 7.10274
906.059 4.97055
906.127 3.65682
906.194 2.79820
906.329 1.78498
906.465 1.23506
906.600 0.905075
906.870 0.546193
907.141 0.365828
907.411 0.262743
907.682 0.198338
907.952 0.155466
908.493 0.103691
909.034 0.0748225
910.116 0.0454180
911.198 0.0314796
912.279 0.0237778
914.443 0.0159689
918.771 0.0101966
923.098 0.00808047
931.753 0.00655619
940.407 0.00624555
949.062 0.00671168
957.717 0.00868572
962.044 0.0114488
966.372 0.0190287
968.536 0.0292915
969.617 0.0394099
970.699 0.0577065
971.781 0.0962758
972.322 0.134103
972.863 0.201853
973.133 0.257924
973.404 0.342000
973.674 0.476466
973.945 0.711027
974.215 1.17642
974.350 1.60254
974.486 2.30891
974.621 3.60366
974.689 4.69268
974.756 6.34407
974.824 9.00059
974.891 13.5974
974.959 22.2426
975.027 39.4316
975.083 63.1111
975.140 78.8615
975.197 63.0690
975.254 39.4352
975.302 25.9923
975.350 17.8090
975.399 12.7448
975.447 9.49564
975.544 5.78717
975.640 3.86921
975.737 2.75953
975.834 2.06432
976.027 1.27839
976.220 0.868658
976.414 0.629046
976.607 0.476997
976.800 0.374570
977.187 0.249484
977.574 0.178986
977.960 0.135415
978.347 0.106647
979.120 0.0722573
979.894 0.0533427
981.440 0.0345262
982.987 0.0260824
984.534 0.0218858
987.627 0.0190495
990.720 0.0201404
993.813 0.0247301
996.907 0.0352641
998.453 0.0450661
1000.00 0.0611285
1001.01 0.0777516
1002.02 0.103241
1003.03 0.145145
1004.04 0.221087
1004.54 0.284743
1005.05 0.381350
1005.55 0.538258
1006.06 0.817647
1006.31 1.04883
1006.56 1.39287
1006.82 1.94214
1007.07 2.88916
1007.32 4.75144
1007.45 6.42774
1007.57 9.16276
1007.70 14.0528
1007.76 18.0674
1007.83 24.0065
1007.89 33.2417
1007.95 48.4704
1008.01 75.1792
1008.05 96.2332
1008.08 123.540
1008.14 198.297
1008.20 247.056
1008.26 196.993
1008.32 123.520
1008.37 83.5876
1008.42 58.4252
1008.47 42.4575
1008.52 31.9749
1008.62 19.7744
1008.72 13.3330
1008.81 9.56339
1008.91 7.18092
1009.11 4.47372
1009.30 3.04291
1009.50 2.20533
1009.69 1.66893
1009.89 1.30842
1010.28 0.864690
1010.67 0.614547
1011.06 0.459479
1011.45 0.356785
1012.24 0.233420
1013.02 0.165152
1013.80 0.123416
1014.58 0.0960557
1016.15 0.0635436
1017.71 0.0457206
1019.28 0.0349146
1020.84 0.0278845
1023.97 0.0196115
1027.10 0.0151549
1033.36 0.0108795
1039.62 0.00915864
1045.88 0.00855282
1058.39 0.00921961
1070.91 0.0125558
1077.17 0.0161858
1083.43 0.0228838
1086.56 0.0285311
1089.69 0.0371409
1092.82 0.0512410
1095.95 0.0767734
1097.51 0.0981879
1099.08 0.130778
1100.64 0.183994
1102.21 0.279819
1102.99 0.359745
1103.77 0.480323
1104.55 0.674951
1105.34 1.01947
1105.73 1.30202
1106.12 1.72003
1106.51 2.37774
1106.90 3.49927
1107.10 4.38505
1107.29 5.64448
1107.49 7.54043
1107.68 10.5397
1107.88 15.7298
1107.98 19.8350
1108.07 25.6199
1108.17 34.2598
1108.27 47.5905
1108.37 68.9436
1108.46 103.024
1108.58 164.612
1108.70 205.566
1108.82 164.018
1108.94 102.552
1109.03 68.9133
1109.13 48.0789
1109.22 34.8959
1109.32 26.2585
1109.51 16.2234
1109.70 10.9335
1109.89 7.82798
1110.08 5.87881
1110.46 3.65652
1110.84 2.48759
1111.22 1.80260
1111.60 1.36556
1111.98 1.07138
1112.74 0.711005
1113.50 0.507640
1114.26 0.381950
1115.02 0.299142
1116.55 0.200529
1118.07 0.147218
1119.59 0.116240
1121.11 0.0981227
1124.15 0.0867233
1125.68 0.0933755
1127.20 0.114086
1128.72 0.166436
1129.48 0.220898
1130.24 0.320836
1130.62 0.405020
1131.00 0.532328
1131.38 0.738937
1131.76 1.10425
1131.95 1.40477
1132.14 1.84814
1132.33 2.54502
1132.52 3.73128
1132.71 5.99354
1132.81 7.98015
1132.90 11.1281
1133.00 16.5189
1133.05 20.8085
1133.09 26.7647
1133.14 35.7138
1133.19 49.1088
1133.24 70.7849
1133.28 104.660
1133.34 167.676
1133.40 209.780
1133.46 167.662
1133.52 104.646
1133.56 73.6858
1133.60 53.1961
1133.64 39.6246
1133.69 30.5909
1133.77 19.3967
1133.85 13.3450
1133.94 9.67352
1134.02 7.34308
1134.19 4.62363
1134.35 3.17431
1134.52 2.31379
1134.69 1.76215
1134.85 1.38770
1135.19 0.926826
1135.52 0.664831
1135.86 0.501814
1136.19 0.393524
1136.86 0.263061
1137.53 0.190380
1138.19 0.145725
1138.86 0.116298
1140.20 0.0810719
1141.53 0.0615361
1144.21 0.0417301
1146.88 0.0325392
1149.55 0.0278632
1154.89 0.0251373
1160.24 0.0292544
1162.91 0.0353800
1165.58 0.0475281
1168.25 0.0743621
1169.59 0.101284
1170.92 0.150282
1171.59 0.191460
1172.26 0.254104
1172.93 0.356181
1173.59 0.539291
1173.93 0.690987
1174.26 0.918768
1174.60 1.28341
1174.93 1.92094
1175.26 3.18907
1175.43 4.35432
1175.60 6.29277
1175.76 9.86153
1175.85 12.9034
1175.93 17.4864
1176.02 25.0095
1176.10 38.0147
1176.14 48.4460
1176.18 62.7815
1176.22 83.7790
1176.26 112.923
1176.33 180.983
1176.40 226.483
1176.47 180.966
1176.54 112.904
1176.61 68.9339
1176.67 44.5601
1176.74 30.6178
1176.81 22.2394
1176.88 16.7462
1176.95 13.0752
1177.09 8.54927
1177.22 5.99522
1177.36 4.44013
1177.63 2.71256
1177.91 1.82496
1178.18 1.31346
1178.46 0.991222
1178.73 0.775309
1179.28 0.512772
1179.83 0.365945
1180.38 0.275413
1180.93 0.215944
1182.02 0.145095
1183.12 0.106533
1184.22 0.0836443
1185.31 0.0694883
1187.51 0.0564595
1188.61 0.0561515
1189.70 0.0615911
1190.80 0.0788721
1191.35 0.0977527
1191.90 0.132818
1192.45 0.207155
1192.72 0.279109
1193.00 0.405433
1193.27 0.658939
1193.41 0.892039
1193.54 1.28095
1193.68 1.99987
1193.75 2.61618
1193.82 3.54615
1193.89 5.08583
1193.96 7.76325
1194.02 13.0310
1194.06 17.4446
1194.09 23.7827
1194.15 38.0042
1194.20 47.4717
1194.25 38.0056
1194.31 23.7843
1194.36 14.7802
1194.41 9.67955
1194.47 6.71368
1194.52 4.88977
1194.57 3.70497
1194.63 2.89810
1194.73 1.90784
1194.84 1.34986
1194.94 1.00615
1195.16 0.624754
1195.37 0.427698
1195.58 0.313469
1196.00 0.193274
1196.43 0.134340
1196.85 0.101226
1197.70 0.0670994
1198.54 0.0506798
1199.39 0.0415119
1201.08 0.0321664
1204.47 0.0255938
1207.86 0.0240790
1214.63 0.0266677
1221.40 0.0356192
1224.79 0.0439055
1228.18 0.0568899
1231.56 0.0784595
1234.95 0.117818
1236.65 0.150906
1238.34 0.201236
1240.03 0.283379
1241.73 0.430937
1242.57 0.553546
1243.42 0.738162
1244.27 1.03490
1245.11 1.55604
1245.54 1.98031
1245.96 2.60372
1246.38 3.57532
1246.81 5.20969
1247.02 6.48283
1247.23 8.28071
1247.44 10.9307
1247.65 15.0292
1247.86 21.8870
1248.08 34.3130
1248.18 44.6117
1248.29 59.7083
1248.39 82.3637
1248.50 115.954
1248.65 185.453
1248.80 231.739
1248.95 185.404
1249.10 115.905
1249.27 68.1636
1249.43 42.8852
1249.60 28.9275
1249.77 20.6906
1249.93 15.4395
1250.10 11.9500
1250.43 7.73110
1250.76 5.39676
1251.09 3.97638
1251.75 2.41339
1252.41 1.61892
1253.08 1.16273
1253.74 0.876801
1254.40 0.686092
1255.73 0.455995
1257.05 0.328893
1258.37 0.252505
1259.70 0.204705
1262.35 0.159089
1263.67 0.156345
1265.00 0.171848
1266.32 0.224655
1266.98 0.283284
1267.65 0.393335
1267.98 0.486912
1268.31 0.628928
1268.64 0.859182
1268.97 1.26750
1269.14 1.60247
1269.30 2.09543
1269.47 2.87406
1269.63 4.18851
1269.80 6.70243
1269.88 8.90568
1269.96 12.3358
1270.05 18.2384
1270.09 22.9214
1270.13 29.3739
1270.17 39.0389
1270.21 53.3397
1270.25 75.6049
1270.29 110.440
1270.32 141.943
1270.35 176.553
1270.40 220.576
1270.43 207.164
1270.45 176.542
1270.51 110.427
1270.55 73.5998
1270.59 50.8320
1270.64 36.6168
1270.68 27.4009
1270.77 16.8090
1270.86 11.2840
1270.95 8.07559
1271.03 6.05854
1271.21 3.77885
1271.39 2.57858
1271.56 1.87512
1271.74 1.42817
1271.91 1.12815
1272.26 0.758783
1272.62 0.550512
1272.97 0.420909
1273.32 0.335173
1274.02 0.231699
1274.72 0.173933
1276.13 0.114790
1277.54 0.0866274
1278.94 0.0713362
1281.75 0.0582666
1284.57 0.0597890
1285.97 0.0675293
1287.38 0.0848351
1288.78 0.124871
1289.49 0.165565
1290.19 0.239851
1290.54 0.302248
1290.89 0.396584
1291.24 0.549883
1291.60 0.821559
1291.77 1.04505
1291.95 1.37756
1292.12 1.90312
1292.30 2.79819
1292.47 4.53264
1292.56 6.07486
1292.65 8.51485
1292.74 12.8065
1292.83 21.1939
1292.87 28.6404
1292.91 40.3621
1292.94 48.7694
1292.96 59.6419
1292.98 73.7342
1293.00 90.8991
1293.03 116.460
1293.05 145.734
1293.10 182.418
1293.13 171.614
1293.15 145.726
1293.20 90.8906
1293.25 56.9096
1293.30 37.7853
1293.34 26.2754
1293.39 19.2812
1293.49 11.4728
1293.58 7.55785
1293.68 5.34042
1293.77 3.96980
1293.96 2.44474
1294.15 1.65417
1294.34 1.19531
1294.53 0.905785
1294.72 0.712394
1295.10 0.475786
1295.48 0.343223
1295.86 0.261389
1296.24 0.207369
1296.99 0.142727
1297.75 0.107134
1299.27 0.0716579
1300.79 0.0557451
1302.31 0.0480637
1305.34 0.0446598
1308.38 0.0538411
1309.89 0.0661296
1311.41 0.0898841
1312.93 0.141509
1313.69 0.192761
1314.45 0.285131
1314.83 0.362284
1315.20 0.478460
1315.58 0.666374
1315.96 0.997727
1316.15 1.26898
1316.34 1.67078
1316.53 2.30221
1316.72 3.36948
1316.91 5.41142
1317.01 7.20326
1317.10 10.0023
1317.20 14.8245
1317.29 23.9564
1317.34 31.9007
1317.39 43.7424
1317.43 62.2981
1317.48 91.5665
1317.54 146.798
1317.60 183.743
1317.66 146.788
1317.72 91.5557
1317.78 55.4152
1317.84 35.8363
1317.90 24.6382
1317.97 17.8289
1318.03 13.3822
1318.09 10.4285
1318.21 6.82134
1318.33 4.78565
1318.46 3.54800
1318.70 2.17350
1318.94 1.46734
1319.19 1.05951
1319.43 0.803148
1319.68 0.632309
1320.17 0.424521
1320.66 0.308896
1321.15 0.238241
1321.64 0.192277
1322.61 0.139193
1323.59 0.112786
1325.55 0.0971744
1327.51 0.116743
1328.49 0.146353
1329.46 0.204821
1329.95 0.255360
1330.44 0.332782
1330.93 0.459333
1331.42 0.685936
1331.67 0.873296
1331.91 1.15337
1332.16 1.59868
1332.40 2.36490
1332.64 3.86669
1332.77 5.21312
1332.89 7.40063
1333.01 11.3303
1333.07 14.5192
1333.13 19.2102
1333.19 26.4487
1333.26 38.2572
1333.32 58.6545
1333.38 94.8572
1333.44 152.031
1333.50 189.237
1333.56 151.051
1333.62 94.8617
1333.68 59.1018
1333.74 38.7649
1333.80 26.9045
1333.86 19.6924
1333.92 14.9051
1333.98 11.6436
1334.10 7.66408
1334.22 5.39774
1334.34 4.01186
1334.58 2.45946
1334.82 1.66171
1335.06 1.19898
1335.30 0.907110
1335.53 0.712004
1336.01 0.473576
1336.49 0.339870
1336.97 0.257143
1337.44 0.202616
1338.40 0.137245
1339.35 0.101102
1341.26 0.0647430
1343.18 0.0480649
1345.09 0.0395841
1348.91 0.0340283
1352.73 0.0390812
1354.64 0.0474503
1356.55 0.0643054
1357.50 0.0789876
1358.46 0.101697
1359.41 0.139205
1360.37 0.207417
1360.84 0.264663
1361.32 0.351373
1361.80 0.492524
1362.28 0.744017
1362.52 0.951805
1362.75 1.26252
1362.99 1.75713
1363.23 2.60996
1363.47 4.28850
1363.59 5.81616
1363.71 8.29599
1363.83 12.7917
1363.89 16.5103
1363.95 21.9381
1364.01 30.5674
1364.07 44.6522
1364.10 55.4424
1364.13 70.0404
1364.16 89.9464
1364.19 115.830
1364.24 185.734
1364.30 232.508
1364.33 218.274
1364.36 185.723
1364.41 115.817
1364.46 79.8764
1364.50 57.1307
1364.54 41.9741
1364.58 32.0654
1364.67 20.1302
1364.75 13.7049
1364.84 9.89636
1364.92 7.46795
1365.09 4.67518
1365.26 3.19701
1365.43 2.32336
1365.60 1.76514
1365.77 1.38722
1366.11 0.923444
1366.45 0.660781
1366.79 0.497964
1367.13 0.390543
1367.81 0.261813
1368.49 0.191570
1369.17 0.150108
1369.85 0.124981
1371.21 0.104617
1371.89 0.107868
1372.57 0.124874
1373.25 0.171209
1373.59 0.219687
1373.93 0.307695
1374.27 0.488455
1374.44 0.658654
1374.61 0.948309
1374.78 1.49926
1374.87 1.98124
1374.95 2.74161
1375.04 4.03485
1375.12 6.46594
1375.16 8.56742
1375.21 11.6675
1375.25 16.4734
1375.29 23.9570
1375.35 38.3367
1375.40 47.9343
1375.46 38.3375
1375.51 23.9577
1375.55 16.1926
1375.60 11.3116
1375.64 8.22026
1375.69 6.23147
1375.77 3.85721
1375.86 2.61755
1375.95 1.88296
1376.04 1.42379
1376.21 0.896091
1376.39 0.618678
1376.56 0.455308
1376.91 0.280893
1377.26 0.194036
1377.61 0.144605
1378.31 0.0931182
1379.01 0.0679138
1379.71 0.0536029
1381.11 0.0385727
1383.90 0.0271844
1386.70 0.0240860
1389.50 0.0257838
1392.30 0.0363402
1393.69 0.0522291
1394.39 0.0681309
1395.09 0.0969252
1395.79 0.157350
1396.14 0.216066
1396.49 0.319576
1396.67 0.404310
1396.84 0.529795
1397.02 0.726907
1397.19 1.05965
1397.37 1.69572
1397.45 2.25709
1397.54 3.13456
1397.63 4.65046
1397.72 7.48335
1397.76 9.93883
1397.80 13.5751
1397.85 19.4037
1397.89 28.3707
1397.95 45.5508
1398.00 56.7332
1398.06 45.2251
1398.11 28.3726
1398.16 17.8333
1398.22 11.7769
1398.27 8.21461
1398.32 6.03874
1398.38 4.58387
1398.43 3.58932
1398.53 2.37260
1398.64 1.67636
1398.74 1.25006
1398.95 0.772723
1399.17 0.525454
1399.38 0.382485
1399.80 0.231204
1400.22 0.157353
1400.64 0.115940
1401.48 0.0737438
1402.32 0.0539532
1403.17 0.0433458
1404.85 0.0335333
1406.53 0.0302494
1408.22 0.0300985
1411.59 0.0363927
1413.27 0.0435283
1414.96 0.0551802
1416.64 0.0749635
1418.33 0.111493
1419.17 0.142425
1420.01 0.189635
1420.85 0.266909
1421.69 0.406307
1422.12 0.522737
1422.54 0.698128
1422.96 0.980882
1423.38 1.48026
1423.59 1.88868
1423.80 2.48965
1424.01 3.43628
1424.22 5.03382
1424.43 8.07842
1424.54 10.7246
1424.64 14.8872
1424.75 22.0305
1424.80 27.6140
1424.85 35.3125
1424.91 46.7212
1424.96 63.5737
1425.01 90.2587
1425.06 131.099
1425.13 210.626
1425.20 262.722
1425.27 209.379
1425.34 131.081
1425.39 88.3868
1425.45 61.9945
1425.50 45.1786
1425.55 34.1002
1425.66 21.1561
1425.77 14.2951
1425.88 10.2689
1425.99 7.71936
1426.20 4.80643
1426.42 3.27409
1426.63 2.37194
1426.85 1.79704
1427.07 1.40854
1427.50 0.932599
1427.93 0.663365
1428.36 0.496472
1428.79 0.385958
1429.66 0.253353
1430.52 0.179900
1431.39 0.135049
1432.25 0.105706
1433.98 0.0710174
1435.71 0.0522873
1437.44 0.0412940
1439.16 0.0346409
1442.62 0.0292219
1444.35 0.0300187
1446.08 0.0344316
1447.81 0.0467001
1448.67 0.0597896
1449.53 0.0841149
1450.40 0.136030
1450.83 0.187036
1451.26 0.278116
1451.48 0.353131
1451.69 0.465063
1451.91 0.642646
1452.13 0.948991
1452.34 1.54544
1452.45 2.08088
1452.56 2.94940
1452.67 4.48863
1452.72 5.74092
1452.77 7.57698
1452.83 10.3976
1452.88 14.9709
1452.94 22.8039
1452.99 36.5579
1453.05 58.6149
1453.10 72.9374
1453.16 58.1972
1453.21 36.5601
1453.27 21.3493
1453.34 13.3653
1453.40 8.98654
1453.46 6.40249
1453.52 4.77260
1453.58 3.68640
1453.71 2.38971
1453.83 1.66713
1453.95 1.22863
1454.20 0.748542
1454.45 0.503952
1454.70 0.363821
1455.19 0.216831
1455.69 0.145524
1456.18 0.105613
1457.17 0.0648171
1458.16 0.0454100
1459.15 0.0346631
1461.13 0.0237805
1465.09 0.0159951
1469.05 0.0138091
1473.01 0.0141881
1476.97 0.0183978
1478.95 0.0248615
1480.93 0.0431830
1481.92 0.0681592
1482.42 0.0926552
1482.91 0.136487
1483.41 0.226977
1483.65 0.313800
1483.90 0.464286
1484.15 0.762766
1484.27 1.03527
1484.40 1.48066
1484.52 2.29589
1484.58 2.97714
1484.64 3.98232
1484.71 5.60219
1484.77 8.35936
1484.83 13.4170
1484.89 22.9094
1484.95 36.6397
1485.00 45.7893
1485.06 36.6407
1485.11 22.9109
1485.16 14.9652
1485.21 10.1751
1485.25 7.24621
1485.30 5.40861
1485.40 3.29266
1485.49 2.20029
1485.59 1.56490
1485.68 1.17221
1485.87 0.728132
1486.06 0.495865
1486.25 0.360845
1486.63 0.217152
1487.02 0.146620
1487.40 0.106900
1488.16 0.0661754
1489.68 0.0362355
1491.21 0.0257262
1494.25 0.0187808
1497.30 0.0172829
1503.40 0.0193779
1509.49 0.0264590
1512.54 0.0329165
1515.59 0.0429863
1518.64 0.0596757
1521.69 0.0900918
1523.21 0.115628
1524.73 0.154451
1526.26 0.217651
1527.78 0.330865
1528.54 0.424528
1529.31 0.564983
1530.07 0.789433
1530.83 1.18085
1531.59 1.95634
1531.97 2.66587
1532.35 3.84074
1532.73 5.98854
1532.93 7.79851
1533.12 10.5238
1533.31 14.9205
1533.50 22.4602
1533.59 28.3458
1533.69 36.5352
1533.78 48.0759
1533.88 64.2357
1534.04 102.768
1534.20 128.443
1534.36 102.743
1534.52 64.2117
1534.68 40.5447
1534.83 26.8621
1534.98 18.7752
1535.14 13.7425
1535.44 8.18433
1535.75 5.39849
1536.05 3.81217
1536.36 2.83112
1536.97 1.73631
1537.58 1.17126
1538.19 0.843585
1538.81 0.636398
1539.42 0.497617
1540.64 0.328752
1541.86 0.234086
1543.09 0.175925
1544.31 0.137887
1546.75 0.0937998
1549.20 0.0741401
1550.42 0.0733833
1551.64 0.0881384
1552.26 0.114142
1552.87 0.188388
1553.17 0.285667
1553.33 0.376524
1553.48 0.528477
1553.63 0.814753
1553.71 1.06336
1553.78 1.44427
1553.86 2.08611
1553.94 3.23579
1553.98 4.17819
1554.01 5.54986
1554.05 7.59085
1554.09 10.6245
1554.15 17.0565
1554.20 21.2506
1554.26 16.9341
1554.31 10.6244
1554.35 7.39774
1554.39 5.29549
1554.43 3.92214
1554.48 2.99973
1554.56 1.90073
1554.64 1.30708
1554.72 0.954384
1554.80 0.729085
1554.97 0.469423
1555.13 0.331590
1555.30 0.249871
1555.62 0.162013
1556.28 0.0925662
1556.93 0.0657256
1558.24 0.0442585
1559.55 0.0352996
1562.17 0.0271055
1564.79 0.0231867
1570.03 0.0200165
1575.27 0.0207319
1580.51 0.0266546
1583.13 0.0337288
1585.75 0.0473157
1587.06 0.0589987
1588.37 0.0769977
1589.68 0.106669
1590.99 0.160573
1591.65 0.205721
1592.30 0.274200
1592.96 0.385301
1593.61 0.583291
1593.94 0.746505
1594.27 0.989184
1594.60 1.37531
1594.92 2.03925
1595.25 3.33624
1595.41 4.50200
1595.58 6.38054
1595.74 9.72976
1595.82 12.4582
1595.91 16.4636
1595.99 22.6270
1596.07 32.6423
1596.15 49.8445
1596.23 79.6646
1596.32 127.455
1596.40 159.309
1596.48 127.442
1596.57 79.6508
1596.63 55.4238
1596.69 39.6194
1596.75 29.2855
1596.82 22.3406
1596.94 14.0618
1597.06 9.58827
1597.19 6.93040
1597.31 5.23289
1597.56 3.27766
1597.81 2.24126
1598.06 1.62810
1598.30 1.23603
1598.55 0.971307
1599.05 0.644664
1599.54 0.459740
1600.04 0.344639
1600.53 0.268459
1601.53 0.176722
1602.52 0.125872
1603.51 0.0947664
1604.50 0.0743765
1606.48 0.0501942
1608.46 0.0370455
1610.45 0.0292333
1612.43 0.0243881
1616.39 0.0199000
1618.38 0.0197884
1620.36 0.0216849
1622.34 0.0277757
1624.32 0.0471242
1625.31 0.0743105
1625.81 0.101194
1626.30 0.149310
1626.80 0.248896
1627.05 0.344167
1627.30 0.508906
1627.54 0.834323
1627.67 1.13008
1627.79 1.61621
1627.92 2.49498
1627.98 3.22457
1628.04 4.31593
1628.10 6.03864
1628.16 8.93951
1628.23 14.1796
1628.29 23.8227
1628.34 38.1862
1628.40 47.7934
1628.46 38.1870
1628.51 23.8239
1628.55 17.5808
1628.58 13.3061
1628.65 8.08325
1628.72 5.33012
1628.79 3.76582
1628.86 2.77977
1628.93 2.13178
1629.06 1.36843
1629.20 0.949140
1629.34 0.698370
1629.61 0.423616
1629.89 0.285199
1630.16 0.205910
1630.71 0.123360
1631.26 0.0833438
1631.81 0.0610190
1632.91 0.0381853
1635.11 0.0212710
1637.31 0.0151147
1641.71 0.0105607
1646.10 0.00900088
1654.90 0.00845232
1663.69 0.00969666
1672.48 0.0132895
1676.88 0.0168987
1681.28 0.0232422
1685.67 0.0360187
1687.87 0.0481232
1690.07 0.0693409
1691.17 0.0867540
1692.27 0.112844
1693.37 0.154884
1694.47 0.229839
1695.02 0.292017
1695.57 0.385580
1696.12 0.536923
1696.66 0.805168
1696.94 1.02590
1697.21 1.35504
1697.49 1.87728
1697.76 2.77480
1698.04 4.53063
1698.18 6.11827
1698.31 8.68251
1698.38 10.6238
1698.45 13.2834
1698.52 17.0522
1698.59 22.5156
1698.66 31.0747
1698.73 44.8346
1698.76 55.3533
1698.79 68.9700
1698.83 87.1433
1698.86 111.172
1698.93 177.518
1699.00 221.606
1699.07 177.507
1699.14 111.161
1699.19 76.8640
1699.24 55.0020
1699.29 40.4684
1699.34 30.9164
1699.45 19.4287
1699.55 13.2397
1699.65 9.57000
1699.76 7.22980
1699.96 4.54770
1700.17 3.11974
1700.37 2.27988
1700.78 1.37804
1701.19 0.932751
1701.61 0.682200
1702.02 0.528608
1702.43 0.428828
1703.25 0.314917
1704.07 0.260902
1705.72 0.240706
1706.54 0.263655
1707.36 0.313827
1708.18 0.407440
1709.01 0.584832
1709.42 0.734087
1709.83 0.958769
1710.24 1.31739
1710.65 1.93877
1711.06 3.15317
1711.27 4.24986
1711.47 6.02483
1711.68 9.19871
1711.78 11.7943
1711.88 15.5733
1711.99 21.4605
1712.09 31.0848
1712.19 47.7559
1712.29 77.0658
1712.40 123.522
1712.50 154.088
1712.60 123.030
1712.71 77.0495
1712.82 46.2790
1712.93 29.5609
1713.03 20.1476
1713.14 14.4893
1713.25 10.8734
1713.36 8.44048
1713.58 5.49090
1713.80 3.84858
1714.02 2.84494
1714.45 1.73755
1714.89 1.17102
1715.32 0.844522
1715.76 0.638594
1716.19 0.500979
1717.06 0.333541
1717.93 0.239484
1718.81 0.181395
1719.68 0.143013
1721.42 0.0970797
1723.16 0.0719050
1724.90 0.0569638
1726.65 0.0478812
1730.13 0.0408070
1731.87 0.0425169
1733.61 0.0499289
1735.36 0.0699582
1736.23 0.0912020
1737.10 0.130601
1737.97 0.214545
1738.41 0.297025
1738.84 0.443742
1739.06 0.564668
1739.28 0.744931
1739.50 1.03054
1739.71 1.51928
1739.93 2.47043
1740.04 3.32079
1740.15 4.69394
1740.26 7.11111
1740.37 11.9077
1740.42 16.2850
1740.48 23.1615
1740.53 34.6684
1740.58 54.2904
1740.64 86.9815
1740.70 108.214
1740.76 86.3933
1740.82 54.2927
1740.87 34.9478
1740.92 23.4904
1740.98 16.5882
1741.03 12.2326
1741.14 7.35787
1741.24 4.89552
1741.35 3.47158
1741.45 2.59340
1741.66 1.60010
1741.87 1.08351
1742.09 0.784004
1742.30 0.594307
1742.51 0.466674
1742.93 0.310692
1743.35 0.223029
1744.20 0.132850
1745.04 0.0896537
1745.89 0.0656325
1747.58 0.0411174
1750.95 0.0227708
1754.33 0.0159263
1757.71 0.0126072
1761.09 0.0108071
1767.85 0.00946119
1774.61 0.0104002
1781.36 0.0158951
1784.74 0.0243015
1786.43 0.0328420
1788.12 0.0485131
1789.81 0.0820174
1790.66 0.115229
1791.50 0.175212
1791.92 0.225420
1792.34 0.301215
1792.77 0.423761
1793.19 0.641100
1793.40 0.820101
1793.61 1.08486
1793.82 1.50227
1794.03 2.21604
1794.24 3.58704
1794.35 4.80740
1794.46 6.73839
1794.56 10.1181
1794.67 16.5985
1794.72 22.3474
1794.77 31.3287
1794.83 45.9515
1794.88 69.4813
1794.94 111.524
1795.00 138.947
1795.06 110.802
1795.12 69.4839
1795.16 50.4238
1795.20 37.3229
1795.28 22.2174
1795.36 14.3886
1795.44 10.0355
1795.52 7.34165
1795.60 5.60954
1795.76 3.56092
1795.92 2.45543
1796.08 1.79374
1796.39 1.07794
1796.71 0.717928
1797.03 0.512549
1797.35 0.384490
1797.67 0.299542
1798.30 0.196773
1798.94 0.139640
1800.21 0.0815234
1801.48 0.0540872
1802.75 0.0390063
1805.29 0.0238849
1810.37 0.0131288
1815.46 0.00973057
1820.54 0.00898596
1825.62 0.0109030
1828.17 0.0144684
1830.71 0.0249491
1831.98 0.0394379
1833.25 0.0795248
1833.88 0.133342
1834.20 0.185436
1834.52 0.276868
1834.84 0.461418
1835.00 0.633269
1835.15 0.920938
1835.31 1.46457
1835.39 1.93866
1835.47 2.66912
1835.55 3.90871
1835.63 6.15619
1835.67 8.04896
1835.71 10.7652
1835.75 14.9712
1835.79 21.1608
1835.85 34.0012
1835.90 42.3683
1835.96 33.7573
1836.01 21.1619
1836.07 12.8579
1836.12 8.34158
1836.18 5.71219
1836.24 4.14315
1836.29 3.11416
1836.35 2.43022
1836.46 1.58740
1836.58 1.11557
1836.69 0.826194
1836.91 0.506377
1837.14 0.341893
1837.37 0.247166
1837.82 0.147316
1838.27 0.0986318
1838.72 0.0714309
1839.62 0.0436647
1841.43 0.0233604
1843.23 0.0163094
1846.84 0.0119177
1850.45 0.0117184
1854.06 0.0142176
1857.67 0.0223537
1859.48 0.0331702
1861.28 0.0618866
1862.18 0.0996087
1862.63 0.135918
1863.09 0.200083
1863.54 0.330864
1863.76 0.455137
1863.99 0.668582
1864.21 1.08713
1864.33 1.46484
1864.44 2.07418
1864.55 3.17063
1864.61 4.08008
1864.66 5.40130
1864.72 7.49265
1864.78 10.8770
1864.83 16.7724
1864.89 27.3545
1864.95 43.9121
1865.00 54.6891
1865.06 43.5986
1865.11 27.3573
1865.16 18.3993
1865.20 12.8992
1865.25 9.33664
1865.29 7.05482
1865.38 4.36785
1865.47 2.96413
1865.56 2.13240
1865.64 1.61264
1865.82 1.01615
1866.00 0.703718
1866.17 0.520918
1866.53 0.328624
1866.88 0.237645
1867.24 0.190969
1867.94 0.161008
1868.65 0.189776
1869.01 0.235285
1869.36 0.323862
1869.72 0.510079
1869.89 0.685935
1870.07 0.984226
1870.25 1.54699
1870.34 2.03795
1870.42 2.79574
1870.51 4.08030
1870.60 6.41283
1870.65 8.40194
1870.69 11.2803
1870.73 15.6311
1870.78 22.2122
1870.84 35.6419
1870.90 44.4040
1870.96 35.4105
1871.02 22.2115
1871.09 13.4245
1871.15 8.61661
1871.22 5.89473
1871.28 4.25230
1871.34 3.19978
1871.41 2.49010
1871.53 1.63269
1871.66 1.14943
1871.79 0.855591
1872.04 0.528258
1872.30 0.360674
1872.55 0.263572
1873.06 0.161106
1873.57 0.110837
1874.08 0.0824084
1875.10 0.0529797
1877.15 0.0309276
1879.19 0.0231875
1883.27 0.0190958
1887.35 0.0211020
1891.43 0.0291419
1893.47 0.0376980
1895.51 0.0533802
1897.55 0.0866362
1898.57 0.119407
1899.59 0.178534
1900.10 0.227879
1900.61 0.302578
1901.12 0.423583
1901.63 0.638955
1901.88 0.816037
1902.14 1.08001
1902.39 1.49845
1902.65 2.21970
1902.90 3.62264
1903.03 4.88720
1903.16 6.92061
1903.29 10.5503
1903.35 13.5066
1903.41 17.7628
1903.48 24.3879
1903.54 35.1333
1903.61 53.5402
1903.67 85.1921
1903.73 136.320
1903.80 170.412
1903.87 136.320
1903.93 85.1946
1903.99 57.0727
1904.04 39.8303
1904.09 28.7540
1904.15 21.6566
1904.25 13.3459
1904.36 8.98077
1904.47 6.43466
1904.57 4.82913
1904.79 3.00223
1905.00 2.04493
1905.22 1.48280
1905.43 1.12525
1905.64 0.883999
1906.07 0.588962
1906.50 0.422445
1906.93 0.319470
1907.36 0.251605
1908.21 0.170396
1909.07 0.125976
1910.78 0.0824087
1912.49 0.0638789
1914.20 0.0560167
1917.62 0.0565492
1921.04 0.0759433
1922.75 0.0977551
1924.47 0.137475
1926.18 0.219649
1927.03 0.298729
1927.89 0.438017
1928.32 0.552138
1928.74 0.722066
1929.17 0.991778
1929.60 1.45754
1930.03 2.37506
1930.24 3.20938
1930.45 4.58304
1930.67 7.07449
1930.78 9.15110
1930.88 12.2702
1930.99 17.2225
1931.10 25.6324
1931.15 32.1804
1931.20 41.0142
1931.26 53.2479
1931.31 70.0653
1931.41 112.359
1931.50 140.188
1931.60 111.881
1931.69 70.0609
1931.76 48.8807
1931.83 35.0297
1931.90 25.9525
1931.97 19.9134
1932.11 12.5801
1932.25 8.63553
1932.39 6.27078
1932.53 4.77050
1932.81 3.03574
1933.09 2.11914
1933.37 1.58055
1933.92 1.01464
1934.48 0.749507
1935.04 0.619109
1936.15 0.559709
1937.27 0.711108
1937.83 0.911708
1938.38 1.29052
1938.94 2.08034
1939.22 2.82535
1939.50 4.08510
1939.78 6.47643
1939.92 8.56617
1940.06 11.8198
1940.20 17.3478
1940.27 21.6332
1940.33 27.5290
1940.40 36.1479
1940.47 48.7928
1940.54 68.4261
1940.61 98.0950
1940.71 156.836
1940.80 195.960
1940.89 156.819
1940.99 98.0753
1941.05 72.3500
1941.10 54.3060
1941.22 32.9232
1941.34 21.6127
1941.45 15.1955
1941.57 11.1966
1941.68 8.59451
1941.91 5.50961
1942.14 3.82266
1942.37 2.81127
1942.83 1.70511
1943.29 1.14720
1943.76 0.826954
1944.22 0.626108
1944.68 0.491755
1945.60 0.328433
1946.52 0.236368
1947.44 0.179173
1948.37 0.141086
1950.21 0.0948490
1952.05 0.0687166
1953.90 0.0524014
1955.74 0.0414765
1959.43 0.0281133
1963.12 0.0204983
1970.49 0.0124954
1977.87 0.00854238
1985.25 0.00628071
2000.00 0.00389584
2000.00 1.61720
2500.00 1.46169
3000.00 1.35032
3500.00 1.26508
4000.00 1.19614
5000.00 1.08883
6000.00 1.00646
7000.00 0.939411
8000.00 0.882924
10000.0 0.791654
12500.0 0.703909
15000.0 0.635337
17000.0 0.590207
20000.0 0.534182
25000.0 0.462527
30000.0 0.409013
35000.0 0.367432
40000.0 0.334173
50000.0 0.284328
60000.0 0.248958
70000.0 0.222432
80000.0 0.201912
99999.9 0.172398
100000 0.172570
144665 0.136310
150000 0.133193
200000 0.114700
206067 0.113347
206246 0.113308
206247 0.113308
206269 0.113303
206270 0.113303
226973 0.109080
250000 0.104974
300000 0.0996435
420000 0.0959800
420000 0.0959800
485906 0.0944350
485910 0.0944343
485956 0.0944260
485957 0.0944258
490000 0.0937001
500000 0.0919538
541007 0.0904878
541010 0.0904877
541231 0.0904801
541232 0.0904801
599694 0.0886075
600000 0.0885982
600000 0.0885982
616012 0.0881237
625000 0.0878639
664748 0.0867662
664817 0.0867410
686670 0.0792303
686673 0.0792294
686674 0.0792290
700000 0.0763365
701411 0.0761249
701701 0.0760815
726686 0.0724986
726690 0.0724980
726762 0.0724881
726763 0.0724880
726989 0.0724569
728303 0.0718838
728606 0.0717524
742370 0.0696807
742471 0.0696659
742526 0.0696578
750000 0.0685742
760838 0.0670511
760917 0.0670402
773939 0.0652828
786380 0.0636732
786385 0.0636725
786486 0.0636597
794556 0.0626504
795510 0.0625329
795512 0.0625326
800000 0.0619843
803275 0.0618170
829228 0.0605300
829321 0.0605255
849653 0.0595632
875000 0.0584159
880259 0.0581848
880260 0.0581847
880356 0.0581805
880457 0.0581761
880460 0.0581760
897344 0.0574494
897445 0.0574451
900000 0.0573310
957664 0.0562556
957665 0.0562556
957770 0.0562537
957772 0.0562536
957873 0.0562518
999999 0.0555184
1.00000E+06 0.0555184
1.00334E+06 0.0554897
1.03516E+06 0.0552221
1.03517E+06 0.0552218
1.03520E+06 0.0552199
1.03527E+06 0.0552160
1.03528E+06 0.0552154
1.05014E+06 0.0544018
1.05024E+06 0.0543964
1.06781E+06 0.0534643
1.06790E+06 0.0534597
1.06793E+06 0.0534581
1.07026E+06 0.0533369
1.07444E+06 0.0531207
1.08120E+06 0.0527748
1.08510E+06 0.0525772
1.08511E+06 0.0525767
1.08552E+06 0.0525560
1.10397E+06 0.0516414
1.10417E+06 0.0516343
1.10418E+06 0.0516340
1.12832E+06 0.0507875
1.12840E+06 0.0507762
1.12842E+06 0.0507734
1.12843E+06 0.0507727
1.12843E+06 0.0507726
1.12854E+06 0.0507565
1.12855E+06 0.0507551
1.12863E+06 0.0507439
1.12874E+06 0.0507284
1.14747E+06 0.0481830
1.14757E+06 0.0481699
1.15997E+06 0.0465774
1.16056E+06 0.0465034
1.16240E+06 0.0462990
1.16241E+06 0.0462984
1.20000E+06 0.0423764
1.23549E+06 0.0390772
1.25000E+06 0.0378288
1.26710E+06 0.0370639
1.27630E+06 0.0366630
1.28180E+06 0.0364267
1.28625E+06 0.0361568
1.29736E+06 0.0356054
1.29797E+06 0.0354291
1.31599E+06 0.0343337
1.31614E+06 0.0343248
1.32392E+06 0.0338671
1.37180E+06 0.0312344
1.38426E+06 0.0305976
1.39062E+06 0.0302798
1.40000E+06 0.0298197
1.42417E+06 0.0286794
1.44069E+06 0.0279488
1.44085E+06 0.0279418
1.44706E+06 0.0276742
1.44823E+06 0.0276242
1.45226E+06 0.0274530
1.46206E+06 0.0268630
1.47650E+06 0.0261222
1.47807E+06 0.0260433
1.50000E+06 0.0249746
1.50000E+06 0.0249745
1.51345E+06 0.0245439
1.51355E+06 0.0245407
1.52556E+06 0.0241657
1.52566E+06 0.0241626
1.52607E+06 0.0241500
1.52610E+06 0.0241491
1.53138E+06 0.0239871
1.55700E+06 0.0231961
1.55718E+06 0.0231907
1.55738E+06 0.0231847
1.56128E+06 0.0230678
1.56819E+06 0.0228739
1.56930E+06 0.0228430
1.58120E+06 0.0225155
1.58139E+06 0.0225103
1.59060E+06 0.0222543
1.59645E+06 0.0220940
1.63724E+06 0.0212053
1.63742E+06 0.0212015
1.64300E+06 0.0210845
1.64310E+06 0.0210824
1.64512E+06 0.0210403
1.64522E+06 0.0210382
1.66248E+06 0.0206839
1.66258E+06 0.0206819
1.68590E+06 0.0202184
1.68775E+06 0.0201823
1.70000E+06 0.0199462
1.70089E+06 0.0199292
1.72514E+06 0.0194754
1.75000E+06 0.0190272
1.76071E+06 0.0188746
1.76082E+06 0.0188731
1.76122E+06 0.0188674
1.77662E+06 0.0186519
1.78140E+06 0.0185859
1.78353E+06 0.0185566
1.78827E+06 0.0184917
1.79060E+06 0.0184599
1.80160E+06 0.0183114
1.86620E+06 0.0174795
1.88390E+06 0.0172631
1.88422E+06 0.0172593
1.88433E+06 0.0172579
1.88916E+06 0.0171997
1.89530E+06 0.0171262
1.90028E+06 0.0170670
1.92736E+06 0.0167513
1.92740E+06 0.0167508
1.95860E+06 0.0163996
1.98040E+06 0.0161618
1.98524E+06 0.0161098
1.98566E+06 0.0161053
1.99911E+06 0.0159625
1.99921E+06 0.0159614
2.00000E+06 0.0159531
2.00596E+06 0.0158927
2.00687E+06 0.0158835
2.01000E+06 0.0158519
2.01000E+06 0.0158519
2.01374E+06 0.0158144
2.02061E+06 0.0157458
2.02126E+06 0.0157394
2.02748E+06 0.0156778
2.03435E+06 0.0156103
2.03829E+06 0.0155718
2.03830E+06 0.0155717
2.03839E+06 0.0155708
2.04122E+06 0.0155433
2.04809E+06 0.0154768
2.05320E+06 0.0154277
2.05353E+06 0.0154245
2.05496E+06 0.0154108
2.05859E+06 0.0153762
2.05902E+06 0.0153721
2.06060E+06 0.0153571
2.06183E+06 0.0153454
2.06870E+06 0.0152804
2.07557E+06 0.0152159
2.08244E+06 0.0151519
2.08931E+06 0.0150884
2.08961E+06 0.0150856
2.09184E+06 0.0150651
2.09403E+06 0.0150450
2.09450E+06 0.0150407
2.09618E+06 0.0150253
2.10305E+06 0.0149627
2.10636E+06 0.0149327
2.10992E+06 0.0149006
2.11679E+06 0.0148389
2.11764E+06 0.0148313
2.12262E+06 0.0147870
2.12366E+06 0.0147777
2.12648E+06 0.0147527
2.12659E+06 0.0147518
2.13053E+06 0.0147170
2.13740E+06 0.0146567
2.14427E+06 0.0145968
2.15114E+06 0.0145373
2.15220E+06 0.0145282
2.15801E+06 0.0144783
2.16488E+06 0.0144197
2.17175E+06 0.0143616
2.17781E+06 0.0143106
2.17862E+06 0.0143038
2.18549E+06 0.0142465
2.19236E+06 0.0141896
2.19923E+06 0.0141331
2.20342E+06 0.0140988
2.20610E+06 0.0140769
2.21271E+06 0.0140233
2.21297E+06 0.0140212
2.21984E+06 0.0139659
2.22671E+06 0.0139109
2.22903E+06 0.0138925
2.22950E+06 0.0138887
2.22964E+06 0.0138876
2.23358E+06 0.0138564
2.24045E+06 0.0138022
2.24264E+06 0.0137850
2.24671E+06 0.0137532
2.24691E+06 0.0137516
2.24732E+06 0.0137484
2.25000E+06 0.0137275
2.25419E+06 0.0136950
2.25800E+06 0.0136655
2.26106E+06 0.0136419
2.26533E+06 0.0136091
2.26793E+06 0.0135892
2.26860E+06 0.0135841
2.27480E+06 0.0135369
2.28167E+06 0.0134849
2.28760E+06 0.0134403
2.28854E+06 0.0134333
2.29541E+06 0.0133820
2.30228E+06 0.0133311
2.30660E+06 0.0132993
2.30765E+06 0.0132916
2.30915E+06 0.0132805
2.31602E+06 0.0132303
2.31864E+06 0.0132112
2.31906E+06 0.0132082
2.31985E+06 0.0132024
2.32289E+06 0.0131804
2.32976E+06 0.0131308
2.33663E+06 0.0130816
2.33863E+06 0.0130674
2.34350E+06 0.0130327
2.35037E+06 0.0129841
2.35724E+06 0.0129359
2.35740E+06 0.0129348
2.35744E+06 0.0129345
2.36362E+06 0.0128914
2.36411E+06 0.0128880
2.36774E+06 0.0128628
2.36785E+06 0.0128620
2.36815E+06 0.0128599
2.37098E+06 0.0128403
2.37785E+06 0.0127930
2.38472E+06 0.0127460
2.39159E+06 0.0126993
2.39520E+06 0.0126749
2.39846E+06 0.0126530
2.40533E+06 0.0126069
2.41220E+06 0.0125611
2.41836E+06 0.0125203
2.41870E+06 0.0125181
2.41891E+06 0.0125167
2.41907E+06 0.0125156
2.42150E+06 0.0124996
2.42541E+06 0.0124739
2.42594E+06 0.0124704
2.42972E+06 0.0124457
2.43281E+06 0.0124255
2.43968E+06 0.0123809
2.43999E+06 0.0123789
2.44473E+06 0.0123483
2.44655E+06 0.0123366
2.44903E+06 0.0123206
2.44953E+06 0.0123174
2.45162E+06 0.0123040
2.45172E+06 0.0123034
2.45280E+06 0.0122965
2.45342E+06 0.0122925
2.46029E+06 0.0122487
2.46405E+06 0.0122249
2.46627E+06 0.0122109
2.46716E+06 0.0122052
2.47403E+06 0.0121620
2.47524E+06 0.0121544
2.48090E+06 0.0121191
2.48777E+06 0.0120764
2.49464E+06 0.0120340
2.49494E+06 0.0120321
2.50000E+06 0.0120011
2.50151E+06 0.0119919
2.50679E+06 0.0119596
2.50709E+06 0.0119578
2.50838E+06 0.0119500
2.51101E+06 0.0119340
2.51525E+06 0.0119083
2.52000E+06 0.0118797
2.52000E+06 0.0118797
2.52050E+06 0.0118767
2.52212E+06 0.0118670
2.52629E+06 0.0118420
2.52781E+06 0.0118329
2.52899E+06 0.0118259
2.53176E+06 0.0118094
2.53212E+06 0.0118072
2.53586E+06 0.0117850
2.54273E+06 0.0117444
2.54735E+06 0.0117173
2.54960E+06 0.0117041
2.55473E+06 0.0116741
2.55483E+06 0.0116735
2.55607E+06 0.0116663
2.55647E+06 0.0116640
2.55790E+06 0.0116556
2.56054E+06 0.0116403
2.56055E+06 0.0116403
2.56092E+06 0.0116381
2.56110E+06 0.0116371
2.56112E+06 0.0116370
2.56334E+06 0.0116241
2.56712E+06 0.0116023
2.57021E+06 0.0115845
2.57708E+06 0.0115451
2.58395E+06 0.0115060
2.58908E+06 0.0114769
2.59082E+06 0.0114670
2.59437E+06 0.0114470
2.59457E+06 0.0114459
2.59769E+06 0.0114284
2.60456E+06 0.0113899
2.61143E+06 0.0113517
2.61615E+06 0.0113256
2.61830E+06 0.0113137
2.62128E+06 0.0112973
2.62159E+06 0.0112956
2.62517E+06 0.0112760
2.63204E+06 0.0112385
2.63803E+06 0.0112059
2.63811E+06 0.0112055
2.63891E+06 0.0112011
2.63955E+06 0.0111977
2.64107E+06 0.0111895
2.64168E+06 0.0111862
2.64578E+06 0.0111641
2.64645E+06 0.0111604
2.65265E+06 0.0111272
2.65952E+06 0.0110905
2.66172E+06 0.0110788
2.66639E+06 0.0110541
2.67326E+06 0.0110179
2.67699E+06 0.0109983
2.68013E+06 0.0109819
2.68700E+06 0.0109460
2.69226E+06 0.0109188
2.69387E+06 0.0109104
2.70074E+06 0.0108751
2.70753E+06 0.0108403
2.70761E+06 0.0108399
2.71448E+06 0.0108049
2.72135E+06 0.0107701
2.72280E+06 0.0107628
2.72822E+06 0.0107355
2.73509E+06 0.0107011
2.73807E+06 0.0106863
2.74196E+06 0.0106669
2.74446E+06 0.0106545
2.74883E+06 0.0106329
2.75334E+06 0.0106107
2.75570E+06 0.0105991
2.76257E+06 0.0105655
2.76861E+06 0.0105361
2.76923E+06 0.0105331
2.76943E+06 0.0105322
2.76944E+06 0.0105321
2.77631E+06 0.0104989
2.78318E+06 0.0104658
2.78973E+06 0.0104345
2.79005E+06 0.0104330
2.79029E+06 0.0104318
2.79069E+06 0.0104299
2.79301E+06 0.0104189
2.79692E+06 0.0104003
2.79783E+06 0.0103960
2.80379E+06 0.0103678
2.81066E+06 0.0103355
2.81657E+06 0.0103078
2.81753E+06 0.0103033
2.82440E+06 0.0102714
2.83127E+06 0.0102396
2.83530E+06 0.0102210
2.83594E+06 0.0102181
2.83814E+06 0.0102080
2.84501E+06 0.0101765
2.85081E+06 0.0101501
2.85188E+06 0.0101453
2.85875E+06 0.0101142
2.86562E+06 0.0100833
2.86636E+06 0.0100799
2.87249E+06 0.0100525
2.87936E+06 0.0100219
2.88098E+06 0.0100147
2.88100E+06 0.0100147
2.90038E+06 0.00992936
2.90103E+06 0.00992652
2.90325E+06 0.00991684
2.90952E+06 0.00988959
2.93968E+06 0.00976034
2.94507E+06 0.00973758
2.96984E+06 0.00963407
2.98688E+06 0.00956401
2.98755E+06 0.00956128
2.99000E+06 0.00955129
2.99000E+06 0.00955128
2.99685E+06 0.00952344
2.99690E+06 0.00952324
2.99695E+06 0.00952304
3.00000E+06 0.00951069
3.03030E+06 0.00933084
3.03120E+06 0.00932558
3.03125E+06 0.00932529
3.03160E+06 0.00932324
3.03190E+06 0.00932149
3.03292E+06 0.00931554
3.04000E+06 0.00927436
3.06250E+06 0.00914535
3.09375E+06 0.00897065
3.09632E+06 0.00895651
3.09773E+06 0.00894877
3.12500E+06 0.00880100
3.12520E+06 0.00879993
3.12523E+06 0.00879977
3.15625E+06 0.00863619
3.18750E+06 0.00847605
3.19817E+06 0.00842241
3.21619E+06 0.00833299
3.21875E+06 0.00832040
3.22371E+06 0.00829610
3.25000E+06 0.00816907
3.28125E+06 0.00802191
3.30646E+06 0.00790611
3.30712E+06 0.00790311
3.31250E+06 0.00787875
3.34375E+06 0.00773945
3.37500E+06 0.00760388
3.40452E+06 0.00747911
3.40608E+06 0.00747261
3.40625E+06 0.00747190
3.41362E+06 0.00744128
3.43750E+06 0.00734338
3.46410E+06 0.00723663
3.46875E+06 0.00721821
3.50000E+06 0.00709627
3.50000E+06 0.00709626
3.53125E+06 0.00697744
3.53530E+06 0.00696226
3.53610E+06 0.00695927
3.53680E+06 0.00695666
3.53760E+06 0.00695367
3.56250E+06 0.00686162
3.57924E+06 0.00680079
3.58087E+06 0.00679491
3.59375E+06 0.00674872
3.61959E+06 0.00665748
3.62153E+06 0.00665071
3.62500E+06 0.00663862
3.65625E+06 0.00653124
3.65927E+06 0.00652101
3.66094E+06 0.00651536
3.66458E+06 0.00650307
3.68750E+06 0.00642649
3.71875E+06 0.00632429
3.72848E+06 0.00629297
3.72850E+06 0.00629291
3.75000E+06 0.00622454
3.78125E+06 0.00612718
3.81250E+06 0.00603212
3.84211E+06 0.00594411
3.84375E+06 0.00593929
3.87500E+06 0.00584863
3.90625E+06 0.00576006
3.92106E+06 0.00571882
3.93750E+06 0.00567353
3.96875E+06 0.00558896
4.00000E+06 0.00550630
4.02000E+06 0.00542855
4.02000E+06 0.00542855
4.06250E+06 0.00526819
4.12500E+06 0.00504378
4.18750E+06 0.00483209
4.21930E+06 0.00472897
4.25000E+06 0.00463222
4.31250E+06 0.00444336
4.37500E+06 0.00426476
4.43750E+06 0.00409572
4.45062E+06 0.00406139
4.50000E+06 0.00393560
4.51000E+06 0.00391077
4.51000E+06 0.00391077
4.56250E+06 0.00378382
4.62500E+06 0.00363985
4.68750E+06 0.00350317
4.69462E+06 0.00348805
4.75000E+06 0.00337334
4.81250E+06 0.00324993
4.87500E+06 0.00313253
4.93750E+06 0.00302079
4.95200E+06 0.00299564
5.00000E+06 0.00291437
5.00000E+06 0.00291437
5.12500E+06 0.00266487
5.21019E+06 0.00251030
5.25000E+06 0.00244199
5.37500E+06 0.00224235
5.48524E+06 0.00208327
5.50000E+06 0.00206307
5.50152E+06 0.00206101
5.62500E+06 0.00190169
5.66944E+06 0.00184821
5.68506E+06 0.00182987
5.75000E+06 0.00175607
5.87500E+06 0.00162438
6.00000E+06 0.00150504
6.02000E+06 0.00148628
6.02000E+06 0.00148628
6.22419E+06 0.00131069
6.25328E+06 0.00128785
6.39579E+06 0.00118299
6.44838E+06 0.00114703
6.48074E+06 0.00112559
6.67256E+06 0.00103276
6.88521E+06 0.000941440
6.88694E+06 0.000940743
6.88766E+06 0.000940452
6.89675E+06 0.000936799
6.99205E+06 0.000899620
7.00000E+06 0.000896608
7.03335E+06 0.000879098
7.04000E+06 0.000875658
7.04000E+06 0.000875657
7.06546E+06 0.000862639
7.23762E+06 0.000780630
7.35595E+06 0.000751321
7.45347E+06 0.000728331
7.45430E+06 0.000728139
7.45598E+06 0.000727752
7.48331E+06 0.000721496
7.53044E+06 0.000718089
7.54412E+06 0.000717107
7.54566E+06 0.000716997
7.54755E+06 0.000716861
7.56445E+06 0.000715653
7.71054E+06 0.000705406
7.71191E+06 0.000705312
7.73734E+06 0.000703563
7.89064E+06 0.000710693
7.89065E+06 0.000710694
8.00000E+06 0.000715739
8.00000E+06 0.000715739
8.02988E+06 0.000721431
8.05977E+06 0.000727147
8.08965E+06 0.000732887
8.11954E+06 0.000738650
8.14942E+06 0.000744438
8.17516E+06 0.000749442
8.17930E+06 0.000750249
8.20919E+06 0.000756085
8.23907E+06 0.000761944
8.26659E+06 0.000767361
8.29411E+06 0.000772798
8.31543E+06 0.000777024
8.33674E+06 0.000781261
8.35031E+06 0.000783966
8.35806E+06 0.000785511
8.37937E+06 0.000789773
8.38459E+06 0.000790819
8.40720E+06 0.000795357
8.42982E+06 0.000799908
8.45243E+06 0.000804474
8.47504E+06 0.000809053
8.48528E+06 0.000811131
8.50977E+06 0.000817920
8.52546E+06 0.000822290
8.53426E+06 0.000824747
8.55875E+06 0.000831611
8.58324E+06 0.000838511
8.58822E+06 0.000839919
8.61632E+06 0.000847892
8.64442E+06 0.000855913
8.67251E+06 0.000863984
8.70061E+06 0.000872105
8.73003E+06 0.000880661
8.73046E+06 0.000880786
8.73143E+06 0.000881069
8.73609E+06 0.000882430
8.73885E+06 0.000883237
8.78336E+06 0.000896311
8.82787E+06 0.000909510
8.84981E+06 0.000916063
8.87175E+06 0.000922647
8.89369E+06 0.000929262
8.91563E+06 0.000935908
8.93361E+06 0.000941377
8.96681E+06 0.000951529
8.99000E+06 0.000958665
8.99000E+06 0.000958666
9.00000E+06 0.000961753
9.03003E+06 0.000966643
9.06005E+06 0.000971540
9.09008E+06 0.000976447
9.12011E+06 0.000981361
9.15013E+06 0.000986285
9.18016E+06 0.000991217
9.21018E+06 0.000996157
9.24021E+06 0.00100111
9.25057E+06 0.00100282
9.25523E+06 0.00100358
9.28581E+06 0.00100864
9.31639E+06 0.00101370
9.32621E+06 0.00101533
9.36031E+06 0.00102098
9.39440E+06 0.00102665
9.39472E+06 0.00102670
9.39988E+06 0.00102756
9.40010E+06 0.00102760
9.43931E+06 0.00103413
9.47852E+06 0.00104068
9.48683E+06 0.00104207
9.52129E+06 0.00104784
9.55576E+06 0.00105362
9.59022E+06 0.00105941
9.62468E+06 0.00106521
9.62972E+06 0.00106606
9.66310E+06 0.00107169
9.68488E+06 0.00107537
9.74004E+06 0.00108471
9.74409E+06 0.00108539
9.77649E+06 0.00109089
9.78944E+06 0.00109309
9.84274E+06 0.00110217
9.89603E+06 0.00111127
9.89837E+06 0.00111167
9.94919E+06 0.00112037
1.00000E+07 0.00112909
1.00300E+07 0.00112906
1.00300E+07 0.00112906
1.00610E+07 0.00112904
1.01220E+07 0.00112899
1.01830E+07 0.00112893
1.02441E+07 0.00112888
1.02500E+07 0.00112888
1.03051E+07 0.00112883
1.03661E+07 0.00112878
1.04271E+07 0.00112873
1.04881E+07 0.00112868
1.05000E+07 0.00112867
1.05554E+07 0.00112863
1.06108E+07 0.00112858
1.06661E+07 0.00112854
1.07215E+07 0.00112849
1.07500E+07 0.00112847
1.07911E+07 0.00112844
1.08608E+07 0.00112838
1.09304E+07 0.00112833
1.10000E+07 0.00112827
1.11485E+07 0.00111972
1.12491E+07 0.00111403
1.13691E+07 0.00110734
1.14891E+07 0.00110077
1.15000E+07 0.00110017
1.16463E+07 0.00109231
1.17926E+07 0.00108460
1.18715E+07 0.00108051
1.20000E+07 0.00107393
1.20000E+07 0.00107393
1.20515E+07 0.00107139
1.21029E+07 0.00106887
1.21544E+07 0.00106637
1.22058E+07 0.00106388
1.22573E+07 0.00106141
1.23087E+07 0.00105896
1.23602E+07 0.00105652
1.24117E+07 0.00105410
1.24631E+07 0.00105169
1.25000E+07 0.00104997
1.25146E+07 0.00104930
1.25660E+07 0.00104692
1.26175E+07 0.00104456
1.26689E+07 0.00104221
1.27204E+07 0.00103988
1.27719E+07 0.00103756
1.28233E+07 0.00103526
1.28314E+07 0.00103490
1.28736E+07 0.00103303
1.29157E+07 0.00103116
1.29579E+07 0.00102931
1.30000E+07 0.00102746
1.30625E+07 0.00102573
1.31250E+07 0.00102401
1.31875E+07 0.00102230
1.32500E+07 0.00102060
1.33125E+07 0.00101892
1.33750E+07 0.00101724
1.34375E+07 0.00101558
1.34807E+07 0.00101443
1.35000E+07 0.00101392
1.35517E+07 0.00101256
1.36035E+07 0.00101120
1.36552E+07 0.00100985
1.37069E+07 0.00100851
1.37706E+07 0.00100687
1.38342E+07 0.00100524
1.38979E+07 0.00100362
1.39615E+07 0.00100201
1.39800E+07 0.00100154
1.39800E+07 0.00100154
1.40000E+07 0.00100104
1.40903E+07 0.00100036
1.41806E+07 0.000999687
1.42708E+07 0.000999018
1.43611E+07 0.000998354
1.43671E+07 0.000998310
1.43694E+07 0.000998293
1.44347E+07 0.000997815
1.45000E+07 0.000997340
1.45009E+07 0.000997334
1.45019E+07 0.000997327
1.45039E+07 0.000997312
1.45058E+07 0.000997298
1.45078E+07 0.000997284
1.45117E+07 0.000997255
1.45156E+07 0.000997227
1.45195E+07 0.000997199
1.45234E+07 0.000997171
1.45312E+07 0.000997114
1.45390E+07 0.000997058
1.45468E+07 0.000997001
1.45625E+07 0.000996888
1.45781E+07 0.000996775
1.45937E+07 0.000996663
1.46250E+07 0.000996437
1.46562E+07 0.000996213
1.46875E+07 0.000995989
1.47187E+07 0.000995766
1.47500E+07 0.000995543
1.47812E+07 0.000995321
1.48125E+07 0.000995099
1.48750E+07 0.000994657
1.49597E+07 0.000994061
1.50000E+07 0.000993779
1.50926E+07 0.000994538
1.51852E+07 0.000995293
1.52933E+07 0.000996170
1.54015E+07 0.000997042
1.55096E+07 0.000997908
1.56177E+07 0.000998768
1.56321E+07 0.000998882
1.56503E+07 0.000999027
1.56847E+07 0.000999299
1.57274E+07 0.000999636
1.58024E+07 0.00100023
1.58773E+07 0.00100081
1.60000E+07 0.00100177
1.61365E+07 0.00100465
1.61365E+07 0.00100465
1.61510E+07 0.00100496
1.62958E+07 0.00100800
1.63869E+07 0.00100990
1.64472E+07 0.00101116
1.65752E+07 0.00101381
1.67032E+07 0.00101646
1.67087E+07 0.00101657
1.67104E+07 0.00101660
1.69056E+07 0.00102061
1.69900E+07 0.00102233
1.69900E+07 0.00102233
1.70000E+07 0.00102253
1.72289E+07 0.00102968
1.72426E+07 0.00103011
1.74015E+07 0.00103504
1.76685E+07 0.00104328
1.79355E+07 0.00105146
1.79482E+07 0.00105185
1.79483E+07 0.00105185
1.80000E+07 0.00105343
1.82500E+07 0.00106341
1.85000E+07 0.00107335
1.87500E+07 0.00108324
1.90000E+07 0.00109309
1.92500E+07 0.00110497
1.95000E+07 0.00111682
1.97500E+07 0.00112865
2.00000E+07 0.00114045