Pd-108(n,g) ENDF/B-VII.1
Energy(eV) XS(b)
1.00000E-05 425.801
1.25000E-05 380.848
1.50000E-05 347.665
2.00000E-05 301.087
2.75000E-05 256.768
3.50000E-05 227.601
4.25000E-05 206.544
5.00000E-05 190.425
6.25000E-05 170.321
7.50000E-05 155.481
0.000100000 134.651
0.000125000 120.436
0.000150000 109.942
0.000200000 95.2131
0.000275000 81.1984
0.000350000 71.9750
0.000425000 65.3166
0.000500000 60.2192
0.000625000 53.8621
0.000750000 49.1695
0.00100000 42.5827
0.00125000 38.0877
0.00150000 34.7696
0.00200000 30.1123
0.00275000 25.6810
0.00350000 22.7648
0.00425000 20.6597
0.00500000 19.0481
0.00625000 17.0385
0.00750000 15.5551
0.0100000 13.4731
0.0125000 12.0525
0.0150000 11.0041
0.0200000 9.53268
0.0253000 8.47830
0.0314750 7.60410
0.0376500 6.95521
0.0500000 6.03994
0.0625000 5.40638
0.0750000 4.93908
0.100000 4.28389
0.125000 3.83749
0.150000 3.50851
0.200000 3.04786
0.275000 2.61141
0.350000 2.32578
0.500000 1.96488
0.750000 1.63187
1.00000 1.43970
1.50000 1.23115
2.00000 1.15919
2.22853 1.19193
2.45705 1.35927
2.57131 1.60405
2.68558 2.23422
2.74271 2.97487
2.79984 4.57679
2.82840 6.15798
2.85697 8.94254
2.88554 14.3092
2.89982 18.8417
2.91410 25.3395
2.93705 40.1375
2.96000 50.1306
2.98295 40.4380
3.00590 25.7117
3.02148 18.7112
3.03706 13.9706
3.06822 8.55449
3.09937 5.84053
3.13053 4.32992
3.19285 2.81813
3.25516 2.11993
3.37979 1.51299
3.50443 1.26058
3.75369 1.05103
4.00295 0.962843
5.00000 0.845561
7.50000 0.797136
10.0000 0.831782
15.0000 1.07348
17.5000 1.31997
20.0000 1.72897
21.6243 2.15023
22.4364 2.43585
23.2485 2.79392
23.6546 3.00802
23.8576 3.12563
24.0606 3.25112
24.1622 3.31705
24.2637 3.38523
24.3652 3.45576
24.4667 3.52875
24.5682 3.60432
24.6697 3.68259
24.7712 3.76370
24.8728 3.84778
24.9743 3.93498
25.0758 4.02546
25.2788 4.21693
25.4819 4.42365
25.6849 4.64732
26.0909 5.15338
26.4970 5.75408
26.9031 6.47478
27.3091 7.34991
27.7152 8.42735
28.1213 9.77513
28.5273 11.4926
28.9334 13.7295
29.3394 16.7200
29.7455 20.8476
30.1516 26.7755
30.5576 35.7322
30.9637 50.2091
31.3698 75.9104
31.5728 97.0005
31.7758 128.388
31.9789 178.055
32.1819 263.494
32.2834 331.391
32.3849 429.294
32.4864 577.722
32.5879 817.826
32.6895 1241.90
32.7402 1585.80
32.7910 2088.33
32.8417 2857.36
32.8925 4097.58
32.9433 6206.20
32.9940 9873.18
33.0470 15759.2
33.1000 19650.3
33.1530 15711.0
33.2060 9823.65
33.2388 7238.10
33.2716 5426.80
33.3372 3269.76
33.4028 2143.14
33.4684 1499.93
33.5340 1103.44
33.5996 843.649
33.7308 536.907
33.8620 370.475
33.9932 270.549
34.2556 161.963
34.5180 107.489
34.7804 76.3991
35.0429 57.0190
35.3053 44.1404
35.8301 28.6412
36.3549 20.0379
36.8797 14.7799
37.4045 11.3376
38.4541 7.26096
39.5038 5.03697
40.5534 3.69597
41.6030 2.82799
43.7023 1.81472
45.8015 1.27288
47.9008 0.953437
50.0000 0.752551
55.0811 0.505193
60.1621 0.418064
65.2432 0.418904
70.3243 0.507764
72.8648 0.603428
75.4053 0.760284
77.9459 1.02762
80.4864 1.52297
81.7567 1.94245
82.3918 2.22702
83.0269 2.58402
83.3445 2.79760
83.5033 2.91497
83.6621 3.04022
83.8208 3.17410
83.9796 3.31739
84.1384 3.47101
84.2972 3.63597
84.4560 3.81343
84.6148 4.00466
84.7735 4.21113
84.9323 4.43452
85.2499 4.93991
85.5674 5.53960
85.8850 6.25867
86.2026 7.13103
86.5202 8.20362
86.8377 9.54281
87.1553 11.2451
87.4728 13.4546
87.7904 16.3952
88.1080 20.4291
88.4255 26.1745
88.7431 34.7557
89.0607 48.3968
89.3782 72.0111
89.5370 90.8923
89.6958 118.278
89.8546 160.111
90.0134 228.512
90.1722 351.235
90.2516 452.352
90.3309 602.490
90.4103 837.134
90.4897 1226.83
90.5691 1917.25
90.6485 3183.91
90.7243 5091.52
90.8000 6358.85
90.8758 5082.66
90.9515 3175.00
91.0222 2014.47
91.0929 1339.49
91.1636 938.527
91.2343 688.083
91.3757 410.522
91.5170 270.650
91.6584 191.178
91.7998 141.966
92.0826 86.9212
92.3653 58.5439
92.6481 42.0579
92.9309 31.6505
93.2136 24.6679
93.7792 16.1777
94.3447 11.4128
94.9102 8.47636
95.4758 6.54072
96.6068 4.22980
97.7379 2.95666
98.8689 2.18228
100.000 1.67696
101.580 1.22108
103.161 0.930495
106.322 0.600512
109.482 0.466191
110.273 0.481877
111.063 0.586361
111.458 0.753001
111.655 0.921841
111.853 1.22642
112.051 1.85377
112.149 2.44816
112.248 3.46643
112.347 5.42941
112.396 7.17023
112.446 9.94898
112.495 14.7819
112.544 24.1658
112.569 32.4388
112.594 45.3679
112.618 66.4302
112.643 100.998
112.672 161.039
112.700 200.917
112.729 161.077
112.757 101.045
112.775 73.9077
112.793 55.0868
112.830 33.0115
112.866 21.6225
112.902 15.1715
112.939 11.2074
112.975 8.62707
113.048 5.58921
113.120 3.94280
113.193 2.95645
113.338 1.88306
113.484 1.34288
113.629 1.03286
113.919 0.707524
114.210 0.547358
114.500 0.455497
115.082 0.356565
116.244 0.271463
117.406 0.230130
122.055 0.153245
126.704 0.114327
131.353 0.0893859
140.650 0.0597073
145.299 0.0511699
147.624 0.0509106
148.205 0.0536725
148.786 0.0629064
149.076 0.0760190
149.222 0.0888936
149.367 0.111687
149.512 0.157709
149.585 0.200572
149.658 0.272672
149.730 0.408047
149.767 0.524612
149.803 0.705712
149.839 1.00712
149.875 1.55544
149.894 2.00894
149.912 2.66884
149.930 3.66265
149.948 5.14184
149.974 8.20064
150.000 10.2398
150.026 8.20198
150.052 5.14346
150.076 3.27291
150.101 2.18746
150.125 1.54401
150.150 1.14270
150.198 0.698550
150.247 0.474927
150.296 0.347919
150.345 0.269256
150.442 0.181275
150.540 0.135781
150.637 0.109305
150.833 0.0812073
151.223 0.0594283
151.613 0.0510814
153.174 0.0412828
156.296 0.0358023
162.539 0.0297264
175.026 0.0219936
200.000 0.0139504
225.787 0.0101246
251.574 0.00840976
277.361 0.00860674
283.808 0.00954807
290.255 0.0123808
293.478 0.0163549
295.090 0.0203361
296.701 0.0276323
298.313 0.0432900
299.119 0.0589280
299.925 0.0874860
300.328 0.111584
300.731 0.148412
301.134 0.208823
301.536 0.318257
301.738 0.409834
301.939 0.548593
302.141 0.773759
302.342 1.17472
302.443 1.50496
302.544 1.99698
302.644 2.77713
302.745 4.12219
302.846 6.74293
302.896 9.09585
302.947 12.9031
302.997 19.6603
303.022 25.1575
303.047 33.1780
303.073 45.5356
303.098 65.5647
303.123 99.8544
303.148 159.733
303.174 255.694
303.200 319.725
303.226 255.714
303.252 159.759
303.279 97.4242
303.305 62.9122
303.332 43.1945
303.358 31.2193
303.385 23.5098
303.411 18.2943
303.464 11.9363
303.517 8.37732
303.570 6.19483
303.676 3.77705
303.782 2.53914
303.888 1.82399
303.994 1.37344
304.100 1.07202
304.312 0.705926
304.524 0.500704
304.735 0.374266
304.947 0.290903
305.371 0.191294
305.795 0.136320
306.219 0.102811
306.643 0.0808906
307.490 0.0549060
308.338 0.0406869
310.033 0.0264712
311.728 0.0198801
313.424 0.0163184
316.814 0.0128520
323.595 0.0106581
330.376 0.0102906
343.938 0.0112931
357.500 0.0139367
371.062 0.0191456
384.624 0.0303004
391.405 0.0411922
398.186 0.0605659
401.576 0.0765748
404.967 0.100940
408.357 0.144482
410.052 0.199642
410.476 0.236293
410.900 0.323233
411.112 0.431034
411.218 0.531716
411.324 0.703999
411.430 1.03884
411.483 1.33984
411.536 1.82849
411.589 2.70090
411.642 4.47012
411.668 6.10565
411.695 8.79244
411.721 13.4800
411.748 21.8677
411.774 34.8910
411.800 43.5820
411.826 34.8944
411.852 21.8730
411.883 12.6129
411.913 7.86799
411.943 5.31056
411.974 3.81914
412.004 2.88629
412.034 2.26849
412.095 1.53158
412.155 1.12808
412.216 0.884591
412.337 0.619659
412.458 0.487269
412.580 0.412781
412.822 0.338547
413.307 0.292405
413.791 0.286805
415.730 0.353369
417.669 0.494779
419.607 0.756984
420.092 0.856419
420.334 0.913783
420.577 0.977161
420.819 1.04748
421.061 1.12572
421.304 1.21315
421.546 1.31127
421.788 1.42193
422.031 1.54725
422.273 1.69008
422.515 1.85366
423.000 2.26155
423.485 2.82100
423.969 3.61787
424.454 4.80773
424.939 6.69807
425.181 8.09058
425.423 9.96598
425.666 12.5763
425.908 16.3559
426.150 22.1206
426.393 31.5159
426.635 48.3048
426.756 62.0766
426.877 82.4126
426.999 114.020
427.120 166.002
427.241 257.024
427.362 421.193
427.481 674.207
427.600 842.839
427.719 673.769
427.838 420.763
427.942 274.008
428.047 185.921
428.151 132.186
428.255 97.9525
428.464 59.2640
428.673 39.4210
428.881 28.0121
429.090 20.8945
429.507 12.8724
429.924 8.70578
430.342 6.27351
430.759 4.73277
431.176 3.69643
432.011 2.43234
432.845 1.72069
433.680 1.28099
434.514 0.990544
436.183 0.642896
437.852 0.450795
439.522 0.333629
441.191 0.256978
444.529 0.166145
447.867 0.116472
451.205 0.0864155
454.543 0.0668850
461.219 0.0439791
467.895 0.0318030
474.572 0.0258242
476.241 0.0259441
477.910 0.0289503
478.744 0.0342369
479.579 0.0500408
479.996 0.0719739
480.205 0.0935489
480.413 0.132125
480.622 0.211497
480.726 0.287001
480.831 0.417492
480.935 0.672264
480.987 0.901936
481.039 1.27494
481.091 1.94050
481.118 2.48493
481.144 3.28365
481.170 4.52307
481.196 6.55208
481.222 10.0743
481.248 16.3358
481.274 26.1402
481.300 32.6828
481.326 26.1416
481.352 16.3375
481.371 11.5731
481.389 8.41138
481.407 6.29976
481.425 4.85621
481.462 3.10427
481.498 2.14068
481.534 1.56014
481.571 1.18751
481.644 0.754772
481.717 0.523342
481.789 0.385939
481.935 0.237746
482.081 0.163899
482.226 0.121874
482.518 0.0783043
482.809 0.0572929
483.101 0.0455491
483.683 0.0334935
484.849 0.0243381
486.014 0.0207513
490.676 0.0159733
500.000 0.0127871
511.237 0.0110978
522.473 0.0108790
528.092 0.0117119
533.710 0.0146771
536.519 0.0189543
537.924 0.0232529
539.328 0.0311290
540.733 0.0480081
541.435 0.0648357
542.138 0.0955134
542.489 0.121352
542.840 0.160772
543.191 0.225316
543.542 0.341838
543.718 0.439047
543.893 0.585984
544.069 0.823349
544.244 1.24349
544.332 1.58728
544.420 2.09701
544.508 2.89904
544.596 4.26445
544.683 6.87710
544.727 9.17756
544.771 12.8331
544.815 19.1185
544.859 31.1390
544.881 41.5999
544.903 57.6198
544.925 83.1622
544.947 124.263
544.973 198.828
545.000 248.546
545.027 198.837
545.053 124.274
545.076 82.7336
545.098 57.0867
545.120 41.0899
545.142 30.7263
545.187 18.8232
545.231 12.6284
545.275 9.02233
545.320 6.75624
545.408 4.18807
545.497 2.84448
545.586 2.05776
545.675 1.55733
545.763 1.22028
545.941 0.807987
546.118 0.575262
546.296 0.431202
546.473 0.335897
546.828 0.221632
547.183 0.158363
547.538 0.119713
547.893 0.0943923
548.603 0.0643397
549.313 0.0478754
550.733 0.0314145
552.153 0.0237961
553.573 0.0196979
556.413 0.0157628
562.093 0.0134650
567.773 0.0134046
579.133 0.0158679
590.492 0.0218219
596.172 0.0271082
601.852 0.0353295
607.532 0.0489841
613.212 0.0740118
616.052 0.0951621
618.892 0.127532
621.731 0.180727
624.571 0.277366
625.991 0.358479
627.411 0.481877
628.121 0.569271
628.831 0.683039
629.186 0.753261
629.541 0.834972
629.896 0.930821
630.251 1.04423
630.606 1.17986
630.784 1.25785
630.961 1.34386
631.316 1.54471
631.671 1.79437
632.026 2.10998
632.381 2.51700
632.736 3.05437
633.091 3.78396
633.446 4.81004
633.801 6.31680
634.156 8.65685
634.511 12.5733
634.689 15.6005
634.866 19.8512
635.044 26.0706
635.221 35.6509
635.399 51.4053
635.576 79.5608
635.665 102.376
635.754 135.169
635.842 183.266
635.931 253.601
636.066 405.564
636.200 506.714
636.335 405.361
636.469 253.403
636.573 173.179
636.678 122.000
636.782 89.1793
636.887 67.4736
637.095 41.9821
637.304 28.4143
637.513 20.4326
637.721 15.3701
638.139 9.57814
638.556 6.52824
638.974 4.73247
639.391 3.58909
639.808 2.81830
640.643 1.88378
641.478 1.38850
641.895 1.26071
642.313 1.26748
642.521 1.40795
642.730 1.87900
642.835 2.50566
642.887 3.08085
642.939 4.02250
642.991 5.71058
643.043 9.13250
643.069 12.2851
643.095 17.4388
643.122 26.3624
643.148 42.1647
643.174 67.0310
643.200 83.5140
643.226 66.9216
643.253 42.1456
643.272 29.6956
643.291 21.5192
643.310 16.1414
643.329 12.5254
643.367 8.17373
643.405 5.80570
643.443 4.39062
643.481 3.48194
643.557 2.42685
643.634 1.85945
643.710 1.51858
643.862 1.14121
644.167 0.820435
644.472 0.676274
645.082 0.529000
645.692 0.443754
646.911 0.336506
648.131 0.267585
650.570 0.182746
653.008 0.133381
657.886 0.0805925
662.764 0.0543527
667.642 0.0394318
672.520 0.0301529
682.276 0.0197215
692.032 0.0143387
701.788 0.0112459
721.299 0.00815100
740.811 0.00695814
760.323 0.00682558
770.079 0.00720575
779.835 0.00831841
784.713 0.00973556
789.590 0.0134994
792.029 0.0185702
793.249 0.0235894
794.468 0.0327273
795.688 0.0522244
796.298 0.0716129
796.907 0.106879
797.212 0.136527
797.517 0.181697
797.822 0.255470
798.127 0.388216
798.279 0.498649
798.432 0.664938
798.584 0.932362
798.737 1.40300
798.813 1.78605
798.889 2.34986
798.965 3.22945
799.041 4.71103
799.118 7.49120
799.156 9.89131
799.194 13.6273
799.232 19.8628
799.270 31.2567
799.289 40.7214
799.308 54.5575
799.327 75.5028
799.346 106.880
799.373 171.026
799.400 213.800
799.427 171.031
799.454 106.887
799.476 71.2375
799.498 49.2746
799.521 35.5326
799.543 26.6076
799.587 16.3147
799.632 10.9512
799.676 7.82673
799.721 5.86580
799.809 3.63833
799.898 2.47197
799.987 1.78864
800.076 1.35381
800.165 1.06086
800.342 0.702409
800.520 0.500022
800.698 0.374720
800.876 0.291817
801.231 0.192392
801.586 0.137359
801.942 0.103741
802.297 0.0817194
803.008 0.0555866
803.719 0.0412802
805.141 0.0269922
806.562 0.0203963
807.984 0.0168596
810.827 0.0134835
816.514 0.0115342
822.201 0.0114685
833.574 0.0136049
839.261 0.0175924
840.683 0.0207216
842.104 0.0288474
842.815 0.0396605
843.526 0.0692977
843.881 0.109102
844.059 0.147778
844.237 0.216310
844.415 0.355645
844.503 0.486881
844.592 0.710828
844.681 1.14092
844.726 1.52061
844.770 2.12612
844.814 3.17598
844.859 5.19803
844.881 6.96917
844.903 9.71969
844.925 14.1650
844.948 21.4353
844.974 34.3034
845.000 42.8892
845.026 34.3044
845.052 21.4366
845.082 12.4124
845.112 7.72845
845.142 5.17968
845.171 3.68347
845.201 2.74317
845.231 2.11817
845.290 1.36963
845.349 0.957788
845.409 0.708110
845.528 0.434274
845.646 0.295634
845.765 0.215993
846.003 0.132846
846.478 0.0701625
846.953 0.0473838
847.903 0.0309011
848.854 0.0252705
850.754 0.0217642
852.655 0.0211704
860.257 0.0246474
867.859 0.0323294
875.462 0.0462617
879.263 0.0577760
883.064 0.0751111
886.865 0.103163
890.666 0.153457
892.567 0.195354
894.468 0.258837
896.368 0.362038
896.843 0.398033
897.319 0.439898
897.794 0.489002
898.269 0.547122
898.744 0.616635
899.219 0.700698
899.694 0.803734
900.169 0.931870
900.645 1.09406
901.120 1.30345
901.595 1.58043
902.070 1.95737
902.545 2.48904
903.020 3.27266
903.495 4.49650
903.971 6.56034
904.208 8.16827
904.446 10.4428
904.683 13.8031
904.921 19.0451
905.158 27.8307
905.396 43.9679
905.515 57.4127
905.634 77.2801
905.752 107.398
905.871 153.048
906.036 244.610
906.200 305.505
906.365 244.207
906.530 152.481
906.725 86.3841
906.919 52.9814
907.114 35.1453
907.309 24.8078
907.503 18.3660
907.698 14.1143
908.087 9.05467
908.476 6.28755
908.866 4.61752
909.644 2.79312
910.422 1.87300
911.201 1.34602
911.979 1.01678
912.758 0.797707
914.315 0.533989
915.872 0.388110
917.429 0.299787
918.986 0.242990
922.099 0.179091
925.213 0.149566
931.441 0.141235
934.555 0.156579
937.669 0.188498
940.783 0.247292
943.897 0.358634
945.454 0.452748
945.843 0.482797
946.232 0.516213
946.621 0.553519
947.010 0.595330
947.400 0.642404
947.789 0.695623
948.178 0.756123
948.567 0.825248
948.957 0.904745
949.346 0.996737
949.735 1.10400
950.124 1.23008
950.903 1.55895
951.681 2.04321
952.460 2.79812
952.849 3.34439
953.238 4.06846
953.628 5.05626
954.017 6.45076
954.406 8.50639
954.795 11.7058
955.184 17.0480
955.574 26.8122
955.768 34.9029
955.963 46.8009
956.157 64.7319
956.352 91.7630
956.626 146.748
956.900 183.355
957.174 146.661
957.448 91.6953
957.754 53.5794
958.059 33.5948
958.365 22.6474
958.670 16.2010
958.976 12.1521
959.282 9.47544
959.893 6.35046
960.504 4.84939
961.115 4.58189
961.421 5.29004
961.574 6.17835
961.726 7.87193
961.879 11.4027
961.956 14.7071
962.032 20.2449
962.108 30.4808
962.147 39.1514
962.185 52.3695
962.223 73.7729
962.242 89.6907
962.261 111.138
962.280 140.691
962.299 182.296
962.319 241.735
962.338 325.658
962.353 416.695
962.369 519.996
962.400 648.880
962.416 610.512
962.431 519.266
962.463 325.031
962.499 185.548
962.536 114.692
962.573 76.7330
962.609 54.7268
962.646 40.9471
962.683 31.8527
962.756 20.9819
962.829 15.0067
962.903 11.3879
963.049 7.40003
963.196 5.35486
963.343 4.15906
963.636 2.86436
963.929 2.19413
964.222 1.78838
964.809 1.31808
965.982 0.868740
967.155 0.640552
969.501 0.402885
971.847 0.280944
974.193 0.208404
976.539 0.161358
981.231 0.105695
985.924 0.0750876
990.616 0.0563972
1000.00 0.0356082
1010.61 0.0238692
1021.21 0.0174188
1031.82 0.0135498
1042.42 0.0111596
1053.03 0.00984172
1063.63 0.00991013
1068.93 0.0112717
1074.24 0.0161138
1076.89 0.0232497
1078.21 0.0304894
1079.54 0.0438069
1080.86 0.0724408
1081.53 0.101003
1082.19 0.152931
1082.52 0.196733
1082.85 0.263275
1083.18 0.372299
1083.52 0.567930
1083.68 0.731008
1083.85 0.976832
1084.01 1.37243
1084.18 2.06359
1084.26 2.62785
1084.34 3.45933
1084.43 4.75655
1084.51 6.90681
1084.59 10.9709
1084.63 14.5234
1084.68 19.9075
1084.72 29.0883
1084.76 45.3559
1084.78 59.0432
1084.80 77.9563
1084.82 107.412
1084.84 148.843
1084.87 236.991
1084.90 295.283
1084.93 233.865
1084.96 146.408
1085.00 82.6863
1085.03 51.2552
1085.07 34.2556
1085.10 24.3077
1085.14 17.9246
1085.17 13.8261
1085.24 8.91392
1085.31 6.17914
1085.38 4.54828
1085.52 2.75575
1085.67 1.84136
1085.81 1.31985
1085.95 0.990672
1086.09 0.772534
1086.37 0.506822
1086.65 0.359026
1086.93 0.268150
1087.21 0.208320
1087.77 0.136839
1088.34 0.0975277
1089.46 0.0579127
1090.59 0.0393253
1091.71 0.0291479
1093.96 0.0189250
1098.46 0.0115074
1102.96 0.00887225
1111.95 0.00721604
1116.45 0.00795686
1118.70 0.0122371
1119.82 0.0289042
1120.11 0.0452860
1120.39 0.0888666
1120.53 0.144788
1120.67 0.282410
1120.74 0.445911
1120.81 0.798950
1120.84 1.15280
1120.88 1.78892
1120.91 3.05672
1120.93 4.20217
1120.95 5.79429
1120.97 9.25366
1121.00 11.5544
1121.03 9.25387
1121.05 5.79455
1121.07 4.05099
1121.09 2.95601
1121.13 1.69399
1121.16 1.07777
1121.20 0.740869
1121.27 0.409637
1121.35 0.259681
1121.50 0.132398
1121.64 0.0816316
1121.94 0.0417706
1122.23 0.0268081
1123.41 0.0115557
1125.78 0.00751710
1130.50 0.00652178
1135.22 0.00658350
1137.59 0.00724243
1138.77 0.00962484
1139.36 0.0181331
1139.65 0.0457895
1139.80 0.120884
1139.88 0.270520
1139.91 0.469650
1139.95 0.901141
1140.00 1.79515
1140.05 0.901186
1140.09 0.461978
1140.13 0.270559
1140.20 0.122004
1140.34 0.0465032
1140.64 0.0184120
1141.22 0.00979717
1142.39 0.00745973
1144.72 0.00697163
1149.39 0.00719610
1158.73 0.00841606
1168.07 0.0107021
1177.40 0.0150937
1182.07 0.0188766
1186.74 0.0247225
1191.41 0.0344098
1196.08 0.0521534
1198.41 0.0671552
1200.75 0.0901082
1203.08 0.127841
1205.42 0.196334
1206.58 0.253833
1207.75 0.341166
1208.92 0.483322
1210.08 0.737979
1210.38 0.833497
1210.67 0.948883
1210.96 1.09005
1211.25 1.26461
1211.54 1.48561
1211.69 1.61849
1211.84 1.77004
1211.98 1.94390
1212.13 2.14466
1212.27 2.37816
1212.42 2.64988
1212.71 3.35949
1213.00 4.39610
1213.29 5.99456
1213.44 7.13939
1213.59 8.63082
1213.73 10.6527
1213.88 13.4642
1214.02 17.5257
1214.17 23.6751
1214.32 33.5460
1214.46 50.5720
1214.53 63.8844
1214.61 82.4322
1214.68 108.606
1214.75 144.709
1214.88 231.518
1215.00 289.362
1215.12 231.462
1215.25 144.655
1215.39 82.3928
1215.54 50.6981
1215.68 33.6971
1215.83 23.8671
1215.97 17.6797
1216.12 13.6121
1216.41 8.73968
1216.69 6.06915
1216.98 4.45429
1217.56 2.68727
1218.14 1.79452
1218.72 1.28233
1219.30 0.961721
1219.87 0.747900
1221.03 0.489280
1222.19 0.345078
1223.34 0.256498
1224.50 0.198225
1226.81 0.128741
1229.12 0.0905092
1231.44 0.0672383
1233.75 0.0520430
1238.37 0.0340527
1243.00 0.0242185
1247.62 0.0182646
1252.25 0.0143912
1261.50 0.00982988
1270.75 0.00736232
1289.25 0.00498118
1307.74 0.00407171
1326.24 0.00409839
1335.49 0.00473762
1344.74 0.00687245
1349.37 0.00993235
1353.99 0.0186608
1356.31 0.0308073
1357.46 0.0429478
1358.62 0.0651508
1359.77 0.112622
1360.35 0.159825
1360.93 0.245606
1361.22 0.317606
1361.51 0.427121
1361.80 0.605559
1362.09 0.925637
1362.23 1.19189
1362.37 1.58888
1362.52 2.22890
1362.66 3.33974
1362.81 5.56488
1362.88 7.59572
1362.95 10.9668
1363.03 17.2728
1363.06 22.5488
1363.10 30.5822
1363.13 43.5794
1363.17 66.2607
1363.21 109.471
1363.22 145.604
1363.24 197.024
1363.27 318.217
1363.30 395.768
1363.33 313.905
1363.36 197.030
1363.38 143.243
1363.40 107.827
1363.43 65.4315
1363.47 43.1234
1363.50 30.3103
1363.54 22.2008
1363.58 17.0384
1363.65 10.9085
1363.72 7.52758
1363.79 5.52255
1363.94 3.33093
1364.08 2.21889
1364.23 1.58658
1364.37 1.18843
1364.52 0.924980
1364.81 0.604671
1365.10 0.426791
1365.38 0.317549
1365.67 0.245695
1366.25 0.159941
1366.83 0.112835
1367.99 0.0654132
1369.14 0.0432455
1370.30 0.0311380
1372.61 0.0190678
1377.24 0.0105018
1381.87 0.00764931
1386.50 0.00651689
1391.12 0.00613685
1400.38 0.00667361
1409.63 0.00916246
1414.26 0.0119054
1418.88 0.0170464
1421.20 0.0214339
1423.51 0.0281837
1425.83 0.0393454
1428.14 0.0597620
1429.30 0.0770221
1430.45 0.103455
1431.61 0.146932
1432.77 0.225923
1433.34 0.292400
1433.92 0.393440
1434.50 0.558612
1435.08 0.855039
1435.37 1.10209
1435.66 1.47273
1435.95 2.06768
1436.09 2.51214
1436.24 3.11193
1436.38 3.96175
1436.45 4.51890
1436.53 5.20195
1436.60 6.06494
1436.67 7.14372
1436.74 8.53602
1436.81 10.3750
1436.89 12.9127
1436.96 16.4356
1437.03 21.5919
1437.10 29.5385
1437.18 42.8530
1437.21 52.8199
1437.25 66.4591
1437.28 85.6211
1437.32 113.252
1437.36 153.885
1437.39 213.449
1437.45 340.564
1437.50 424.906
1437.56 338.030
1437.61 211.464
1437.65 142.172
1437.70 98.8856
1437.74 71.6036
1437.78 54.1148
1437.87 33.3104
1437.96 22.4848
1438.05 16.0843
1438.13 12.0902
1438.31 7.52658
1438.48 5.11522
1438.66 3.70531
1438.83 2.80215
1439.01 2.19567
1439.36 1.45053
1439.70 1.02924
1440.05 0.768183
1440.40 0.595349
1441.10 0.387992
1441.80 0.273113
1442.50 0.202924
1443.19 0.156943
1444.59 0.102407
1445.99 0.0726025
1447.38 0.0546538
1448.78 0.0431392
1451.57 0.0304229
1454.36 0.0264789
1455.76 0.0290323
1457.16 0.0414221
1457.85 0.0603831
1458.55 0.114612
1458.90 0.188401
1459.08 0.260571
1459.25 0.387790
1459.42 0.647891
1459.51 0.891099
1459.60 1.30522
1459.69 2.10832
1459.73 2.81955
1459.77 3.92334
1459.82 5.86644
1459.86 9.49276
1459.88 12.7062
1459.90 17.6707
1459.93 25.6296
1459.95 37.7626
1459.97 60.7812
1460.00 75.3378
1460.03 59.8752
1460.05 37.7638
1460.08 25.1788
1460.10 17.3930
1460.12 12.5298
1460.14 9.37606
1460.19 5.75053
1460.23 3.85900
1460.27 2.76046
1460.32 2.06981
1460.40 1.29232
1460.49 0.879979
1460.58 0.638475
1460.76 0.382730
1460.93 0.255942
1461.11 0.184719
1461.46 0.111204
1462.16 0.0561831
1462.86 0.0361125
1464.26 0.0210295
1465.67 0.0152863
1468.47 0.0105663
1471.28 0.00848172
1476.89 0.00648063
1482.50 0.00550618
1493.73 0.00472129
1499.34 0.00491889
1502.14 0.00627372
1503.55 0.0115651
1504.25 0.0309668
1504.60 0.0964537
1504.77 0.283188
1504.86 0.690526
1504.91 1.29193
1504.93 1.88306
1504.95 2.79207
1504.97 4.45623
1505.00 5.56220
1505.03 4.45630
1505.05 2.79216
1505.07 1.84946
1505.10 1.27141
1505.14 0.690592
1505.23 0.285582
1505.40 0.0978532
1505.75 0.0314952
1506.44 0.0117448
1507.83 0.00638457
1510.60 0.00508745
1516.15 0.00532000
1521.70 0.00834544
1523.09 0.0114528
1524.47 0.0201701
1525.17 0.0321388
1525.86 0.0652671
1526.21 0.109967
1526.55 0.230442
1526.73 0.387564
1526.82 0.535621
1526.90 0.784962
1526.99 1.26723
1527.03 1.68713
1527.07 2.35224
1527.12 3.52629
1527.16 5.72620
1527.18 7.68329
1527.20 10.5473
1527.23 15.3249
1527.25 22.6394
1527.27 36.6209
1527.30 45.5340
1527.33 36.0680
1527.35 22.6402
1527.37 16.7788
1527.39 12.6466
1527.42 7.68387
1527.45 5.06696
1527.48 3.59921
1527.51 2.65432
1527.54 2.04980
1527.61 1.31608
1527.67 0.909829
1527.73 0.669116
1527.86 0.405610
1528.11 0.195477
1528.36 0.115919
1528.87 0.0558080
1529.37 0.0338870
1530.39 0.0178165
1531.40 0.0121030
1535.44 0.00661842
1539.48 0.00573894
1543.52 0.00557752
1559.69 0.00644564
1575.85 0.00854241
1592.02 0.0125701
1600.10 0.0160068
1608.18 0.0212794
1616.27 0.0299489
1624.35 0.0456903
1628.39 0.0588919
1632.43 0.0789514
1636.47 0.111618
1640.52 0.170157
1642.54 0.218640
1643.55 0.251122
1644.56 0.291417
1645.06 0.315370
1645.57 0.342355
1646.07 0.372969
1646.58 0.407893
1647.08 0.447972
1647.59 0.494273
1648.09 0.548149
1648.60 0.611344
1649.10 0.686292
1649.61 0.775711
1650.62 1.01606
1651.12 1.18031
1651.63 1.38764
1652.13 1.65443
1652.64 2.00552
1653.15 2.48117
1653.65 3.14402
1654.16 4.10643
1654.66 5.57361
1655.17 7.95155
1655.67 12.1118
1655.92 15.4184
1656.18 20.0671
1656.43 26.7578
1656.68 36.2647
1657.09 58.0979
1657.50 72.6705
1657.91 58.0617
1658.32 36.2297
1658.77 21.3677
1659.21 13.4729
1659.66 9.10145
1660.11 6.50409
1660.56 4.85783
1661.00 3.75681
1661.90 2.43004
1662.79 1.69570
1663.68 1.24879
1665.47 0.757084
1667.26 0.507172
1669.05 0.363415
1670.83 0.273208
1672.62 0.213020
1676.20 0.140229
1679.77 0.0997309
1683.35 0.0750623
1686.92 0.0591378
1694.07 0.0416244
1701.22 0.0369833
1704.80 0.0419385
1706.59 0.0490297
1708.37 0.0634410
1710.16 0.0960294
1711.06 0.129155
1711.95 0.189887
1712.40 0.241204
1712.84 0.319564
1713.29 0.447772
1713.74 0.678926
1713.96 0.871835
1714.18 1.16146
1714.41 1.62997
1714.63 2.45216
1714.74 3.12425
1714.85 4.11702
1714.97 5.67092
1715.02 6.79964
1715.08 8.26939
1715.13 10.3116
1715.19 13.2061
1715.22 15.1271
1715.25 17.4928
1715.27 20.4489
1715.30 24.0533
1715.33 28.8684
1715.36 35.2323
1715.38 43.8517
1715.41 55.8547
1715.44 73.0903
1715.47 98.6314
1715.50 137.458
1715.52 193.916
1715.56 311.249
1715.60 386.552
1715.62 362.266
1715.64 308.036
1715.68 193.903
1715.70 137.446
1715.73 99.7431
1715.76 74.5844
1715.78 57.9337
1715.84 36.8531
1715.89 25.4588
1715.95 18.4673
1716.00 14.0463
1716.10 8.88570
1716.21 6.09506
1716.32 4.44902
1716.42 3.38134
1716.53 2.66241
1716.74 1.77131
1716.96 1.26416
1717.17 0.948431
1717.38 0.738679
1717.81 0.486094
1718.23 0.345585
1718.66 0.259442
1719.09 0.202827
1719.94 0.135283
1720.79 0.0980829
1721.64 0.0753600
1722.50 0.0604314
1724.20 0.0425577
1725.90 0.0325901
1729.31 0.0222365
1732.72 0.0171023
1736.13 0.0142146
1739.54 0.0133021
1741.24 0.0169679
1742.10 0.0332216
1742.52 0.0905224
1742.73 0.263419
1742.84 0.674282
1742.89 1.34209
1742.92 2.08377
1742.95 3.42071
1742.97 5.47318
1743.00 6.82669
1743.03 5.47324
1743.05 3.42078
1743.09 1.78620
1743.12 1.05173
1743.19 0.475422
1743.33 0.173829
1743.61 0.0590052
1744.18 0.0232471
1745.30 0.0129713
1747.55 0.00969734
1752.04 0.00796517
1761.03 0.00631257
1779.00 0.00458718
1796.97 0.00384278
1801.47 0.00389021
1805.96 0.00435820
1810.45 0.00752029
1812.70 0.0202893
1813.26 0.0332251
1813.82 0.0688193
1814.11 0.116457
1814.39 0.243130
1814.53 0.405627
1814.67 0.805384
1814.74 1.27076
1814.81 2.28207
1814.84 3.29175
1814.88 5.09921
1814.91 8.67996
1814.93 11.8988
1814.95 16.4848
1814.97 26.4944
1815.00 32.9673
1815.03 26.4948
1815.05 16.4853
1815.08 10.8715
1815.10 7.37570
1815.12 5.24241
1815.14 3.93166
1815.19 2.39623
1815.23 1.60159
1815.32 0.849556
1815.41 0.526713
1815.60 0.258644
1815.78 0.154161
1816.14 0.0735130
1816.50 0.0436247
1817.22 0.0214507
1817.94 0.0134704
1820.83 0.00555226
1826.61 0.00343763
1838.17 0.00276832
1861.29 0.00249963
1884.41 0.00257072
1907.53 0.00297192
1930.65 0.00397093
1942.20 0.00492834
1953.76 0.00651629
1965.32 0.00937653
1976.88 0.0152588
1982.66 0.0208441
1988.44 0.0304785
1994.22 0.0493172
1997.11 0.0664073
2000.00 0.0946930
2002.09 0.128951
2004.17 0.188903
2005.22 0.240561
2006.26 0.332218
2006.78 0.420886
2007.30 0.613404
2007.56 0.840097
2007.69 1.04917
2007.82 1.40301
2007.96 2.09931
2008.02 2.72805
2008.09 3.76535
2008.15 5.65771
2008.18 7.27633
2008.22 9.65266
2008.25 13.5944
2008.28 20.1979
2008.31 33.0161
2008.35 58.2453
2008.37 93.2749
2008.40 116.065
2008.43 93.2829
2008.45 58.2608
2008.48 37.7366
2008.50 25.3677
2008.53 17.9722
2008.55 13.4827
2008.60 8.31623
2008.65 5.68360
2008.70 4.15545
2008.75 3.22971
2008.85 2.19395
2008.95 1.66037
2009.05 1.36019
2009.24 1.05897
2009.44 0.933612
2009.64 0.884758
2010.03 0.893020
2010.42 0.977558
2010.62 1.04107
2010.82 1.11848
2011.21 1.31995
2011.61 1.59955
2012.00 1.99376
2012.39 2.56486
2012.79 3.42943
2013.18 4.81511
2013.38 5.84555
2013.57 7.23835
2013.77 9.17822
2013.97 11.9773
2014.17 16.1866
2014.36 22.8156
2014.56 33.7285
2014.76 51.8539
2014.98 83.0452
2015.20 103.710
2015.42 82.8724
2015.65 51.8300
2015.86 32.4609
2016.07 21.4155
2016.29 14.9014
2016.50 10.8870
2016.71 8.25359
2016.93 6.46193
2017.35 4.24850
2017.78 2.99663
2018.21 2.22357
2019.06 1.36101
2019.92 0.917194
2020.77 0.659558
2021.62 0.496958
2022.48 0.387848
2024.19 0.255113
2025.89 0.180535
2027.60 0.134512
2029.31 0.104144
2032.72 0.0677856
2036.14 0.0476934
2039.56 0.0354350
2042.97 0.0274126
2049.80 0.0178950
2056.63 0.0126853
2063.47 0.00953177
2070.30 0.00748553
2083.96 0.00511369
2097.62 0.00397082
2104.45 0.00378002
2111.28 0.00414874
2118.12 0.00771064
2119.82 0.0115954
2121.53 0.0226760
2122.39 0.0380035
2123.24 0.0808076
2123.67 0.138930
2124.09 0.297197
2124.31 0.506139
2124.41 0.705231
2124.52 1.04567
2124.63 1.71614
2124.68 2.31391
2124.73 3.28326
2124.79 5.04504
2124.81 6.49380
2124.84 8.54269
2124.87 11.8239
2124.89 16.9639
2124.92 26.1702
2124.95 41.9171
2124.97 67.0357
2125.00 83.8728
2125.03 67.0364
2125.05 41.9180
2125.07 29.5759
2125.09 21.4193
2125.11 15.7623
2125.13 12.1357
2125.17 7.65706
2125.21 5.22826
2125.25 3.78215
2125.29 2.85730
2125.37 1.79075
2125.44 1.22481
2125.52 0.889773
2125.68 0.530210
2125.83 0.351767
2125.99 0.250533
2126.30 0.146167
2126.92 0.0680515
2127.55 0.0398275
2128.79 0.0191898
2130.04 0.0118313
2135.03 0.00456582
2145.00 0.00266323
2154.97 0.00278599
2159.96 0.00508666
2162.45 0.0145399
2163.70 0.0507426
2164.01 0.0865108
2164.32 0.181876
2164.48 0.304918
2164.64 0.614028
2164.71 0.981127
2164.79 1.80091
2164.83 2.64520
2164.87 4.21221
2164.89 5.57118
2164.91 7.49556
2164.93 10.4127
2164.95 14.9563
2164.97 24.0245
2165.00 29.8830
2165.03 24.0248
2165.05 14.9283
2165.08 8.42994
2165.12 5.10606
2165.15 3.35858
2165.18 2.35684
2165.24 1.33117
2165.31 0.850145
2165.44 0.431231
2165.56 0.259896
2165.82 0.124416
2166.08 0.0732294
2166.59 0.0345622
2167.10 0.0205055
2169.14 0.00648777
2173.23 0.00282707
2181.41 0.00182566
2197.77 0.00149551
2230.49 0.00148855
2246.86 0.00172653
2263.22 0.00249458
2271.40 0.00358255
2279.58 0.00667655
2283.67 0.0109833
2287.76 0.0232023
2289.80 0.0401700
2290.82 0.0571245
2291.85 0.0880560
2292.87 0.154098
2293.38 0.219528
2293.89 0.338028
2294.15 0.437381
2294.40 0.588125
2294.66 0.832899
2294.91 1.26744
2295.04 1.62645
2295.17 2.16252
2295.30 3.01415
2295.42 4.47112
2295.55 7.33121
2295.62 9.90568
2295.68 14.0938
2295.74 21.5480
2295.78 27.6393
2295.81 36.6080
2295.84 50.4640
2295.87 73.1026
2295.90 112.279
2295.94 180.508
2295.97 289.722
2296.00 361.045
2296.03 289.722
2296.06 180.510
2296.08 133.905
2296.10 100.286
2296.14 61.0300
2296.18 39.8924
2296.22 28.1030
2296.26 20.6303
2296.30 15.8505
2296.38 10.1630
2296.46 7.02211
2296.54 5.15452
2296.69 3.10191
2296.85 2.06827
2297.01 1.47645
2297.16 1.10649
2297.32 0.859992
2297.64 0.561620
2297.95 0.395873
2298.58 0.227143
2299.21 0.147257
2299.84 0.103366
2301.09 0.0592011
2302.35 0.0385246
2303.60 0.0272297
2306.12 0.0159330
2311.14 0.00782887
2316.17 0.00499988
2326.22 0.00302857
2336.27 0.00241202
2356.38 0.00220362
2376.48 0.00255856
2396.59 0.00352078
2406.64 0.00445189
2416.69 0.00605793
2426.74 0.00925997
2431.77 0.0122954
2436.79 0.0176560
2441.82 0.0287977
2444.33 0.0397324
2446.85 0.0595335
2449.36 0.101596
2450.62 0.143358
2451.87 0.219223
2452.50 0.283105
2453.13 0.380330
2453.76 0.539223
2454.39 0.825603
2454.70 1.06494
2455.01 1.42522
2455.33 2.00603
2455.64 3.03186
2455.80 3.86853
2455.96 5.10566
2456.11 7.04495
2456.27 10.3339
2456.43 16.5712
2456.51 22.0592
2456.58 30.5919
2456.66 45.2691
2456.74 72.4280
2456.78 96.1560
2456.82 131.116
2456.86 185.325
2456.90 269.755
2456.95 431.678
2457.00 539.649
2457.05 431.666
2457.10 269.750
2457.15 173.720
2457.19 116.827
2457.24 82.5306
2457.29 60.8734
2457.38 36.6172
2457.47 24.2694
2457.56 17.2090
2457.65 12.8169
2457.84 7.88280
2458.02 5.32808
2458.21 3.83930
2458.39 2.89728
2458.57 2.26687
2458.94 1.49384
2459.31 1.05992
2459.68 0.791087
2460.04 0.614006
2460.78 0.401533
2461.51 0.284363
2462.25 0.212957
2462.98 0.166306
2464.46 0.111211
2465.93 0.0814062
2468.87 0.0525335
2471.81 0.0404766
2474.75 0.0355895
2480.63 0.0371226
2483.57 0.0428388
2486.51 0.0532456
2489.45 0.0715963
2492.39 0.105826
2493.86 0.134719
2495.33 0.178546
2496.80 0.249570
2498.27 0.375457
2499.01 0.478626
2499.38 0.547162
2499.74 0.631443
2500.11 0.737287
2500.48 0.871892
2500.85 1.04769
2501.21 1.28185
2501.58 1.60509
2501.95 2.06566
2502.32 2.75705
2502.68 3.85283
2502.87 4.66023
2503.05 5.74280
2503.24 7.23568
2503.42 9.34896
2503.60 12.4885
2503.79 17.3248
2503.97 25.0574
2504.15 37.4543
2504.38 59.9485
2504.60 74.9497
2504.82 59.9353
2505.05 37.4415
2505.24 24.5757
2505.43 16.8034
2505.62 11.9951
2505.81 8.92814
2506.20 5.42999
2506.58 3.62741
2506.96 2.58410
2507.34 1.93265
2508.11 1.19523
2508.87 0.811331
2509.64 0.586880
2510.40 0.444585
2511.17 0.348839
2512.70 0.232220
2514.23 0.166901
2515.76 0.127065
2517.29 0.101504
2520.35 0.0746061
2521.88 0.0699964
2523.41 0.0723943
2524.94 0.0881261
2525.70 0.107302
2526.47 0.144558
2527.23 0.226324
2527.62 0.308050
2528.00 0.455329
2528.38 0.763275
2528.57 1.05976
2528.76 1.57973
2528.95 2.62646
2529.05 3.59641
2529.15 5.20231
2529.24 8.21883
2529.29 10.8039
2529.34 14.6927
2529.38 21.2088
2529.43 32.8891
2529.48 56.0631
2529.50 76.2083
2529.53 105.631
2529.56 169.029
2529.60 211.112
2529.64 169.028
2529.67 105.484
2529.70 68.6005
2529.74 46.9155
2529.77 33.2227
2529.80 24.7643
2529.86 15.0081
2529.92 9.99627
2529.99 7.11411
2530.05 5.31423
2530.18 3.29597
2530.30 2.23660
2530.43 1.62213
2530.55 1.22912
2530.68 0.966524
2530.93 0.644274
2531.18 0.462450
2531.68 0.275301
2532.18 0.185562
2532.69 0.135735
2533.69 0.0847773
2535.70 0.0464008
2537.71 0.0317275
2539.72 0.0242046
2541.73 0.0196399
2545.74 0.0143225
2553.78 0.00926550
2561.82 0.00678352
2577.89 0.00437470
2593.96 0.00328518
2610.03 0.00276295
2626.10 0.00260027
2642.17 0.00300342
2650.21 0.00469733
2654.23 0.0110766
2656.24 0.0355646
2656.74 0.0601034
2657.24 0.127278
2657.49 0.216304
2657.74 0.449953
2657.87 0.744938
2657.99 1.45260
2658.06 2.26092
2658.12 3.96131
2658.15 5.63026
2658.18 8.40173
2658.21 13.4899
2658.25 23.4157
2658.27 37.6555
2658.30 46.8297
2658.33 37.6558
2658.35 23.4161
2658.37 16.5484
2658.39 11.8483
2658.41 8.76615
2658.43 6.77755
2658.47 4.25872
2658.51 2.92564
2658.59 1.60089
2658.67 1.00967
2658.83 0.503772
2658.98 0.301219
2659.30 0.143315
2659.61 0.0841663
2660.24 0.0399995
2660.87 0.0240544
2663.38 0.00832251
2668.41 0.00447475
2673.44 0.00398639
2678.47 0.00407428
2688.52 0.00497698
2698.58 0.00696943
2703.61 0.00871225
2708.63 0.0114112
2713.66 0.0158836
2718.69 0.0240680
2721.20 0.0309790
2723.72 0.0415478
2726.23 0.0588936
2728.74 0.0903398
2730.00 0.116671
2731.26 0.156626
2732.52 0.221520
2733.77 0.337393
2734.40 0.433032
2735.03 0.575754
2735.34 0.675519
2735.66 0.803175
2735.82 0.881004
2735.97 0.970699
2736.29 1.19652
2736.44 1.34110
2736.60 1.51224
2736.76 1.71820
2736.92 1.96902
2737.07 2.27863
2737.23 2.66679
2737.39 3.16215
2737.54 3.80757
2737.70 4.66923
2737.86 5.85336
2738.01 7.53815
2738.17 10.0382
2738.33 13.9420
2738.49 20.4168
2738.64 31.8663
2738.72 40.8609
2738.80 52.8204
2738.95 84.6212
2739.10 105.629
2739.25 84.3855
2739.40 52.8095
2739.57 31.1873
2739.73 19.6796
2739.89 13.3005
2740.06 9.50777
2740.22 7.10280
2740.39 5.49386
2740.71 3.55441
2741.04 2.48063
2741.37 1.82695
2742.02 1.10803
2742.68 0.742007
2743.34 0.531284
2743.99 0.399067
2744.65 0.310844
2745.96 0.203825
2747.27 0.144024
2748.58 0.107216
2749.89 0.0830010
2752.52 0.0541022
2755.14 0.0381874
2757.76 0.0285080
2760.39 0.0221925
2765.63 0.0147464
2770.88 0.0107238
2776.12 0.00835056
2781.37 0.00689014
2791.86 0.00555587
2797.11 0.00552991
2802.35 0.00609937
2807.60 0.00790887
2812.84 0.0136906
2815.47 0.0219529
2818.09 0.0454991
2819.40 0.0781475
2820.06 0.110653
2820.71 0.169665
2821.37 0.294834
2821.70 0.418045
2822.02 0.638463
2822.19 0.821665
2822.35 1.09703
2822.52 1.53844
2822.68 2.31163
2822.84 3.85408
2822.93 5.27577
2823.01 7.64876
2823.09 12.0398
2823.13 15.7751
2823.17 21.5017
2823.21 30.8553
2823.25 47.4028
2823.30 79.5683
2823.32 106.171
2823.34 145.824
2823.37 233.651
2823.40 291.436
2823.43 233.651
2823.46 145.598
2823.49 103.054
2823.51 75.3192
2823.53 55.9599
2823.55 43.3209
2823.60 27.5898
2823.64 18.9534
2823.69 13.7684
2823.73 10.4328
2823.82 6.59446
2823.91 4.51720
2824.00 3.29503
2824.09 2.50123
2824.18 1.96788
2824.36 1.30366
2824.54 0.928411
2824.90 0.539565
2825.26 0.352296
2825.62 0.248521
2826.33 0.143155
2827.05 0.0933966
2827.77 0.0660659
2829.20 0.0386440
2832.07 0.0188703
2834.93 0.0119638
2840.67 0.00729044
2846.40 0.00627560
2852.13 0.00717455
2857.87 0.0117151
2860.74 0.0185315
2863.60 0.0381513
2865.04 0.0654423
2865.75 0.0926511
2866.47 0.142117
2867.19 0.247216
2867.54 0.350678
2867.90 0.536747
2868.26 0.925520
2868.44 1.30023
2868.62 1.95892
2868.71 2.49714
2868.80 3.28039
2868.89 4.51461
2868.98 6.56557
2869.07 10.4473
2869.11 13.7984
2869.16 18.8685
2869.20 27.4631
2869.25 43.1120
2869.27 56.3662
2869.29 74.9193
2869.31 102.462
2869.34 144.441
2869.37 231.830
2869.40 288.898
2869.43 231.830
2869.46 144.443
2869.49 103.998
2869.51 76.9947
2869.53 57.7772
2869.55 45.0803
2869.59 29.0246
2869.64 20.0804
2869.68 14.6582
2869.72 11.1463
2869.81 7.07983
2869.89 4.86396
2869.98 3.54344
2870.15 2.12333
2870.32 1.40932
2870.49 1.00494
2870.67 0.751506
2870.84 0.584053
2871.18 0.381637
2871.52 0.269035
2872.21 0.154811
2872.89 0.100818
2873.58 0.0711756
2874.95 0.0413628
2877.69 0.0198387
2880.43 0.0122841
2885.92 0.00705715
2891.40 0.00567136
2896.89 0.00602280
2902.37 0.00916915
2905.11 0.0140943
2907.86 0.0284035
2909.23 0.0483515
2910.60 0.104491
2911.28 0.181501
2911.63 0.257488
2911.97 0.393805
2912.31 0.678565
2912.48 0.954955
2912.65 1.43872
2912.74 1.83421
2912.83 2.41789
2912.91 3.33042
2913.00 4.84836
2913.08 7.72976
2913.13 10.2240
2913.17 14.0032
2913.21 20.4396
2913.25 32.2273
2913.28 42.2830
2913.30 56.4085
2913.32 77.5124
2913.34 109.953
2913.37 176.510
2913.40 219.914
2913.43 176.511
2913.46 109.955
2913.49 69.5024
2913.52 46.3959
2913.55 32.2287
2913.57 23.7201
2913.63 14.1180
2913.69 9.35833
2913.74 6.59996
2913.80 4.89638
2913.91 3.00717
2914.03 2.02432
2914.14 1.45836
2914.37 0.859557
2914.59 0.565261
2914.82 0.399992
2915.27 0.231024
2915.73 0.150463
2916.18 0.106051
2917.09 0.0611583
2918.90 0.0285341
2920.72 0.0169479
2924.34 0.00857403
2927.97 0.00560514
2942.48 0.00271845
2956.99 0.00227551
2971.50 0.00230812
2986.02 0.00263375
3000.53 0.00337324
3007.78 0.00403930
3015.04 0.00511864
3022.29 0.00723502
3025.92 0.0102081
3027.73 0.0173881
3028.64 0.0414813
3029.09 0.124034
3029.32 0.377092
3029.43 0.986831
3029.49 2.03441
3029.52 3.19268
3029.55 5.41742
3029.57 8.67931
3029.60 10.8199
3029.63 8.67941
3029.65 5.41758
3029.68 3.42495
3029.70 2.26215
3029.75 1.15540
3029.85 0.460385
3030.05 0.155140
3030.45 0.0518644
3031.24 0.0221857
3032.82 0.0153960
3035.99 0.0171131
3039.16 0.0230163
3042.33 0.0343355
3043.92 0.0439509
3045.51 0.0586580
3047.09 0.0827983
3048.68 0.126564
3049.47 0.163244
3050.26 0.218934
3051.05 0.309456
3051.85 0.471010
3052.24 0.604702
3052.64 0.804246
3053.04 1.12198
3053.23 1.35658
3053.43 1.67315
3053.63 2.11729
3053.83 2.76000
3053.93 3.19635
3054.03 3.74411
3054.13 4.44429
3054.22 5.35832
3054.32 6.58149
3054.42 8.26740
3054.52 10.6752
3054.62 14.2660
3054.72 19.9108
3054.82 29.3617
3054.87 36.6267
3054.92 46.2967
3054.97 59.8183
3055.02 77.8189
3055.11 124.304
3055.20 155.206
3055.29 123.757
3055.39 77.3900
3055.46 52.5135
3055.53 36.7904
3055.60 26.7836
3055.68 20.2725
3055.82 12.5897
3055.97 8.51179
3056.11 6.10386
3056.26 4.59074
3056.55 2.86019
3056.84 1.94659
3057.13 1.41064
3057.42 1.06886
3057.71 0.837784
3058.29 0.554184
3058.87 0.393802
3059.45 0.294405
3060.03 0.228689
3061.19 0.149693
3062.35 0.105972
3063.52 0.0792439
3064.68 0.0617600
3067.00 0.0410368
3069.32 0.0297366
3071.65 0.0229443
3073.97 0.0185830
3078.61 0.0136125
3083.26 0.0111564
3092.55 0.00953733
3101.84 0.0103734
3111.13 0.0141340
3115.78 0.0187040
3120.42 0.0297332
3122.75 0.0435604
3125.07 0.0803747
3126.23 0.129741
3126.81 0.178189
3127.39 0.265204
3127.97 0.447447
3128.26 0.624297
3128.55 0.937605
3128.70 1.19613
3128.85 1.57769
3128.99 2.17900
3129.14 3.20680
3129.28 5.17991
3129.35 6.94002
3129.43 9.71174
3129.50 14.5822
3129.57 23.8728
3129.61 32.2833
3129.64 45.0720
3129.68 65.7743
3129.72 100.316
3129.76 160.886
3129.80 200.636
3129.84 160.884
3129.88 100.316
3129.92 70.3474
3129.95 50.3505
3129.98 37.2502
3130.01 28.6706
3130.07 18.1581
3130.13 12.4338
3130.19 9.01525
3130.25 6.82392
3130.37 4.29095
3130.50 2.93551
3130.62 2.13989
3130.74 1.63012
3130.86 1.28427
3131.11 0.857640
3131.35 0.616652
3131.84 0.367624
3132.33 0.248301
3132.82 0.182426
3133.79 0.116586
3135.75 0.0711824
3137.70 0.0585268
3141.61 0.0602504
3145.52 0.0817718
3147.48 0.102222
3149.43 0.134050
3151.39 0.186111
3153.34 0.278618
3154.32 0.354307
3154.81 0.404505
3155.30 0.466183
3155.78 0.543446
3156.27 0.641541
3156.52 0.701157
3156.76 0.769202
3157.25 0.938743
3157.74 1.17156
3158.23 1.50239
3158.72 1.99399
3159.20 2.76536
3159.45 3.32886
3159.69 4.07428
3159.94 5.08960
3160.18 6.51381
3160.43 8.58872
3160.67 11.6929
3160.91 16.4932
3161.16 23.9449
3161.48 38.2896
3161.80 47.8403
3162.12 38.2321
3162.44 23.8981
3162.64 17.6556
3162.84 13.2875
3163.23 8.05393
3163.62 5.30182
3164.01 3.72299
3164.41 2.74444
3164.80 2.10339
3165.58 1.34418
3166.37 0.930521
3167.15 0.681897
3168.72 0.410816
3170.29 0.274401
3171.86 0.196329
3173.43 0.147544
3175.00 0.115054
3178.13 0.0758763
3181.27 0.0542229
3184.41 0.0420584
3185.98 0.0420909
3186.76 0.0580447
3187.16 0.118688
3187.35 0.299429
3187.45 0.709903
3187.50 1.35013
3187.55 3.20792
3187.57 5.12150
3187.60 6.38423
3187.63 5.12142
3187.65 3.20773
3187.68 1.80108
3187.72 1.10098
3187.78 0.523849
3187.91 0.209242
3188.16 0.0845151
3188.67 0.0441690
3189.69 0.0311212
3191.73 0.0248631
3195.80 0.0192077
3203.95 0.0133345
3212.10 0.0110200
3216.17 0.0131614
3218.21 0.0247990
3219.23 0.0698304
3219.48 0.113873
3219.74 0.229376
3219.87 0.376298
3219.99 0.731468
3220.06 1.14076
3220.12 1.99150
3220.15 2.82654
3220.18 4.27449
3220.22 7.00396
3220.25 12.2977
3220.27 19.6018
3220.30 24.5644
3220.33 19.6019
3220.35 12.2750
3220.37 8.46868
3220.40 5.94622
3220.44 3.31514
3220.48 2.05336
3220.52 1.39861
3220.60 0.759586
3220.69 0.476073
3220.85 0.238905
3221.02 0.145362
3221.68 0.0453428
3223.00 0.0177135
3225.65 0.0103017
3230.95 0.00835584
3236.24 0.00840572
3241.54 0.00947654
3246.84 0.0123344
3252.14 0.0206441
3254.78 0.0320097
3257.43 0.0636333
3258.76 0.106947
3259.42 0.149851
3260.08 0.227626
3260.74 0.391778
3261.07 0.552810
3261.40 0.841092
3261.57 1.08033
3261.74 1.43671
3261.90 2.00938
3262.07 3.00088
3262.23 4.97463
3262.32 6.78092
3262.40 9.72539
3262.48 15.1509
3262.52 19.7688
3262.56 26.5815
3262.61 37.7681
3262.65 56.5341
3262.69 91.2105
3262.73 160.427
3262.76 255.429
3262.80 320.644
3262.84 255.428
3262.87 160.203
3262.90 110.876
3262.93 78.6296
3262.95 57.7637
3262.98 43.8577
3263.03 27.4249
3263.09 18.7441
3263.14 13.4961
3263.19 10.1617
3263.30 6.36502
3263.41 4.33844
3263.52 3.15300
3263.62 2.39444
3263.73 1.88025
3263.95 1.24617
3264.16 0.888438
3264.59 0.518085
3265.02 0.340499
3265.45 0.242351
3266.31 0.143164
3267.16 0.0967500
3268.02 0.0716380
3269.74 0.0473518
3271.46 0.0373219
3273.17 0.0334424
3276.60 0.0356899
3278.32 0.0414162
3280.04 0.0516617
3281.75 0.0697090
3283.47 0.103547
3284.33 0.132329
3285.19 0.176293
3286.05 0.248200
3286.90 0.377594
3287.33 0.485323
3287.76 0.647072
3288.19 0.906591
3288.62 1.36169
3289.05 2.27113
3289.26 3.11334
3289.37 3.71771
3289.48 4.51527
3289.59 5.60883
3289.69 7.13029
3289.80 9.35251
3289.85 10.8815
3289.91 12.7675
3289.96 15.2241
3290.02 18.4328
3290.07 22.7158
3290.12 28.4458
3290.18 36.6113
3290.23 48.0976
3290.28 65.1892
3290.34 89.5839
3290.42 143.068
3290.50 178.613
3290.54 167.680
3290.58 142.366
3290.67 89.0336
3290.73 61.1463
3290.79 43.4809
3290.85 32.0172
3290.91 24.3560
3291.04 15.2212
3291.16 10.3603
3291.29 7.46138
3291.41 5.63072
3291.66 3.51814
3291.91 2.40153
3292.16 1.74213
3292.41 1.32101
3292.66 1.03694
3293.15 0.686724
3293.65 0.488619
3294.15 0.365373
3294.65 0.283822
3295.64 0.185622
3296.64 0.131166
3297.63 0.0978187
3298.63 0.0759199
3300.62 0.0498284
3302.61 0.0354629
3304.60 0.0266969
3306.59 0.0209524
3310.57 0.0141046
3314.55 0.0103166
3322.51 0.00645521
3330.47 0.00460171
3338.44 0.00355882
3354.36 0.00247554
3370.28 0.00195208
3386.21 0.00166898
3418.05 0.00144308
3449.90 0.00149227
3481.75 0.00185028
3497.67 0.00225433
3513.59 0.00305526
3521.56 0.00386465
3529.52 0.00565584
3537.48 0.0134830
3539.47 0.0211028
3541.46 0.0423039
3542.46 0.0713807
3543.45 0.152362
3543.95 0.262456
3544.20 0.370293
3544.45 0.561913
3544.69 0.957374
3544.82 1.33636
3544.94 1.98783
3545.07 3.27680
3545.13 4.43491
3545.19 6.32635
3545.25 9.71311
3545.29 12.4978
3545.32 16.6235
3545.35 23.0518
3545.38 33.6816
3545.41 52.3985
3545.44 86.4631
3545.47 138.341
3545.50 172.927
3545.53 138.341
3545.56 86.4640
3545.59 50.8254
3545.63 31.9672
3545.66 21.5588
3545.69 15.5359
3545.72 11.5806
3545.76 9.00883
3545.82 5.84218
3545.89 4.06367
3545.95 2.99900
3546.08 1.82328
3546.21 1.22073
3546.34 0.876383
3546.60 0.514092
3546.87 0.338330
3547.13 0.240032
3547.65 0.139774
3548.69 0.0661683
3549.74 0.0399241
3551.82 0.0211237
3553.91 0.0147159
3558.09 0.0106983
3562.26 0.0100575
3570.62 0.0120087
3578.97 0.0173799
3583.14 0.0221512
3587.32 0.0295272
3591.49 0.0416745
3595.67 0.0636668
3597.76 0.0820310
3599.85 0.109800
3601.93 0.154672
3604.02 0.234125
3605.06 0.299147
3606.11 0.395578
3606.63 0.462279
3607.15 0.547352
3607.67 0.658184
3607.94 0.726619
3608.20 0.806257
3608.46 0.899666
3608.72 1.01019
3608.98 1.14223
3609.24 1.30172
3609.50 1.49671
3609.76 1.73844
3610.02 2.04286
3610.28 2.43321
3610.55 2.94430
3610.81 3.62986
3611.07 4.57578
3611.33 5.92456
3611.59 7.92169
3611.85 11.0030
3612.11 15.9397
3612.37 23.8891
3612.69 38.2443
3613.00 47.7697
3613.32 38.1874
3613.63 23.8811
3613.85 17.0030
3614.06 12.4032
3614.28 9.31330
3614.49 7.19110
3614.93 4.59866
3615.36 3.17016
3615.79 2.30695
3616.22 1.75132
3617.09 1.10412
3617.95 0.757876
3618.82 0.551796
3619.68 0.419469
3620.55 0.329547
3622.28 0.218754
3624.01 0.155724
3625.74 0.116499
3627.47 0.0904491
3630.93 0.0590951
3634.39 0.0416677
3637.85 0.0309941
3641.31 0.0239879
3648.23 0.0156563
3655.15 0.0110833
3662.07 0.00831029
3668.99 0.00650809
3682.83 0.00440720
3696.67 0.00334346
3710.51 0.00309123
3717.43 0.00443136
3720.89 0.0103333
3722.62 0.0332359
3723.48 0.118476
3723.70 0.200426
3723.91 0.413005
3724.02 0.675921
3724.13 1.29822
3724.18 1.98525
3724.24 3.37671
3724.27 4.66103
3724.29 6.76790
3724.32 10.4390
3724.35 17.2691
3724.37 27.4763
3724.40 34.5199
3724.43 27.4765
3724.45 17.2693
3724.48 11.5927
3724.50 8.01326
3724.54 4.37579
3724.58 2.67697
3724.63 1.80767
3724.71 0.970077
3724.80 0.605221
3724.97 0.297837
3725.15 0.177492
3725.49 0.0843156
3725.84 0.0497884
3727.23 0.0149168
3730.00 0.00643143
3732.77 0.00844410
3734.16 0.0225581
3734.85 0.0754524
3735.20 0.253555
3735.37 0.757214
3735.46 1.84217
3735.50 3.39405
3735.53 4.93380
3735.55 7.36440
3735.57 11.8195
3735.60 14.7122
3735.63 11.8195
3735.65 7.35049
3735.68 4.84626
3735.70 3.28769
3735.74 1.75279
3735.83 0.708914
3736.02 0.234790
3736.38 0.0695786
3737.10 0.0205221
3738.55 0.00704439
3741.45 0.00338440
3747.24 0.00230740
3758.83 0.00198012
3770.42 0.00204382
3782.01 0.00240015
3793.60 0.00334734
3805.19 0.00622333
3810.98 0.0102880
3816.78 0.0218451
3819.68 0.0378656
3821.13 0.0538227
3822.57 0.0828443
3824.02 0.144443
3824.75 0.205110
3825.47 0.314220
3825.83 0.405146
3826.20 0.541731
3826.56 0.761172
3826.92 1.14682
3827.10 1.45977
3827.28 1.92021
3827.46 2.63713
3827.64 3.84133
3827.83 6.09123
3827.92 8.03783
3828.01 11.0203
3828.10 16.0226
3828.19 24.9707
3828.23 32.4812
3828.28 43.1971
3828.32 59.1087
3828.37 82.6999
3828.43 132.338
3828.50 165.435
3828.57 132.334
3828.63 82.6976
3828.68 59.1079
3828.72 43.4860
3828.81 25.5219
3828.90 16.3886
3828.99 11.3621
3829.08 8.27971
3829.16 6.30615
3829.34 3.98626
3829.52 2.74079
3829.69 1.99780
3829.87 1.51994
3830.05 1.19482
3830.40 0.793723
3830.76 0.565246
3831.11 0.422929
3831.46 0.328348
3832.17 0.214425
3832.88 0.151054
3834.30 0.0867139
3835.71 0.0563628
3837.13 0.0396830
3839.96 0.0229368
3845.62 0.0108934
3851.29 0.00676426
3862.62 0.00501340
3868.28 0.00964114
3871.11 0.0300685
3871.82 0.0509444
3872.53 0.108886
3872.88 0.186909
3873.24 0.396616
3873.41 0.667941
3873.59 1.35440
3873.68 2.18364
3873.77 4.03838
3873.81 6.02990
3873.86 9.73146
3873.88 12.9058
3873.90 17.7342
3873.92 25.3343
3873.94 37.9473
3873.97 60.3303
3874.00 75.8250
3874.03 60.3306
3874.06 37.8792
3874.09 22.1538
3874.12 14.0224
3874.15 9.38737
3874.18 6.73409
3874.24 3.87935
3874.30 2.52191
3874.42 1.29194
3874.54 0.784795
3874.78 0.376826
3875.03 0.220919
3875.51 0.103048
3876.00 0.0599794
3876.97 0.0282201
3877.94 0.0168399
3881.83 0.00555387
3889.60 0.00249463
3905.14 0.00154474
3920.68 0.00135017
3936.22 0.00138786
3951.77 0.00168717
3959.54 0.00203580
3967.31 0.00269828
3975.08 0.00414152
3978.96 0.00559093
3982.85 0.00824763
3984.79 0.0104977
3986.74 0.0139508
3988.68 0.0196475
3990.62 0.0300495
3991.59 0.0388387
3992.56 0.0522697
3993.54 0.0743512
3994.51 0.114385
3994.99 0.147977
3995.48 0.199019
3995.96 0.282073
3996.45 0.430344
3996.94 0.736966
3997.18 1.03041
3997.42 1.53827
3997.54 1.94942
3997.66 2.54341
3997.79 3.46365
3997.91 4.96739
3997.97 6.12095
3998.03 7.71973
3998.09 10.0192
3998.15 13.4099
3998.18 15.8505
3998.21 18.8724
3998.24 22.7900
3998.27 27.9611
3998.30 35.1838
3998.33 44.7880
3998.36 58.0509
3998.39 76.2263
3998.45 122.408
3998.50 152.448
3998.53 143.010
3998.56 121.509
3998.61 76.2229
3998.65 51.3236
3998.70 36.0104
3998.74 26.0679
3998.78 19.6938
3998.87 12.1741
3998.96 8.24010
3999.04 5.90543
3999.13 4.44502
3999.30 2.76548
3999.48 1.88244
3999.65 1.36274
3999.82 1.03163
3999.99 0.807914
4000.34 0.533304
4000.69 0.378538
4001.03 0.282582
4001.38 0.219028
4002.07 0.142664
4002.76 0.100408
4003.46 0.0745717
4004.15 0.0576330
4005.53 0.0375009
4006.92 0.0264676
4008.30 0.0197685
4009.69 0.0154062
4012.46 0.0102587
4015.22 0.00746192
4017.99 0.00578335
4020.76 0.00470521
4026.30 0.00347519
4031.84 0.00286715
4042.92 0.00249535
4053.99 0.00288934
4065.07 0.00475075
4070.61 0.00752429
4076.15 0.0155114
4078.91 0.0266529
4081.68 0.0581693
4083.07 0.101710
4083.76 0.144924
4084.45 0.223323
4085.15 0.389120
4085.49 0.551507
4085.84 0.841889
4086.01 1.08169
4086.18 1.44061
4086.36 2.01268
4086.53 3.00645
4086.70 4.96312
4086.79 6.75415
4086.88 9.66394
4086.96 14.9897
4087.01 19.3660
4087.05 25.9007
4087.09 36.4986
4087.14 54.0119
4087.18 85.6254
4087.22 145.662
4087.26 233.807
4087.30 291.158
4087.34 233.806
4087.38 145.477
4087.42 88.6667
4087.46 57.3485
4087.50 39.4189
4087.54 28.5128
4087.58 21.3416
4087.62 16.6255
4087.70 10.8641
4087.78 7.60100
4087.86 5.62694
4088.02 3.42388
4088.18 2.29846
4088.34 1.64822
4088.51 1.23922
4088.67 0.965464
4088.99 0.633340
4089.31 0.447263
4089.95 0.257335
4090.60 0.167030
4091.24 0.117281
4092.53 0.0670769
4095.10 0.0306602
4097.68 0.0177596
4102.82 0.00847403
4107.97 0.00520821
4128.56 0.00209883
4149.16 0.00170183
4159.45 0.00206403
4164.60 0.00374428
4167.17 0.0103449
4168.46 0.0355096
4169.10 0.127089
4169.27 0.213224
4169.43 0.430420
4169.51 0.691838
4169.59 1.27199
4169.67 2.98835
4169.71 5.34656
4169.73 7.52930
4169.75 10.9314
4169.77 17.6032
4169.80 21.8512
4169.83 17.6033
4169.85 10.9315
4169.88 6.88975
4169.90 4.49605
4169.96 2.28297
4170.01 1.34220
4170.06 0.883830
4170.16 0.461249
4170.26 0.283317
4170.67 0.0813223
4171.50 0.0227737
4173.14 0.00698852
4176.42 0.00289900
4182.99 0.00188513
4196.13 0.00172208
4222.40 0.00202008
4248.68 0.00267837
4274.95 0.00393797
4288.09 0.00500904
4301.23 0.00664605
4314.36 0.00932524
4327.50 0.0141597
4334.07 0.0181916
4340.64 0.0242899
4347.21 0.0341581
4353.78 0.0517010
4357.06 0.0661218
4360.35 0.0876095
4361.99 0.102545
4363.63 0.121677
4365.27 0.146737
4366.09 0.162284
4366.91 0.180445
4367.74 0.201865
4368.56 0.227305
4369.38 0.257869
4370.20 0.295024
4371.02 0.340794
4371.84 0.398037
4372.66 0.470887
4373.48 0.565489
4374.30 0.691280
4375.12 0.863286
4375.95 1.10647
4376.77 1.46434
4377.59 2.01689
4378.41 2.91910
4379.23 4.47952
4380.05 7.25346
4380.88 11.5838
4381.70 14.4600
4382.53 11.5784
4383.35 7.24855
4384.22 4.36790
4385.08 2.79621
4385.95 1.90877
4386.81 1.37490
4387.67 1.03292
4388.54 0.802729
4390.27 0.523853
4392.00 0.368804
4393.73 0.274617
4397.19 0.172654
4400.64 0.125985
4404.10 0.114798
4405.83 0.131389
4406.70 0.154054
4407.56 0.199423
4408.43 0.300729
4408.86 0.402361
4409.29 0.586509
4409.72 0.972577
4409.94 1.34523
4410.16 2.00025
4410.37 3.31306
4410.48 4.52880
4410.59 6.56824
4410.70 10.3709
4410.75 13.6316
4410.80 18.6719
4410.86 27.0010
4410.91 41.9943
4410.94 54.2243
4410.97 71.9424
4410.99 98.1539
4411.02 136.856
4411.06 218.950
4411.10 273.682
4411.14 218.948
4411.18 136.855
4411.21 99.3388
4411.23 74.3685
4411.28 44.7613
4411.33 29.1222
4411.38 20.4253
4411.43 14.9753
4411.48 11.4839
4411.58 7.35088
4411.68 5.08466
4411.78 3.73690
4411.99 2.26165
4412.19 1.52018
4412.39 1.09601
4412.79 0.654266
4413.19 0.440685
4413.59 0.321240
4414.40 0.198906
4416.01 0.107337
4417.61 0.0729646
4419.22 0.0557307
4420.83 0.0454870
4424.05 0.0338140
4430.48 0.0229845
4436.91 0.0178952
4443.34 0.0154043
4449.77 0.0151644
4456.21 0.0210898
4459.42 0.0437670
4460.23 0.0659633
4461.03 0.126744
4461.43 0.208174
4461.83 0.426783
4462.04 0.709845
4462.24 1.42759
4462.34 2.29643
4462.44 4.25070
4462.49 6.35280
4462.54 10.2904
4462.56 13.6864
4462.59 18.8787
4462.61 27.1006
4462.64 40.2234
4462.67 64.3479
4462.70 80.4313
4462.73 64.3481
4462.76 40.2238
4462.80 24.0369
4462.83 15.4938
4462.86 10.6308
4462.89 7.68317
4462.96 4.47319
4463.02 2.92743
4463.15 1.52277
4463.28 0.936212
4463.54 0.459604
4463.79 0.277429
4464.31 0.139327
4464.82 0.0892566
4465.85 0.0538292
4466.88 0.0430378
4468.94 0.0412744
4471.00 0.0526157
4472.03 0.0642347
4473.06 0.0827896
4474.09 0.113833
4475.12 0.170483
4475.64 0.217908
4476.15 0.289684
4476.67 0.405690
4477.18 0.611144
4477.70 1.02797
4477.95 1.42012
4478.21 2.08514
4478.34 2.60985
4478.47 3.35903
4478.60 4.47942
4478.73 6.23988
4478.79 7.55050
4478.86 9.27666
4478.92 11.6441
4478.98 14.9942
4479.05 19.9999
4479.11 27.5334
4479.18 39.4118
4479.24 58.2673
4479.32 93.0488
4479.40 116.163
4479.44 109.046
4479.48 92.5817
4479.56 57.9017
4479.63 38.4924
4479.70 26.5349
4479.76 19.0874
4479.83 14.2672
4479.96 8.73574
4480.10 5.85436
4480.23 4.18251
4480.37 3.13205
4480.63 1.94076
4480.90 1.31845
4481.17 0.953708
4481.44 0.721992
4481.71 0.565754
4482.24 0.374766
4482.78 0.266941
4483.31 0.200176
4483.85 0.156055
4484.92 0.102996
4485.99 0.0735888
4487.06 0.0555631
4488.13 0.0437281
4490.28 0.0295941
4492.42 0.0217708
4496.71 0.0137945
4500.99 0.00996016
4505.28 0.00779450
4513.85 0.00553223
4522.42 0.00448379
4531.00 0.00420516
4535.28 0.00457178
4539.57 0.00615079
4543.85 0.0155481
4546.00 0.0525729
4546.53 0.0897918
4547.07 0.191713
4547.34 0.326762
4547.61 0.680978
4547.74 1.12517
4547.87 2.19767
4547.94 3.41021
4548.01 5.94216
4548.04 8.40352
4548.07 12.4604
4548.11 19.8108
4548.14 33.7018
4548.17 53.9220
4548.20 67.4024
4548.23 53.9221
4548.26 33.7020
4548.28 22.7724
4548.31 16.1256
4548.33 11.8384
4548.35 8.98605
4548.40 5.56760
4548.45 3.78689
4548.54 2.04977
4548.63 1.27810
4548.82 0.631924
4549.00 0.375824
4549.38 0.177518
4549.75 0.103615
4550.49 0.0486407
4551.24 0.0287903
4554.21 0.00908569
4560.16 0.00391535
4566.11 0.00285508
4572.06 0.00242885
4583.96 0.00206290
4595.85 0.00192811
4619.65 0.00207525
4631.55 0.00263061
4637.50 0.00403054
4640.47 0.00877302
4641.96 0.0264725
4642.70 0.0914342
4643.08 0.311910
4643.17 0.505093
4643.26 0.952238
4643.36 2.37150
4643.40 4.48076
4643.42 6.58154
4643.45 10.0783
4643.47 16.2237
4643.50 20.1348
4643.53 15.9805
4643.55 10.0594
4643.58 6.69951
4643.60 4.69882
4643.64 2.58637
4643.72 1.08648
4643.81 0.588123
4643.89 0.367228
4644.23 0.109387
4644.90 0.0317085
4646.25 0.0105038
4648.94 0.00517280
4654.32 0.00442645
4659.70 0.00524869
4665.08 0.00706367
4670.47 0.0109086
4675.85 0.0212957
4678.54 0.0352510
4681.23 0.0738384
4682.58 0.126518
4683.25 0.178577
4683.92 0.272526
4684.60 0.470218
4684.93 0.663673
4685.27 1.00725
4685.44 1.29174
4685.61 1.71379
4685.77 2.38286
4685.94 3.53615
4686.11 5.77945
4686.19 7.79158
4686.28 11.0526
4686.36 16.8248
4686.40 21.5153
4686.45 28.3846
4686.49 38.9217
4686.53 55.9727
4686.57 85.1016
4686.61 136.102
4686.66 218.770
4686.70 272.217
4686.74 216.765
4686.79 136.102
4686.83 82.4363
4686.88 52.9696
4686.92 36.2433
4686.97 26.1318
4687.01 19.6439
4687.06 15.2656
4687.15 9.98469
4687.24 6.99432
4687.33 5.18139
4687.50 3.15794
4687.68 2.12335
4687.86 1.52527
4688.22 0.897011
4688.58 0.591350
4688.94 0.420157
4689.65 0.245479
4690.37 0.162845
4691.09 0.117684
4692.52 0.0731134
4695.38 0.0445077
4698.25 0.0416547
4699.68 0.0460462
4701.11 0.0553632
4702.54 0.0727055
4703.98 0.105871
4704.69 0.134178
4705.41 0.177331
4706.12 0.247558
4706.84 0.372779
4707.56 0.628996
4707.91 0.871483
4708.27 1.28806
4708.45 1.61844
4708.63 2.09383
4708.81 2.81215
4708.90 3.32009
4708.99 3.96867
4709.08 4.83483
4709.17 5.99583
4709.26 7.63764
4709.35 9.99221
4709.44 13.5987
4709.53 19.2680
4709.62 28.8317
4709.70 44.8931
4709.80 71.8251
4709.90 89.7781
4710.00 71.8217
4710.10 44.8896
4710.19 28.8289
4710.27 19.4280
4710.36 13.7471
4710.45 10.1525
4710.63 6.10250
4710.80 4.05162
4710.98 2.87152
4711.16 2.14143
4711.51 1.31977
4711.86 0.892684
4712.21 0.644359
4712.57 0.486686
4712.92 0.380942
4713.62 0.251775
4714.33 0.179016
4715.03 0.134022
4715.74 0.104264
4717.15 0.0685662
4718.56 0.0487599
4719.97 0.0366227
4721.38 0.0286392
4724.20 0.0190992
4727.02 0.0138147
4729.84 0.0105747
4732.66 0.00844160
4738.30 0.00589446
4743.94 0.00449854
4755.22 0.00316558
4766.50 0.00275227
4777.78 0.00308413
4789.06 0.00594847
4794.70 0.0165882
4796.11 0.0272207
4797.52 0.0568658
4798.23 0.0973628
4798.93 0.209154
4799.28 0.359384
4799.64 0.759923
4799.81 1.27855
4799.90 1.76000
4799.99 2.57338
4800.08 4.10681
4800.12 5.43717
4800.16 7.51874
4800.21 11.0190
4800.25 17.4880
4800.27 22.9080
4800.30 30.9642
4800.32 43.2716
4800.34 62.4367
4800.37 99.6470
4800.40 124.768
4800.43 99.6473
4800.46 62.3328
4800.49 40.6207
4800.51 27.2640
4800.54 19.2272
4800.57 14.3136
4800.62 8.64725
4800.67 5.74697
4800.73 4.08280
4800.78 3.04508
4800.88 1.87664
4800.99 1.27037
4801.10 0.916585
4801.31 0.541782
4801.73 0.254114
4802.16 0.148153
4803.01 0.0697844
4803.85 0.0417800
4807.25 0.0151727
4814.04 0.0139277
4817.43 0.0212867
4820.83 0.0441245
4822.52 0.0762095
4824.22 0.166425
4825.07 0.289784
4825.49 0.410942
4825.92 0.628200
4826.34 1.07969
4826.55 1.51265
4826.77 2.26916
4826.98 3.77238
4827.08 5.15201
4827.19 7.44416
4827.30 11.6558
4827.35 15.2125
4827.40 20.6249
4827.45 29.3748
4827.51 44.6245
4827.56 73.6133
4827.59 98.3393
4827.61 132.122
4827.66 212.375
4827.70 264.261
4827.74 210.429
4827.79 132.121
4827.82 90.0506
4827.86 63.3037
4827.89 46.2006
4827.92 35.1791
4827.99 21.9572
4828.06 14.8926
4828.12 10.6767
4828.19 8.04472
4828.33 5.02403
4828.46 3.41919
4828.59 2.48030
4828.73 1.88046
4828.86 1.47433
4829.13 0.974435
4829.40 0.691571
4829.94 0.400365
4830.48 0.260735
4831.01 0.183444
4832.09 0.105120
4834.24 0.0479402
4836.38 0.0275730
4840.68 0.0128236
4844.98 0.00758466
4853.58 0.00377555
4862.18 0.00240812
4879.37 0.00140628
4896.56 0.00106655
4913.76 0.000970861
4930.95 0.00111851
4948.15 0.00236885
4956.74 0.00749013
4961.04 0.0276601
4962.12 0.0482357
4963.19 0.105671
4963.73 0.183988
4964.26 0.397695
4964.53 0.680905
4964.67 0.950487
4964.80 1.41812
4964.94 2.34679
4965.00 3.18557
4965.07 4.56272
4965.14 7.04843
4965.17 9.14653
4965.20 12.1885
4965.24 17.1344
4965.27 25.2029
4965.31 40.2261
4965.34 68.5545
4965.37 109.061
4965.40 136.999
4965.43 109.061
4965.46 68.4431
4965.50 40.2266
4965.53 25.2034
4965.56 16.9512
4965.60 12.1890
4965.63 9.07282
4965.66 6.99821
4965.73 4.53640
4965.80 3.15470
4965.87 2.32725
4966.00 1.40897
4966.14 0.942950
4966.27 0.674819
4966.54 0.394324
4967.08 0.182313
4967.62 0.104873
4968.70 0.0478426
4969.78 0.0274597
4974.10 0.00746320
4982.73 0.00240602
5000.00 0.00125532
5017.22 0.00145542
5025.84 0.00256187
5030.14 0.00654197
5032.29 0.0216726
5033.37 0.0785230
5033.91 0.280611
5034.04 0.467308
5034.18 0.921408
5034.25 1.45377
5034.31 2.58106
5034.35 3.70827
5034.38 5.62663
5034.41 9.42857
5034.45 17.0411
5034.47 27.2244
5034.50 34.0810
5034.53 27.2245
5034.55 17.0413
5034.58 11.1810
5034.60 7.65141
5034.65 4.07585
5034.69 2.48254
5034.74 1.65830
5034.83 0.878689
5034.92 0.544043
5035.11 0.266303
5035.29 0.158074
5036.03 0.0436529
5037.51 0.0125369
5040.46 0.00456525
5046.37 0.00294007
5058.18 0.00456356
5064.09 0.00749630
5070.00 0.0159535
5072.95 0.0277285
5075.90 0.0609661
5077.38 0.106806
5078.12 0.152244
5078.86 0.234565
5079.59 0.408250
5079.96 0.577967
5080.33 0.880637
5080.70 1.50200
5080.89 2.09495
5081.07 3.11396
5081.26 5.11537
5081.35 6.90917
5081.44 9.82567
5081.53 15.0902
5081.58 19.3610
5081.62 25.6533
5081.67 35.3840
5081.72 51.3073
5081.76 78.9357
5081.81 128.274
5081.85 205.248
5081.90 256.567
5081.95 205.246
5081.99 128.274
5082.02 93.9790
5082.05 70.1256
5082.11 41.9765
5082.17 27.4095
5082.22 19.2512
5082.28 14.1347
5082.34 10.7935
5082.45 6.88561
5082.57 4.74831
5082.69 3.47668
5082.92 2.09128
5083.15 1.39182
5083.38 0.992284
5083.84 0.577612
5084.30 0.377196
5084.76 0.265774
5085.68 0.152405
5087.53 0.0693073
5089.37 0.0396611
5093.06 0.0182503
5096.75 0.0107277
5104.13 0.00546436
5111.51 0.00389369
5126.27 0.00532020
5133.65 0.0159239
5135.50 0.0270129
5137.34 0.0583355
5138.27 0.101471
5139.19 0.221191
5139.65 0.383286
5139.88 0.541301
5140.11 0.820398
5140.34 1.39127
5140.46 1.92712
5140.57 2.84266
5140.69 4.62092
5140.75 6.20210
5140.80 8.68434
5140.86 13.0658
5140.92 21.4012
5140.95 28.8534
5140.98 40.5209
5141.01 59.5640
5141.03 89.6582
5141.07 144.310
5141.10 179.320
5141.13 142.597
5141.17 89.6586
5141.20 59.5645
5141.22 41.5507
5141.25 30.1600
5141.28 22.6979
5141.33 14.0273
5141.38 9.45507
5141.44 6.78075
5141.49 5.09098
5141.60 3.16433
5141.71 2.14575
5141.82 1.55356
5142.03 0.921303
5142.25 0.607931
5142.47 0.431679
5142.90 0.249966
5143.76 0.114739
5144.63 0.0659415
5146.36 0.0303821
5148.09 0.0177558
5155.01 0.00547616
5168.85 0.00278830
5182.70 0.00460095
5189.62 0.0134157
5191.35 0.0224350
5193.08 0.0477712
5193.94 0.0825646
5194.81 0.179159
5195.24 0.309765
5195.67 0.661549
5195.89 1.12208
5196.00 1.55460
5196.11 2.29418
5196.21 3.71478
5196.27 4.97197
5196.32 6.98048
5196.38 10.4615
5196.43 17.2029
5196.46 23.1322
5196.48 32.3796
5196.51 47.4128
5196.54 72.5305
5196.57 116.511
5196.60 144.947
5196.63 116.511
5196.66 72.4155
5196.68 53.5324
5196.70 39.7966
5196.74 23.6816
5196.78 15.4012
5196.82 10.7254
5196.86 7.86515
5196.90 6.00066
5196.98 3.82984
5197.06 2.63867
5197.14 1.93317
5197.30 1.16078
5197.46 0.771408
5197.62 0.550691
5197.94 0.321116
5198.57 0.148562
5199.21 0.0859296
5200.48 0.0400579
5201.76 0.0237775
5206.85 0.00829358
5217.04 0.00695477
5222.13 0.0103284
5227.22 0.0210667
5229.77 0.0362674
5232.32 0.0792752
5233.59 0.138549
5234.23 0.197255
5234.86 0.303208
5235.50 0.525855
5235.82 0.742345
5236.14 1.12634
5236.45 1.91145
5236.61 2.64990
5236.77 3.91328
5236.93 6.34194
5237.01 8.50979
5237.09 11.9325
5237.17 17.9512
5237.25 29.4805
5237.29 39.7627
5237.33 55.8770
5237.37 82.2196
5237.41 124.464
5237.45 199.151
5237.50 248.945
5237.55 199.149
5237.59 124.463
5237.63 82.2198
5237.67 56.9040
5237.71 41.0593
5237.75 30.7624
5237.82 18.8954
5237.90 12.6871
5237.97 9.07456
5238.05 6.80015
5238.20 4.21578
5238.35 2.86323
5238.51 2.06955
5238.81 1.22446
5239.11 0.808071
5239.42 0.572900
5240.03 0.330901
5240.63 0.215323
5241.24 0.151302
5242.46 0.0865390
5244.89 0.0393716
5247.32 0.0226025
5252.19 0.0104913
5257.05 0.00621023
5276.51 0.00207283
5315.42 0.00140182
5334.88 0.00190012
5354.33 0.00366567
5364.06 0.00622130
5373.79 0.0135447
5378.66 0.0237484
5381.09 0.0339454
5383.52 0.0525756
5385.95 0.0923263
5387.17 0.131755
5388.38 0.203203
5388.99 0.262997
5389.60 0.353680
5390.21 0.500841
5390.82 0.763269
5391.12 0.979376
5391.42 1.30195
5391.73 1.81416
5392.03 2.69908
5392.34 4.42648
5392.49 5.98176
5392.64 8.51257
5392.79 13.0194
5392.87 16.7043
5392.94 22.1335
5393.02 30.5296
5393.10 44.2692
5393.17 68.1095
5393.25 110.686
5393.32 177.116
5393.40 221.407
5393.48 177.111
5393.55 110.683
5393.60 79.0208
5393.66 57.6951
5393.71 43.3510
5393.76 33.4896
5393.86 21.4513
5393.97 14.7920
5394.07 10.7735
5394.18 8.17896
5394.38 5.15888
5394.59 3.54198
5394.80 2.57915
5395.01 1.96068
5395.22 1.54028
5395.63 1.02215
5396.05 0.727282
5396.46 0.543730
5396.88 0.422045
5397.71 0.275141
5398.54 0.193547
5399.37 0.143490
5400.21 0.110659
5401.87 0.0715446
5403.53 0.0500616
5406.86 0.0284743
5410.19 0.0183818
5413.51 0.0128666
5420.16 0.00734882
5433.47 0.00337510
5446.78 0.00197019
5473.39 0.000952169
5500.00 0.000586399
5500.00 0.478145
6000.00 0.456872
7000.00 0.428787
8000.00 0.400702
9000.00 0.380661
10000.0 0.360620
15000.0 0.294729
20000.0 0.254620
30000.0 0.204292
40000.0 0.173874
50000.0 0.157504
60000.0 0.141133
70000.0 0.133246
80000.0 0.125359
90000.0 0.120639
100000 0.115920
150000 0.104401
200000 0.0983250
250000 0.0969811
300000 0.0956373
350000 0.0942246
400000 0.0928120
437994 0.0851155
437995 0.0851155
450000 0.0826835
500000 0.0725550
550000 0.0628020
600000 0.0530489
650000 0.0487945
700000 0.0445400
750000 0.0436669
800000 0.0427938
850000 0.0424924
900000 0.0421910
939905 0.0415517
939905 0.0415517
950000 0.0413900
1.00000E+06 0.0405890
1.05802E+06 0.0390046
1.05802E+06 0.0390045
1.06262E+06 0.0388789
1.06262E+06 0.0388789
1.10000E+06 0.0378582
1.20000E+06 0.0350891
1.30000E+06 0.0330162
1.32650E+06 0.0324670
1.32650E+06 0.0324670
1.34768E+06 0.0320278
1.34768E+06 0.0320278
1.40000E+06 0.0309433
1.45465E+06 0.0304464
1.45465E+06 0.0304464
1.50000E+06 0.0300342
1.55436E+06 0.0295400
1.55436E+06 0.0295400
1.60000E+06 0.0291250
1.64029E+06 0.0289697
1.64029E+06 0.0289697
1.70000E+06 0.0287395
1.78772E+06 0.0284014
1.78772E+06 0.0284014
1.80000E+06 0.0283540
1.90000E+06 0.0279350
1.97428E+06 0.0276238
1.97429E+06 0.0276238
2.00000E+06 0.0275160
2.00845E+06 0.0274669
2.00845E+06 0.0274669
2.03384E+06 0.0273196
2.03384E+06 0.0273195
2.06578E+06 0.0271341
2.06578E+06 0.0271341
2.10000E+06 0.0269354
2.11829E+06 0.0268292
2.11829E+06 0.0268292
2.16101E+06 0.0265812
2.16102E+06 0.0265812
2.20000E+06 0.0263548
2.23873E+06 0.0261299
2.23873E+06 0.0261299
2.30000E+06 0.0257742
2.30251E+06 0.0257596
2.30252E+06 0.0257596
2.30381E+06 0.0257521
2.30381E+06 0.0257521
2.33967E+06 0.0255439
2.33967E+06 0.0255439
2.38408E+06 0.0252860
2.38408E+06 0.0252860
2.40000E+06 0.0251936
2.41386E+06 0.0251132
2.41386E+06 0.0251132
2.42657E+06 0.0250393
2.42657E+06 0.0250393
2.44060E+06 0.0249579
2.44060E+06 0.0249579
2.50000E+06 0.0246130
2.60000E+06 0.0237906
2.70000E+06 0.0229682
2.80000E+06 0.0221458
2.90000E+06 0.0213234
3.00000E+06 0.0205010
3.10000E+06 0.0198440
3.20000E+06 0.0191869
3.50000E+06 0.0172159
3.69487E+06 0.0161332
3.69487E+06 0.0161332
3.73625E+06 0.0159033
3.73625E+06 0.0159033
3.73625E+06 0.0159033
3.89095E+06 0.0150439
3.89095E+06 0.0150439
4.00000E+06 0.0144380
4.50000E+06 0.0116657
5.00000E+06 0.00919470
5.50000E+06 0.00728091
6.00000E+06 0.00576390
6.50000E+06 0.00457100
7.00000E+06 0.00360660
7.50000E+06 0.00284059
7.79766E+06 0.00250108
7.79766E+06 0.00250108
7.99359E+06 0.00227762
7.99359E+06 0.00227762
8.00000E+06 0.00227030
8.08028E+06 0.00220182
8.08028E+06 0.00220182
8.20735E+06 0.00209342
8.20736E+06 0.00209342
8.26458E+06 0.00204460
8.26459E+06 0.00204460
8.50000E+06 0.00184378
9.00000E+06 0.00151860
9.30657E+06 0.00138535
9.30657E+06 0.00138535
9.50000E+06 0.00130128
1.00000E+07 0.00117070
1.00430E+07 0.00116489
1.00431E+07 0.00116489
1.05000E+07 0.00110325
1.10000E+07 0.00103580
1.15000E+07 0.00100908
1.20000E+07 0.000982350
1.25000E+07 0.000965345
1.28782E+07 0.000952484
1.28782E+07 0.000952483
1.30000E+07 0.000948340
1.35000E+07 0.000926735
1.40000E+07 0.000905130
1.45000E+07 0.000872805
1.50000E+07 0.000840480
1.55000E+07 0.000799400
1.59061E+07 0.000766037
1.59061E+07 0.000766033
1.60000E+07 0.000758320
1.64461E+07 0.000712964
1.65000E+07 0.000707489
1.70000E+07 0.000656657
1.75000E+07 0.000603754
1.80000E+07 0.000550850
1.85000E+07 0.000502156
1.86915E+07 0.000483504
1.90000E+07 0.000453461
1.95000E+07 0.000415551
2.00000E+07 0.000377640
2.10000E+07 0.000326397
2.20000E+07 0.000275154
2.30000E+07 0.000241261
2.40000E+07 0.000207368
2.50000E+07 0.000184894
2.55578E+07 0.000172357
2.60000E+07 0.000162420
2.70000E+07 0.000149867
2.80000E+07 0.000137315
2.90000E+07 0.000130902
3.00000E+07 0.000124490