Pd-102(n,tot) ENDF/B-VII.1
Energy(eV) XS(b)
1.00000E-05 97.6398
1.25000E-05 87.9627
1.50000E-05 80.8195
2.00000E-05 70.7926
2.75000E-05 61.2520
3.50000E-05 54.9731
4.25000E-05 50.4403
5.00000E-05 46.9702
6.25000E-05 42.6425
7.50000E-05 39.4479
0.000100000 34.9638
0.000125000 31.9036
0.000150000 29.6447
0.000200000 26.4739
0.000275000 23.4569
0.000350000 21.4713
0.000425000 20.0379
0.000500000 18.9406
0.000625000 17.5720
0.000750000 16.5618
0.00100000 15.1437
0.00125000 14.1760
0.00150000 13.4616
0.00200000 12.4589
0.00275000 11.5048
0.00350000 10.8768
0.00425000 10.4235
0.00500000 10.0764
0.00625000 9.64360
0.00750000 9.32407
0.0100000 8.87552
0.0125000 8.56939
0.0150000 8.34339
0.0200000 8.02610
0.0253000 7.79861
0.0314750 7.60988
0.0376500 7.46969
0.0500000 7.27174
0.0625000 7.13450
0.0750000 7.03312
0.100000 6.89064
0.125000 6.79322
0.150000 6.72116
0.200000 6.61969
0.275000 6.52258
0.350000 6.45816
0.500000 6.37500
0.750000 6.29481
1.00000 6.24521
1.50000 6.18288
2.00000 6.14238
2.75000 6.09951
3.50000 6.06739
5.00000 6.01860
7.50000 5.95808
10.0000 5.90958
15.0000 5.82973
20.0000 5.76252
27.5000 5.67527
35.0000 5.59822
50.0000 5.46095
75.0000 5.24678
100.000 5.00563
122.635 4.70621
133.953 4.49431
145.271 4.20271
150.929 4.00876
156.588 3.76550
162.247 3.45106
167.906 3.03145
170.735 2.76781
173.565 2.46134
176.394 2.11654
179.223 1.77896
180.638 1.66685
182.053 1.68108
182.760 1.78591
183.114 1.87881
183.468 2.00840
183.644 2.09006
183.821 2.18486
183.998 2.29468
184.175 2.42144
184.352 2.56762
184.529 2.73581
184.705 2.92927
184.882 3.15171
185.059 3.40767
185.236 3.70202
185.590 4.43208
185.943 5.40639
186.297 6.71802
186.651 8.50673
187.004 10.9851
187.358 14.4909
187.712 19.5804
188.065 27.2273
188.419 39.2297
188.773 59.2050
189.126 95.2379
189.303 124.827
189.480 168.410
189.657 235.915
189.834 347.260
190.011 547.700
190.099 712.105
190.187 954.180
190.276 1326.92
190.364 1930.96
190.453 2961.39
190.541 4759.87
190.636 7770.19
190.730 9906.41
190.825 8082.21
190.919 5151.98
190.990 3615.52
191.061 2610.63
191.132 1950.44
191.203 1505.71
191.345 971.661
191.487 680.019
191.629 504.721
191.770 391.397
192.054 258.555
192.338 186.344
192.622 142.543
192.906 113.840
193.189 93.9271
193.757 68.6286
194.324 53.6146
194.892 43.8736
195.460 37.1399
196.595 28.5757
197.730 23.4524
198.865 20.0910
200.000 17.7373
201.730 15.2751
203.459 13.6086
206.918 11.5138
210.377 10.2601
213.836 9.42912
217.295 8.83883
220.754 8.39795
227.672 7.78237
234.591 7.37116
241.509 7.07485
255.345 6.66977
269.181 6.39666
283.017 6.19005
310.690 5.86281
338.362 5.54578
352.198 5.35330
366.034 5.10320
372.952 4.94007
379.871 4.73532
386.789 4.46658
393.707 4.09358
397.166 3.84594
400.625 3.53782
404.084 3.14636
407.543 2.64232
409.273 2.34129
411.002 2.01440
412.732 1.69622
414.461 1.51470
415.326 1.59539
415.542 1.65210
415.758 1.72971
415.974 1.83259
416.191 1.96610
416.407 2.13712
416.623 2.35402
416.839 2.62744
417.055 2.97092
417.272 3.40184
417.488 3.94273
417.704 4.62316
417.920 5.48197
418.136 6.57286
418.352 7.96793
418.569 9.76814
418.785 12.1171
419.001 15.2237
419.217 19.4006
419.433 25.1298
419.650 33.1787
419.866 44.8456
420.082 62.4080
420.298 90.1734
420.514 137.001
420.731 223.249
420.839 295.359
420.947 403.168
421.055 572.163
421.163 852.083
421.271 1342.94
421.379 2227.88
421.490 3678.65
421.600 4743.32
421.711 3913.06
421.821 2521.45
421.897 1832.03
421.974 1362.36
422.050 1042.65
422.126 820.940
422.279 546.329
422.432 391.479
422.585 296.250
422.737 233.607
423.043 158.774
423.348 117.247
423.653 91.6466
423.959 74.6432
424.264 62.7087
424.875 47.3275
425.486 38.0381
426.097 31.9225
426.707 27.6396
427.929 22.1048
429.150 18.7299
430.372 16.4800
431.593 14.8832
434.037 12.7813
436.480 11.4682
438.923 10.5740
441.366 9.92729
446.252 9.05615
451.138 8.49699
456.024 8.10759
460.911 7.82055
470.683 7.42476
480.455 7.16360
490.228 6.97736
500.000 6.83716
518.902 6.64382
537.803 6.51047
556.705 6.41173
575.607 6.33482
613.410 6.22055
651.214 6.13649
689.017 6.06719
726.820 5.99922
745.722 5.95759
755.173 5.93092
764.624 5.89604
769.349 5.87326
774.075 5.84458
778.800 5.80653
783.525 5.75240
785.888 5.71524
788.251 5.66719
790.614 5.60229
792.976 5.50937
794.158 5.44593
795.339 5.36494
796.520 5.25813
797.702 5.11183
798.292 5.01725
798.883 4.90373
799.474 4.76842
800.064 4.61573
800.360 4.54243
800.655 4.48963
800.950 4.49876
801.246 4.68471
801.393 4.93683
801.541 5.41744
801.689 6.34693
801.836 8.24055
801.984 12.5111
802.021 14.3476
802.058 16.7177
802.095 19.8279
802.113 21.7580
802.132 23.9905
802.150 26.6166
802.169 29.7109
802.187 33.3830
802.206 37.7499
802.243 49.4583
802.279 67.2167
802.316 95.5067
802.335 116.171
802.353 143.266
802.372 179.747
802.390 229.000
802.409 296.733
802.427 388.239
802.464 646.115
802.500 841.802
802.518 809.203
802.537 703.168
802.573 459.562
802.607 304.321
802.641 211.588
802.675 154.963
802.709 118.913
802.777 77.7292
802.845 56.1919
802.913 43.4885
802.982 35.3506
803.118 25.8307
803.254 20.6087
803.390 17.3982
803.526 15.2572
803.662 13.7464
803.935 11.7782
804.207 10.5700
804.479 9.76145
804.751 9.18636
805.296 8.42819
805.841 7.95428
806.385 7.63170
806.930 7.39863
808.019 7.08529
809.108 6.88484
810.197 6.74578
811.287 6.64369
813.465 6.50378
815.643 6.41229
817.822 6.34764
820.000 6.29940
820.000 10.3938
1000.00 10.3378
1500.00 9.24716
2000.00 8.51724
3000.00 7.73096
4000.00 7.18568
5000.00 6.91282
6000.00 6.79070
7000.00 6.75616
8000.00 6.76912
9000.00 6.81239
10000.0 6.86033
15000.0 7.08871
20000.0 7.32178
30000.0 7.81577
40000.0 8.13497
50000.0 8.34343
60000.0 8.47680
70000.0 8.58307
80000.0 8.65258
90000.0 8.69876
100000 8.71936
150000 8.69495
200000 8.61421
250000 8.53040
300000 8.43558
317763 8.39829
317764 8.39829
350000 8.32664
360119 8.30354
360119 8.30354
400000 8.21166
424025 8.15692
424025 8.15692
442738 8.11390
442738 8.11390
450000 8.09714
459907 8.07425
459907 8.07425
473722 8.04226
473722 8.04226
500000 7.98134
550000 7.86632
562039 7.83808
562039 7.83808
600000 7.74785
650000 7.62766
700000 7.50783
750000 7.39061
800000 7.27308
850000 7.15278
900000 7.02834
950000 6.90009
1.00000E+06 6.77951
1.10000E+06 6.59099
1.20000E+06 6.40784
1.28867E+06 6.23305
1.28867E+06 6.23304
1.30000E+06 6.21167
1.40000E+06 6.03414
1.50000E+06 5.87568
1.54976E+06 5.80249
1.54976E+06 5.80249
1.60000E+06 5.73172
1.60878E+06 5.71965
1.60878E+06 5.71965
1.67461E+06 5.63161
1.67461E+06 5.63161
1.70000E+06 5.59871
1.73198E+06 5.55688
1.73198E+06 5.55688
1.80000E+06 5.46422
1.90000E+06 5.32410
1.93799E+06 5.27073
1.93800E+06 5.27072
1.96363E+06 5.23492
1.96363E+06 5.23492
2.00000E+06 5.18455
2.10000E+06 5.05168
2.13242E+06 5.01009
2.13242E+06 5.01009
2.13268E+06 5.00976
2.13268E+06 5.00976
2.13887E+06 5.00190
2.13887E+06 5.00190
2.15926E+06 4.97621
2.15926E+06 4.97621
2.20000E+06 4.92575
2.27096E+06 4.84061
2.27096E+06 4.84061
2.30000E+06 4.80677
2.31738E+06 4.78679
2.31738E+06 4.78679
2.32414E+06 4.77908
2.32414E+06 4.77908
2.36620E+06 4.73177
2.36620E+06 4.73177
2.40000E+06 4.69462
2.41487E+06 4.67852
2.41487E+06 4.67852
2.45567E+06 4.63508
2.45567E+06 4.63508
2.49896E+06 4.59016
2.49896E+06 4.59016
2.50000E+06 4.58910
2.50485E+06 4.58421
2.50485E+06 4.58421
2.60000E+06 4.48877
2.70000E+06 4.39123
2.80000E+06 4.29866
2.90000E+06 4.21254
3.00000E+06 4.13393
3.10000E+06 4.07055
3.20000E+06 4.02339
3.50000E+06 3.93107
4.00000E+06 3.84264
4.50000E+06 3.82817
5.00000E+06 3.87323
5.50000E+06 3.94289
5.62760E+06 3.96503
5.62760E+06 3.96503
5.78648E+06 3.99457
5.78648E+06 3.99457
5.81118E+06 3.99907
5.81118E+06 3.99907
5.93592E+06 4.02024
5.93592E+06 4.02024
5.98642E+06 4.02778
5.98642E+06 4.02778
6.00000E+06 4.02968
6.11040E+06 4.04402
6.11040E+06 4.04402
6.38275E+06 4.07549
6.38275E+06 4.07549
6.38300E+06 4.07552
6.38301E+06 4.07552
6.48743E+06 4.08844
6.48743E+06 4.08844
6.50000E+06 4.09009
6.52974E+06 4.09407
6.52974E+06 4.09407
6.53580E+06 4.09488
6.53580E+06 4.09488
6.53836E+06 4.09522
6.53836E+06 4.09522
6.54225E+06 4.09574
6.54225E+06 4.09574
6.61568E+06 4.10550
6.61569E+06 4.10550
6.63346E+06 4.10785
6.63346E+06 4.10785
6.67355E+06 4.11313
6.67355E+06 4.11313
6.69577E+06 4.11606
6.69577E+06 4.11606
6.96087E+06 4.15070
6.96087E+06 4.15070
7.00000E+06 4.15582
7.00042E+06 4.15587
7.00042E+06 4.15587
7.11299E+06 4.17073
7.11299E+06 4.17073
7.17375E+06 4.17869
7.17376E+06 4.17869
7.50000E+06 4.22051
7.87420E+06 4.26987
7.87421E+06 4.26987
8.00000E+06 4.28427
8.50000E+06 4.31717
9.00000E+06 4.34430
9.50000E+06 4.35784
1.00000E+07 4.36263
1.05000E+07 4.37673
1.06639E+07 4.37936
1.06639E+07 4.37936
1.10000E+07 4.38131
1.15000E+07 4.37498
1.20000E+07 4.35846
1.24231E+07 4.34089
1.24231E+07 4.34089
1.25000E+07 4.33733
1.30000E+07 4.31085
1.34078E+07 4.28008
1.34078E+07 4.28007
1.35000E+07 4.27183
1.40000E+07 4.22298
1.45000E+07 4.18598
1.50000E+07 4.14169
1.55000E+07 4.09113
1.56169E+07 4.07914
1.60000E+07 4.03717
1.65000E+07 3.97385
1.70000E+07 3.90659
1.75000E+07 3.84015
1.78635E+07 3.79361
1.80000E+07 3.77648
1.85000E+07 3.71542
1.90000E+07 3.65692
1.90262E+07 3.65393
1.90263E+07 3.65392
1.95000E+07 3.60177
2.00000E+07 3.54998
2.10000E+07 3.45960
2.20000E+07 3.38502
2.30000E+07 3.32644
2.40000E+07 3.27673
2.50000E+07 3.21990
2.60000E+07 3.16733
2.70000E+07 3.12910
2.80000E+07 3.09802
2.90000E+07 3.07508
3.00000E+07 3.06216