Cd-116(n,g) ENDF/B-VII.1
Energy(eV) XS(b)
1.00000E-05 3.83151
1.25000E-05 3.42701
1.50000E-05 3.12842
2.00000E-05 2.70929
2.75000E-05 2.31049
3.50000E-05 2.04803
4.25000E-05 1.85856
5.00000E-05 1.71350
6.25000E-05 1.53260
7.50000E-05 1.39907
0.000100000 1.21163
0.000125000 1.08371
0.000150000 0.989291
0.000200000 0.856751
0.000275000 0.730639
0.000350000 0.647642
0.000425000 0.587725
0.000500000 0.541856
0.000625000 0.484650
0.000750000 0.442422
0.00100000 0.383148
0.00125000 0.342698
0.00150000 0.312838
0.00200000 0.270925
0.00275000 0.231044
0.00350000 0.204798
0.00425000 0.185850
0.00500000 0.171344
0.00625000 0.153253
0.00750000 0.139899
0.0100000 0.121154
0.0125000 0.108361
0.0150000 0.0989181
0.0200000 0.0856624
0.0253000 0.0761601
0.0314750 0.0682787
0.0376500 0.0624260
0.0500000 0.0541654
0.0625000 0.0484424
0.0750000 0.0442175
0.100000 0.0382863
0.125000 0.0342379
0.150000 0.0312489
0.200000 0.0270522
0.275000 0.0230573
0.350000 0.0204267
0.500000 0.0170713
0.750000 0.0139131
1.00000 0.0120272
1.50000 0.00978526
2.00000 0.00844492
2.75000 0.00716580
3.50000 0.00632157
5.00000 0.00524331
7.50000 0.00423379
10.0000 0.00364845
15.0000 0.00306342
20.0000 0.00317079
22.2361 0.00378630
23.3541 0.00450063
24.4721 0.00588775
25.5901 0.00897591
26.1491 0.0121137
26.7082 0.0178981
26.9877 0.0228049
27.2672 0.0303314
27.5467 0.0427182
27.8262 0.0652265
27.9659 0.0841003
28.1057 0.112758
28.2454 0.159322
28.3852 0.242452
28.4551 0.310968
28.5250 0.413297
28.5948 0.575863
28.6647 0.856805
28.7346 1.40548
28.7695 1.89958
28.8045 2.70333
28.8394 4.13480
28.8569 5.30498
28.8743 7.02862
28.8918 9.69313
28.9093 14.0508
28.9267 21.6056
28.9442 35.0734
28.9617 56.1331
28.9792 70.2404
28.9968 56.2055
29.0143 35.0957
29.0348 19.9865
29.0553 12.3024
29.0758 8.17898
29.0963 5.78310
29.1168 4.28672
29.1373 3.29737
29.1783 2.11769
29.2193 1.47147
29.2602 1.08080
29.3422 0.653360
29.4242 0.437314
29.5062 0.313317
29.5881 0.235646
29.6701 0.183816
29.8341 0.121098
29.9980 0.0860361
30.1620 0.0644647
30.3259 0.0502509
30.6538 0.0332660
30.9817 0.0238817
31.3096 0.0181496
31.6375 0.0143893
32.2933 0.00990971
32.9491 0.00743577
34.2607 0.00492033
35.5723 0.00371489
36.8839 0.00303352
39.5072 0.00230942
44.7536 0.00170020
50.0000 0.00141575
62.5000 0.00107007
75.0000 0.000877051
100.000 0.000647685
150.000 0.000422060
200.000 0.000314255
275.000 0.000237098
350.000 0.000206621
425.000 0.000203840
500.000 0.000231325
544.163 0.000276735
588.325 0.000394372
610.406 0.000547166
632.488 0.000965601
643.528 0.00154083
654.569 0.00317217
660.089 0.00544911
662.850 0.00773584
665.610 0.0119395
668.370 0.0210006
669.750 0.0300890
671.130 0.0467642
671.820 0.0608978
672.510 0.0825961
673.200 0.118415
673.890 0.183876
674.235 0.239156
674.580 0.323692
674.925 0.462496
675.270 0.714290
675.443 0.925244
675.615 1.24552
675.788 1.76602
675.960 2.69620
676.047 3.46437
676.133 4.61205
676.219 6.44183
676.305 9.61245
676.392 15.8498
676.435 21.4992
676.478 30.7593
676.521 47.4836
676.543 61.3311
676.564 81.8708
676.586 114.285
676.607 168.232
676.629 265.218
676.650 444.618
676.670 712.476
676.691 890.027
676.711 711.072
676.731 444.636
676.744 323.390
676.757 239.828
676.783 142.566
676.809 92.5506
676.835 64.4654
676.861 47.2311
676.887 36.0462
676.938 22.8993
676.990 15.7841
677.042 11.5246
677.146 6.90945
677.250 4.59451
677.353 3.27450
677.457 2.45095
677.561 1.90300
677.768 1.24196
677.976 0.874014
678.183 0.648237
678.391 0.499944
678.806 0.323266
679.220 0.226115
679.635 0.167029
680.050 0.128437
680.880 0.0827571
681.710 0.0577860
682.540 0.0426612
683.370 0.0328117
685.029 0.0211880
686.689 0.0148521
690.008 0.00853197
693.328 0.00559860
696.647 0.00400338
703.285 0.00241846
716.563 0.00129873
729.840 0.000926467
743.117 0.000776674
756.394 0.000721260
782.949 0.000757042
809.503 0.000971245
822.781 0.00119735
836.058 0.00160419
849.335 0.00245363
855.974 0.00328803
862.612 0.00480118
865.932 0.00607585
869.251 0.00802790
872.570 0.0112468
875.890 0.0171387
877.549 0.0221273
879.209 0.0297858
880.869 0.0424337
882.528 0.0655846
883.358 0.0851679
884.188 0.115183
885.018 0.164619
885.848 0.254726
886.263 0.330612
886.678 0.446377
887.092 0.635822
887.507 0.977845
887.715 1.26312
887.922 1.69403
888.130 2.39027
888.337 3.62257
888.389 4.08065
888.441 4.63127
888.493 5.30109
888.545 6.12528
888.597 7.15932
888.648 8.47514
888.700 10.1919
888.726 11.2496
888.752 12.4799
888.804 15.6349
888.856 20.1428
888.908 26.8913
888.960 37.5904
888.986 45.4816
889.011 56.0157
889.037 70.5236
889.063 91.1621
889.089 121.774
889.115 168.684
889.141 243.490
889.167 363.892
889.199 582.604
889.230 728.220
889.262 582.658
889.293 364.501
889.320 239.539
889.347 163.821
889.374 117.008
889.401 87.0834
889.455 52.9644
889.509 35.3642
889.564 25.1839
889.618 18.8216
889.726 11.6220
889.834 7.87296
889.942 5.68020
890.050 4.28922
890.158 3.35240
890.374 2.20826
890.591 1.56360
890.807 1.16489
891.023 0.901283
891.455 0.585399
891.888 0.410661
892.320 0.303946
892.753 0.234069
893.618 0.151131
894.483 0.105674
895.347 0.0781019
896.212 0.0601310
897.942 0.0389130
899.672 0.0273473
901.402 0.0203620
903.132 0.0158267
906.591 0.0105008
910.051 0.00762364
913.510 0.00590670
916.970 0.00481067
923.889 0.00357207
930.808 0.00296644
944.647 0.00256651
958.485 0.00271387
972.323 0.00329425
986.162 0.00449729
1000.00 0.00699151
1006.07 0.00894425
1012.13 0.0119521
1018.20 0.0169247
1024.26 0.0260218
1027.29 0.0337082
1030.33 0.0454711
1033.36 0.0648173
1036.39 0.0999805
1037.91 0.129537
1039.42 0.174505
1040.94 0.247868
1041.70 0.303313
1042.08 0.338305
1042.46 0.379733
1042.84 0.429422
1043.22 0.489383
1043.59 0.562854
1043.97 0.654216
1044.16 0.708628
1044.35 0.769780
1044.73 0.918901
1045.11 1.11593
1045.49 1.38375
1045.87 1.76073
1046.25 2.31507
1046.63 3.17758
1047.01 4.62485
1047.20 5.74981
1047.38 7.32487
1047.57 9.64912
1047.76 13.2254
1047.95 19.1740
1048.14 29.8418
1048.24 38.6011
1048.33 51.3228
1048.43 70.1961
1048.52 97.7845
1048.66 156.548
1048.80 195.353
1048.94 156.195
1049.08 97.8487
1049.22 59.3540
1049.37 38.1719
1049.51 26.1315
1049.66 18.8463
1049.80 14.1692
1049.94 11.0115
1050.23 7.18018
1050.52 5.03077
1050.81 3.71498
1051.38 2.26063
1051.96 1.51650
1052.53 1.08742
1053.11 0.817470
1053.68 0.636762
1054.83 0.417369
1055.98 0.294588
1057.13 0.218925
1058.28 0.169114
1060.59 0.109597
1062.89 0.0768079
1065.19 0.0568454
1067.49 0.0438044
1072.09 0.0283828
1076.69 0.0199899
1081.30 0.0149552
1085.90 0.0117446
1095.10 0.00826720
1104.31 0.00741436
1108.91 0.00848882
1111.21 0.00998757
1113.51 0.0130245
1115.82 0.0199021
1116.97 0.0269284
1118.12 0.0398964
1119.27 0.0678759
1119.84 0.0958338
1120.42 0.146887
1120.71 0.190017
1120.99 0.255949
1121.28 0.364097
1121.57 0.559046
1121.71 0.722455
1121.86 0.970048
1122.00 1.37132
1122.14 2.07875
1122.22 2.66266
1122.29 3.53185
1122.36 4.90680
1122.43 7.26928
1122.50 11.8410
1122.54 15.9186
1122.58 22.4865
1122.61 34.0047
1122.65 56.7207
1122.67 77.0779
1122.68 109.419
1122.70 163.234
1122.72 247.828
1122.74 397.878
1122.76 498.483
1122.78 397.883
1122.80 247.834
1122.81 167.151
1122.83 116.557
1122.85 84.5636
1122.86 63.6114
1122.89 39.2812
1122.93 26.4621
1122.96 18.9691
1122.99 14.2372
1123.05 8.84493
1123.12 6.01529
1123.18 4.35199
1123.25 3.29319
1123.31 2.58756
1123.44 1.70806
1123.57 1.21132
1123.69 0.903715
1123.82 0.701471
1124.08 0.456720
1124.33 0.321616
1124.59 0.238687
1124.84 0.184532
1125.35 0.120035
1125.86 0.0846314
1126.89 0.0490837
1127.91 0.0324629
1128.93 0.0233618
1130.97 0.0142203
1135.06 0.00753250
1139.15 0.00507888
1143.24 0.00387071
1147.32 0.00316490
1155.50 0.00237886
1171.85 0.00167912
1188.19 0.00136523
1220.89 0.00114319
1253.59 0.00122623
1286.28 0.00168988
1302.63 0.00222171
1318.98 0.00323294
1327.16 0.00410167
1335.33 0.00544353
1343.50 0.00766914
1351.68 0.0117575
1355.77 0.0152251
1359.85 0.0205508
1363.94 0.0293476
1368.03 0.0454484
1370.07 0.0590662
1372.11 0.0799223
1374.16 0.114273
1376.20 0.176804
1377.22 0.229435
1378.25 0.309688
1379.27 0.440904
1380.29 0.677186
1380.80 0.874076
1381.31 1.17122
1381.82 1.65021
1382.33 2.49612
1382.59 3.18759
1382.84 4.20590
1383.10 5.80846
1383.23 6.97505
1383.29 7.69395
1383.35 8.51514
1383.42 9.49063
1383.48 10.6424
1383.55 12.0151
1383.61 13.6683
1383.67 15.6832
1383.74 18.1715
1383.80 21.2910
1383.87 25.1992
1383.93 30.3521
1383.99 37.2056
1384.06 46.5613
1384.12 59.4755
1384.18 78.4968
1384.25 107.140
1384.31 151.601
1384.38 219.553
1384.46 352.056
1384.54 438.979
1384.58 412.887
1384.63 350.393
1384.71 219.557
1384.80 131.094
1384.89 83.3671
1384.98 56.6384
1385.07 40.6332
1385.15 30.4332
1385.24 23.5842
1385.42 15.2979
1385.60 10.6937
1385.78 7.88419
1386.13 4.78427
1386.49 3.20594
1386.85 2.29595
1387.20 1.72442
1387.56 1.34229
1388.27 0.879216
1388.98 0.620074
1389.69 0.460618
1390.40 0.355712
1391.83 0.230298
1393.25 0.161210
1394.68 0.119103
1396.10 0.0915969
1398.95 0.0589952
1401.79 0.0411703
1404.64 0.0303731
1407.49 0.0233432
1413.18 0.0150512
1418.88 0.0105376
1424.57 0.00781422
1430.26 0.00604778
1441.65 0.00397787
1453.04 0.00286735
1464.43 0.00221653
1475.82 0.00181998
1498.60 0.00147603
1509.99 0.00149468
1521.37 0.00170253
1532.76 0.00231874
1538.46 0.00299240
1544.15 0.00426653
1547.00 0.00536167
1549.85 0.00705465
1552.69 0.00986587
1555.54 0.0150352
1556.97 0.0194225
1558.39 0.0261583
1559.81 0.0372912
1561.24 0.0576432
1561.95 0.0748506
1562.66 0.101200
1563.37 0.144529
1564.08 0.223159
1564.44 0.289248
1564.79 0.389808
1565.15 0.553743
1565.51 0.848046
1565.68 1.09205
1565.86 1.45870
1566.04 2.04623
1566.13 2.48268
1566.22 3.07483
1566.31 3.90631
1566.40 5.12511
1566.44 5.96962
1566.49 7.01315
1566.53 8.38865
1566.57 10.1613
1566.62 12.6175
1566.66 15.9773
1566.71 20.9838
1566.75 28.4737
1566.80 40.9632
1566.84 62.4689
1566.86 79.5428
1566.89 103.665
1566.91 138.279
1566.93 187.696
1566.97 301.764
1567.00 374.943
1567.04 298.461
1567.07 187.749
1567.11 114.847
1567.14 74.3160
1567.18 51.0916
1567.21 37.2706
1567.25 28.0543
1567.29 21.9654
1567.36 14.3798
1567.43 10.1134
1567.50 7.48862
1567.64 4.57015
1567.78 3.06569
1567.93 2.20182
1568.07 1.65723
1568.21 1.29211
1568.49 0.847253
1568.78 0.598693
1569.06 0.445400
1569.35 0.344263
1569.92 0.223184
1570.48 0.156382
1571.05 0.115672
1571.62 0.0890843
1572.76 0.0575090
1573.90 0.0402375
1575.03 0.0297651
1576.17 0.0229402
1578.45 0.0148777
1580.72 0.0104796
1583.00 0.00781910
1585.27 0.00608824
1589.82 0.00404433
1594.37 0.00292845
1598.92 0.00225157
1603.47 0.00180951
1612.57 0.00128419
1621.67 0.000994195
1639.86 0.000699522
1658.06 0.000560897
1676.26 0.000488182
1712.66 0.000438114
1749.05 0.000479368
1767.25 0.000548665
1785.45 0.000685795
1803.65 0.000983736
1821.84 0.00181717
1830.94 0.00296403
1840.04 0.00620401
1844.59 0.0107099
1849.14 0.0235030
1851.42 0.0413045
1852.55 0.0591040
1853.69 0.0916686
1854.83 0.161420
1855.40 0.230861
1855.96 0.356921
1856.25 0.463209
1856.53 0.624485
1856.82 0.887427
1857.10 1.35953
1857.24 1.75432
1857.39 2.34443
1857.53 3.29070
1857.67 4.94905
1857.81 8.26011
1857.88 11.3149
1857.95 16.4195
1858.03 25.8821
1858.06 34.0868
1858.10 46.3408
1858.13 67.0213
1858.17 102.766
1858.20 175.026
1858.22 237.705
1858.24 327.060
1858.27 524.868
1858.29 654.197
1858.32 524.885
1858.35 327.077
1858.38 199.912
1858.40 130.442
1858.43 90.2242
1858.46 65.5571
1858.48 49.5605
1858.51 38.6789
1858.56 25.3382
1858.62 17.8284
1858.67 13.2055
1858.78 8.06247
1858.89 5.42360
1859.00 3.89459
1859.10 2.93092
1859.21 2.28496
1859.43 1.50009
1859.64 1.05968
1859.86 0.788183
1860.08 0.609101
1860.51 0.394680
1860.94 0.276644
1861.37 0.204665
1861.81 0.157563
1862.67 0.101662
1863.53 0.0710895
1865.26 0.0404561
1866.99 0.0261899
1868.72 0.0184137
1872.18 0.0106682
1879.09 0.00515279
1886.01 0.00327191
1892.92 0.00246430
1899.84 0.00210326
1913.67 0.00204316
1920.58 0.00227692
1927.50 0.00274536
1934.41 0.00360671
1941.33 0.00526163
1944.79 0.00668748
1948.24 0.00889108
1951.70 0.0125468
1955.16 0.0192530
1956.89 0.0249318
1958.62 0.0336398
1960.35 0.0479838
1962.07 0.0741039
1962.94 0.0961124
1963.80 0.129640
1964.67 0.184539
1965.53 0.283444
1965.97 0.366043
1966.40 0.490490
1966.83 0.691161
1967.05 0.841126
1967.15 0.935091
1967.26 1.04571
1967.48 1.33497
1967.59 1.52672
1967.69 1.76282
1967.80 2.05804
1967.91 2.43380
1968.02 2.92211
1968.13 3.57250
1968.23 4.46482
1968.34 5.73421
1968.45 7.62351
1968.56 10.6024
1968.67 15.6670
1968.72 19.6191
1968.77 25.1860
1968.83 33.2999
1968.88 45.5635
1968.94 64.6974
1968.99 94.7177
1969.06 152.049
1969.13 189.710
1969.20 151.444
1969.27 94.9250
1969.33 61.8217
1969.39 42.1828
1969.45 30.1176
1969.51 22.3883
1969.63 13.6072
1969.75 9.07610
1969.87 6.46274
1969.99 4.82738
1970.23 2.97990
1970.47 2.01830
1970.71 1.45603
1970.95 1.09941
1971.19 0.859264
1971.67 0.565663
1972.15 0.400589
1972.63 0.298487
1973.11 0.230982
1974.07 0.150036
1975.03 0.105302
1975.99 0.0779603
1976.95 0.0600724
1978.87 0.0388301
1980.79 0.0271865
1982.71 0.0201223
1984.63 0.0155188
1988.48 0.0100769
1992.32 0.00710795
1996.16 0.00531147
2000.00 0.00414302
2005.66 0.00304555
2011.32 0.00235970
2022.64 0.00158401
2033.96 0.00118076
2045.28 0.000947435
2067.93 0.000711018
2090.57 0.000614422
2135.85 0.000600648
2181.14 0.000752067
2203.78 0.000910949
2226.42 0.00116789
2249.06 0.00160267
2271.70 0.00240710
2283.03 0.00308978
2294.35 0.00413745
2305.67 0.00586436
2316.99 0.00901458
2322.65 0.0116696
2328.31 0.0157239
2333.97 0.0223702
2339.63 0.0343972
2342.46 0.0444567
2345.29 0.0596957
2348.12 0.0844010
2349.54 0.102960
2350.95 0.128400
2351.66 0.144826
2352.37 0.164620
2353.08 0.188767
2353.78 0.218594
2354.49 0.256144
2354.84 0.278651
2355.20 0.304176
2355.91 0.367167
2356.61 0.451744
2357.32 0.569332
2358.03 0.738939
2358.74 0.996928
2359.44 1.41474
2359.80 1.72829
2360.15 2.15620
2360.50 2.75963
2360.86 3.64159
2361.21 5.00000
2361.57 7.20348
2361.92 10.9800
2362.27 17.5929
2362.64 28.1423
2363.00 35.1642
2363.36 28.1236
2363.73 17.5763
2364.08 11.0245
2364.43 7.27575
2364.77 5.07147
2365.12 3.70472
2365.47 2.80944
2365.82 2.19905
2366.51 1.44639
2367.21 1.01986
2367.91 0.756796
2369.30 0.463119
2370.69 0.311880
2372.08 0.224160
2373.48 0.168768
2374.87 0.131636
2377.65 0.0864661
2380.44 0.0611054
2383.22 0.0454664
2386.01 0.0351500
2391.58 0.0228195
2397.15 0.0160151
2402.72 0.0118697
2408.29 0.00916025
2419.43 0.00595532
2430.57 0.00420954
2441.71 0.00316110
2452.85 0.00248968
2475.13 0.00174323
2497.41 0.00146353
2508.55 0.00151509
2519.69 0.00192427
2530.83 0.00451795
2533.62 0.00723941
2536.40 0.0149875
2537.79 0.0257686
2539.19 0.0562081
2539.88 0.0982854
2540.58 0.215693
2540.93 0.375309
2541.10 0.531657
2541.27 0.810974
2541.45 1.38600
2541.54 1.93451
2541.62 2.88554
2541.71 4.75245
2541.75 6.46791
2541.80 9.21332
2541.84 14.2726
2541.86 18.4789
2541.88 24.4274
2541.91 34.1593
2541.93 50.4935
2541.95 79.8255
2541.97 131.119
2541.99 211.677
2542.01 261.941
2542.03 207.623
2542.05 130.823
2542.07 93.7216
2542.08 69.9685
2542.11 41.2171
2542.13 26.6426
2542.16 18.4814
2542.19 13.5163
2542.21 10.2921
2542.27 6.51806
2542.32 4.48679
2542.38 3.27305
2542.48 1.96759
2542.59 1.30672
2542.70 0.930311
2542.91 0.541282
2543.13 0.353093
2543.35 0.248849
2543.78 0.142644
2544.64 0.0649597
2545.50 0.0372839
2547.22 0.0172506
2548.95 0.0101798
2555.84 0.00332928
2569.63 0.00170787
2583.41 0.00162324
2597.20 0.00200052
2610.99 0.00306410
2617.88 0.00418988
2624.78 0.00629156
2631.67 0.0108577
2635.12 0.0154505
2638.56 0.0238848
2642.01 0.0420250
2643.73 0.0601718
2645.46 0.0933330
2646.32 0.121352
2647.18 0.164230
2648.04 0.234678
2648.90 0.362388
2649.33 0.469558
2649.77 0.632395
2650.20 0.897325
2650.63 1.37002
2650.84 1.76239
2651.06 2.34733
2651.27 3.28499
2651.49 4.90823
2651.70 8.12664
2651.81 11.0622
2651.92 15.8475
2652.03 24.5989
2652.08 31.8980
2652.13 42.6148
2652.19 59.8694
2652.24 89.1147
2652.30 142.422
2652.35 241.247
2652.40 386.983
2652.45 481.260
2652.50 383.822
2652.54 241.253
2652.59 147.908
2652.64 95.8606
2652.69 65.9737
2652.74 48.0546
2652.79 36.2010
2652.84 28.1752
2652.93 18.4572
2653.03 12.9439
2653.13 9.59216
2653.32 5.86035
2653.52 3.93671
2653.71 2.82413
2653.91 2.12382
2654.10 1.65683
2654.49 1.08662
2654.88 0.767698
2655.27 0.570649
2655.66 0.441053
2656.44 0.285950
2657.22 0.200346
2658.00 0.148164
2658.78 0.114026
2660.33 0.0735535
2661.89 0.0513899
2665.01 0.0291963
2668.12 0.0188483
2671.24 0.0132028
2677.47 0.00756176
2689.93 0.00350338
2702.39 0.00206873
2714.86 0.00139723
2727.32 0.00102790
2752.24 0.000653618
2777.17 0.000475801
2802.09 0.000377790
2851.94 0.000284958
2901.79 0.000264248
2951.64 0.000326302
3001.49 0.000792379
3026.42 0.00268824
3032.65 0.00464732
3038.88 0.0102202
3042.00 0.0179852
3045.11 0.0399969
3046.67 0.0705274
3047.45 0.100971
3048.23 0.156474
3049.01 0.274520
3049.40 0.391411
3049.79 0.601878
3049.98 0.777782
3050.18 1.04372
3050.37 1.47343
3050.57 2.22959
3050.66 2.85410
3050.76 3.77041
3050.86 5.20835
3050.95 7.65094
3051.05 12.3629
3051.10 16.5168
3051.15 22.9524
3051.20 34.1867
3051.25 55.0137
3051.27 73.7117
3051.30 101.161
3051.32 144.211
3051.34 212.156
3051.37 341.809
3051.40 424.586
3051.44 337.343
3051.47 212.151
3051.49 133.530
3051.52 89.4448
3051.55 62.3029
3051.58 45.9461
3051.64 27.4220
3051.69 18.2078
3051.75 12.8556
3051.81 9.59132
3051.92 5.88995
3052.03 3.97647
3052.14 2.86243
3052.26 2.15796
3052.37 1.68458
3052.60 1.10612
3052.82 0.782526
3053.05 0.582627
3053.28 0.450578
3053.73 0.292244
3054.18 0.204941
3055.09 0.116686
3055.99 0.0752692
3056.90 0.0525774
3058.70 0.0298526
3062.32 0.0134767
3065.94 0.00771708
3073.18 0.00361299
3080.42 0.00222879
3094.90 0.00177221
3102.14 0.00387066
3105.76 0.0129544
3107.57 0.0487114
3108.02 0.0849837
3108.47 0.185169
3108.70 0.319671
3108.92 0.679706
3109.04 1.14317
3109.09 1.58037
3109.15 2.30681
3109.21 3.70528
3109.23 4.90174
3109.26 6.77110
3109.29 10.0578
3109.32 15.9858
3109.33 20.9622
3109.35 28.3737
3109.36 39.7257
3109.37 57.6280
3109.39 91.8379
3109.41 115.099
3109.43 91.8330
3109.45 57.4720
3109.47 35.0919
3109.49 22.7778
3109.51 15.6963
3109.53 11.3744
3109.55 8.58191
3109.56 6.68755
3109.60 4.37172
3109.64 3.07177
3109.68 2.27308
3109.75 1.38615
3109.91 0.666217
3110.06 0.391161
3110.36 0.181342
3110.67 0.104516
3111.28 0.0477577
3111.89 0.0273999
3114.32 0.00737147
3119.20 0.00222868
3128.94 0.000868211
3148.44 0.000464739
3167.93 0.000375254
3187.42 0.000357900
3206.91 0.000388464
3226.41 0.000501805
3245.90 0.00103547
3255.65 0.00298575
3260.52 0.0105683
3261.74 0.0183426
3262.96 0.0402512
3263.57 0.0704214
3264.17 0.154454
3264.48 0.268591
3264.78 0.577468
3264.94 0.985782
3265.01 1.37127
3265.09 2.03522
3265.16 3.32518
3265.20 4.48082
3265.24 6.35147
3265.28 9.65726
3265.30 12.3395
3265.32 16.2626
3265.34 22.2712
3265.35 31.9789
3265.37 48.5440
3265.39 78.9806
3265.41 125.476
3265.43 157.979
3265.45 125.474
3265.47 78.9789
3265.49 45.2730
3265.52 27.8180
3265.54 18.4691
3265.56 13.0417
3265.59 9.65755
3265.61 7.42113
3265.65 4.79984
3265.70 3.32542
3265.75 2.43654
3265.84 1.47390
3265.93 0.981996
3266.02 0.702966
3266.20 0.410914
3266.57 0.189675
3266.93 0.108881
3267.66 0.0495749
3268.39 0.0283756
3271.31 0.00761322
3277.15 0.00238989
3288.83 0.00122449
3300.51 0.00125440
3312.20 0.00167881
3318.04 0.00208943
3323.88 0.00273995
3329.72 0.00383128
3335.56 0.00584539
3338.48 0.00755637
3341.40 0.0101848
3344.32 0.0145256
3347.24 0.0224643
3348.70 0.0291754
3350.16 0.0394413
3351.62 0.0563127
3353.08 0.0869607
3353.81 0.112675
3354.54 0.151775
3355.27 0.215451
3356.00 0.329601
3356.36 0.424102
3356.73 0.565904
3357.09 0.792689
3357.46 1.18861
3357.64 1.50881
3357.82 1.97432
3358.01 2.69692
3358.10 3.21228
3358.19 3.88908
3358.28 4.81323
3358.37 6.08751
3358.46 7.93054
3358.55 10.7258
3358.65 15.2873
3358.74 23.1262
3358.78 29.3639
3358.83 37.9020
3358.87 50.2882
3358.92 67.3737
3359.00 107.785
3359.07 134.751
3359.15 107.842
3359.22 67.4174
3359.30 42.5145
3359.37 28.1386
3359.44 19.6526
3359.51 14.3764
3359.66 8.55484
3359.80 5.64731
3359.94 3.98490
3360.09 2.95740
3360.37 1.81286
3360.66 1.22100
3360.95 0.878409
3361.24 0.661941
3361.52 0.516570
3362.10 0.339381
3362.67 0.239991
3363.25 0.178548
3363.82 0.138064
3364.97 0.0895585
3366.12 0.0627920
3367.27 0.0464654
3368.42 0.0357797
3370.72 0.0231031
3373.01 0.0161635
3375.31 0.0119555
3377.61 0.00921333
3382.21 0.00597546
3386.80 0.00421090
3391.40 0.00314478
3396.00 0.00245261
3405.19 0.00163957
3414.38 0.00120074
3423.58 0.000939634
3432.77 0.000774121
3451.16 0.000591788
3469.54 0.000511844
3506.31 0.000507007
3524.70 0.000568465
3543.09 0.000688056
3561.47 0.000905407
3579.86 0.00131988
3589.05 0.00167521
3598.25 0.00222246
3607.44 0.00312644
3616.63 0.00477809
3621.23 0.00617206
3625.83 0.00830405
3630.42 0.0118085
3635.02 0.0181794
3637.32 0.0235366
3639.62 0.0316971
3641.91 0.0450337
3644.21 0.0690770
3645.36 0.0891235
3646.51 0.119369
3647.66 0.168162
3648.81 0.254441
3649.38 0.324970
3649.67 0.371675
3649.96 0.429205
3650.25 0.501454
3650.53 0.593184
3650.82 0.712476
3651.11 0.871509
3651.39 1.09085
3651.68 1.40245
3651.97 1.86724
3652.26 2.60224
3652.40 3.14199
3652.54 3.86307
3652.69 4.85295
3652.83 6.24352
3652.97 8.29609
3653.12 11.3987
3653.26 16.3183
3653.40 24.0610
3653.59 38.5286
3653.77 48.0758
3653.95 38.3998
3654.13 24.0261
3654.25 17.3617
3654.36 12.8366
3654.60 7.56973
3654.84 4.89650
3655.07 3.39829
3655.31 2.48624
3655.55 1.89371
3656.02 1.20090
3656.50 0.826861
3656.97 0.603354
3657.92 0.361624
3658.86 0.240578
3659.81 0.171664
3660.76 0.128730
3661.71 0.100212
3663.60 0.0659259
3665.50 0.0469953
3667.39 0.0355811
3669.28 0.0283435
3673.07 0.0209380
3674.97 0.0198687
3676.86 0.0209747
3678.76 0.0263504
3680.65 0.0450532
3681.60 0.0722594
3682.55 0.149597
3683.02 0.255927
3683.26 0.360783
3683.50 0.548302
3683.73 0.939281
3683.85 1.31815
3683.97 1.97704
3684.09 3.30633
3684.15 4.52504
3684.21 6.56016
3684.27 10.3289
3684.30 13.6042
3684.32 18.4623
3684.35 26.6964
3684.38 40.8104
3684.41 69.4014
3684.43 94.1345
3684.44 128.534
3684.47 204.862
3684.49 256.926
3684.51 204.869
3684.53 128.540
3684.55 92.1760
3684.57 66.7711
3684.58 49.8477
3684.60 38.3108
3684.63 24.3584
3684.66 16.7145
3684.69 12.1325
3684.73 9.18817
3684.79 5.77719
3684.85 3.95934
3684.92 2.88013
3685.05 1.71892
3685.17 1.14125
3685.30 0.813034
3685.56 0.474341
3685.81 0.310933
3686.07 0.220427
3686.58 0.128283
3687.60 0.0607235
3688.62 0.0365011
3690.67 0.0186679
3692.71 0.0121004
3696.80 0.00697075
3700.89 0.00486947
3704.98 0.00372250
3709.07 0.00299392
3717.25 0.00211340
3725.43 0.00159962
3733.61 0.00126504
3749.96 0.000862204
3766.32 0.000634716
3782.68 0.000492752
3815.39 0.000331676
3848.11 0.000247646
3880.83 0.000199380
3946.26 0.000154069
4011.69 0.000148290
4044.40 0.000160977
4077.12 0.000192757
4109.83 0.000267954
4142.55 0.000483250
4175.26 0.00157877
4183.44 0.00266249
4191.62 0.00565689
4195.71 0.00974757
4199.80 0.0211997
4201.84 0.0369897
4203.89 0.0813366
4204.91 0.142384
4205.42 0.202813
4205.93 0.312187
4206.44 0.542187
4206.70 0.767349
4206.95 1.16664
4207.08 1.49617
4207.21 1.98774
4207.34 2.76756
4207.46 4.09901
4207.59 6.70452
4207.66 9.04195
4207.72 12.8307
4207.78 19.5379
4207.82 24.9887
4207.85 32.9711
4207.88 45.2141
4207.91 65.0175
4207.94 98.8138
4207.98 156.417
4208.01 251.297
4208.04 313.199
4208.08 251.492
4208.11 156.571
4208.15 88.6003
4208.19 53.9082
4208.23 35.5624
4208.27 25.0032
4208.31 18.4584
4208.35 14.1519
4208.43 9.09148
4208.51 6.29011
4208.59 4.60454
4208.75 2.77651
4208.91 1.84947
4209.07 1.32198
4209.38 0.770323
4209.70 0.503950
4210.02 0.355414
4210.66 0.204479
4211.30 0.133056
4211.93 0.0938799
4213.21 0.0546444
4215.76 0.0270972
4218.31 0.0190374
4220.86 0.0187887
4223.41 0.0288937
4224.69 0.0456072
4225.96 0.0944096
4226.60 0.162175
4227.24 0.350359
4227.56 0.604544
4227.72 0.852744
4227.87 1.28971
4228.03 2.18344
4228.11 3.02553
4228.19 4.44157
4228.27 7.18140
4228.31 9.60004
4228.35 13.3306
4228.39 19.8792
4228.43 32.4171
4228.45 43.3062
4228.47 60.0619
4228.49 86.7878
4228.51 127.333
4228.54 205.287
4228.56 254.713
4228.58 205.151
4228.61 127.227
4228.63 80.3070
4228.66 52.4077
4228.68 36.2277
4228.70 26.6339
4228.73 20.0906
4228.75 15.6508
4228.80 10.3067
4228.85 7.22852
4228.89 5.37299
4228.99 3.29633
4229.08 2.21627
4229.18 1.59118
4229.37 0.936145
4229.56 0.614871
4229.75 0.435548
4230.12 0.251419
4230.88 0.115551
4231.64 0.0667107
4233.16 0.0310979
4234.67 0.0183384
4240.74 0.00549369
4252.86 0.00180977
4277.12 0.000637889
4325.63 0.000260501
4374.14 0.000188075
4422.65 0.000180049
4471.16 0.000213690
4519.67 0.000332828
4543.93 0.000497838
4568.18 0.000957560
4592.44 0.00338538
4598.50 0.00588192
4604.56 0.0129709
4607.60 0.0228269
4610.63 0.0506963
4612.14 0.0891997
4612.90 0.127465
4613.66 0.196961
4614.42 0.343863
4614.80 0.488111
4615.18 0.746528
4615.55 1.28090
4615.74 1.79485
4615.93 2.68607
4616.12 4.46086
4616.22 6.08656
4616.31 8.74447
4616.41 13.6435
4616.45 17.7066
4616.50 23.8254
4616.55 33.8429
4616.60 50.7031
4616.64 81.8893
4616.69 143.248
4616.73 228.708
4616.77 286.458
4616.81 228.793
4616.85 143.315
4616.89 94.8949
4616.92 64.7966
4616.96 46.2721
4616.99 34.6716
4617.06 21.1689
4617.13 14.1595
4617.20 10.0559
4617.27 7.52580
4617.41 4.65765
4617.55 3.15179
4617.68 2.27721
4617.82 1.71813
4617.96 1.34427
4618.24 0.885775
4618.52 0.627251
4619.07 0.361926
4619.62 0.235083
4620.18 0.164998
4621.28 0.0940616
4623.50 0.0424359
4625.71 0.0241177
4630.14 0.0109117
4634.57 0.00626065
4652.28 0.00177844
4670.00 0.000990011
4687.71 0.000780254
4705.43 0.000803432
4723.15 0.00112704
4740.86 0.00300933
4749.72 0.0103925
4751.93 0.0179715
4754.15 0.0393947
4755.25 0.0690107
4756.36 0.152008
4756.92 0.265514
4757.19 0.377242
4757.47 0.576969
4757.75 0.992635
4757.88 1.39458
4758.02 2.09347
4758.16 3.49853
4758.23 4.78506
4758.30 6.92847
4758.37 10.8836
4758.40 14.2977
4758.44 19.3666
4758.47 27.8660
4758.51 42.3837
4758.54 71.2439
4758.56 94.9918
4758.58 128.881
4758.60 207.678
4758.63 257.728
4758.66 204.728
4758.69 128.919
4758.71 88.6288
4758.73 62.7360
4758.75 46.0252
4758.77 35.3480
4758.81 22.0216
4758.85 15.0413
4758.89 10.8062
4758.93 8.17429
4759.02 5.10624
4759.10 3.48444
4759.18 2.52664
4759.35 1.50092
4759.52 0.992863
4759.68 0.704983
4760.01 0.408481
4760.68 0.186898
4761.34 0.106934
4762.67 0.0485635
4763.99 0.0278195
4766.65 0.0128522
4769.30 0.00758792
4779.91 0.00258829
4790.52 0.00183799
4801.14 0.00183656
4811.75 0.00228668
4817.06 0.00276209
4822.36 0.00357623
4827.67 0.00515674
4832.98 0.00916432
4838.28 0.0286220
4839.61 0.0480423
4840.94 0.102210
4841.60 0.176441
4842.26 0.381486
4842.59 0.657602
4842.76 0.925630
4842.93 1.39575
4843.09 2.35121
4843.17 3.24558
4843.26 4.76399
4843.34 7.64807
4843.38 10.2074
4843.42 14.1475
4843.47 21.0208
4843.51 33.6299
4843.53 44.6260
4843.55 60.3506
4843.57 85.9410
4843.59 124.275
4843.62 198.579
4843.64 248.642
4843.67 198.615
4843.70 124.303
4843.73 72.3090
4843.76 44.6345
4843.79 29.7182
4843.82 21.2433
4843.85 15.7305
4843.88 12.1839
4843.94 7.84936
4844.00 5.46360
4844.06 4.01687
4844.18 2.42970
4844.31 1.62586
4844.43 1.16395
4844.67 0.681306
4844.92 0.446901
4845.16 0.316636
4845.65 0.183886
4846.63 0.0865396
4847.60 0.0520060
4849.56 0.0276360
4851.51 0.0198420
4853.47 0.0171509
4855.42 0.0168077
4859.33 0.0207225
4861.28 0.0252966
4863.24 0.0327468
4865.19 0.0452755
4867.14 0.0680852
4868.12 0.0870844
4869.10 0.115675
4870.07 0.161506
4871.05 0.241698
4871.54 0.306534
4872.03 0.401264
4872.27 0.466292
4872.52 0.548078
4872.76 0.653312
4873.01 0.791789
4873.25 0.979832
4873.49 1.24138
4873.74 1.62105
4873.98 2.19972
4874.23 3.14217
4874.35 3.84172
4874.47 4.78549
4874.59 6.08830
4874.72 7.92672
4874.84 10.5613
4874.96 14.3184
4875.16 22.9237
4875.36 28.6832
4875.55 22.9546
4875.75 14.3421
4875.96 8.56024
4876.17 5.44261
4876.38 3.69729
4876.59 2.65635
4876.81 1.98925
4877.02 1.54147
4877.44 1.00083
4877.86 0.699645
4878.28 0.516282
4879.12 0.313800
4879.97 0.210531
4880.81 0.150986
4881.65 0.113582
4882.49 0.0885932
4884.18 0.0582584
4885.86 0.0412804
4887.55 0.0308232
4889.23 0.0239284
4892.61 0.0156852
4895.98 0.0111340
4899.35 0.00835728
4902.72 0.00654114
4909.46 0.00439181
4916.20 0.00322645
4922.94 0.00253761
4929.68 0.00211384
4943.16 0.00172858
4956.65 0.00187926
4963.39 0.00237817
4970.13 0.00395640
4976.87 0.0126132
4978.56 0.0215336
4980.24 0.0467229
4981.08 0.0815033
4981.93 0.178501
4982.35 0.310735
4982.77 0.670982
4982.98 1.14795
4983.08 1.60088
4983.19 2.38507
4983.30 3.94228
4983.35 5.35947
4983.40 7.63499
4983.45 11.8069
4983.48 15.1902
4983.51 20.2041
4983.53 28.4049
4983.56 41.6302
4983.58 65.0836
4983.61 109.587
4983.64 174.562
4983.66 219.398
4983.69 174.681
4983.71 109.679
4983.73 80.2990
4983.74 59.4517
4983.77 35.1789
4983.81 22.7993
4983.84 15.8417
4983.87 11.5988
4983.90 8.83898
4983.96 5.63968
4984.03 3.88056
4984.09 2.82991
4984.22 1.69934
4984.35 1.12840
4984.47 0.805252
4984.73 0.468938
4985.24 0.215899
4985.75 0.123898
4986.76 0.0565574
4987.78 0.0325387
4991.86 0.00905547
5000.00 0.00318817
5009.24 0.00218676
5018.48 0.00212430
5027.73 0.00250480
5036.97 0.00344542
5046.21 0.00563152
5050.83 0.00786253
5055.45 0.0119723
5057.76 0.0154592
5060.07 0.0208080
5062.38 0.0296281
5064.69 0.0457030
5065.85 0.0592498
5067.00 0.0799000
5068.16 0.113678
5069.31 0.174612
5069.89 0.225431
5070.47 0.302025
5071.05 0.425786
5071.62 0.644136
5071.91 0.822630
5072.20 1.08682
5072.49 1.50149
5072.78 2.20284
5073.07 3.53946
5073.21 4.71420
5073.36 6.55604
5073.50 9.71631
5073.65 15.6308
5073.72 20.6767
5073.79 28.3098
5073.86 40.2317
5073.93 58.9577
5074.03 94.5928
5074.12 118.009
5074.21 94.1402
5074.30 58.9243
5074.36 43.6842
5074.41 33.0894
5074.53 20.1674
5074.64 13.3224
5074.75 9.37635
5074.86 6.92748
5074.97 5.31448
5075.19 3.40613
5075.41 2.35923
5075.63 1.72839
5076.08 1.04140
5076.52 0.694336
5076.96 0.495972
5077.41 0.371643
5077.85 0.288971
5078.74 0.188970
5079.63 0.133184
5080.51 0.0989295
5081.40 0.0764002
5083.17 0.0495477
5084.95 0.0347650
5086.72 0.0257694
5088.50 0.0198917
5092.04 0.0129324
5095.59 0.00912657
5102.69 0.00532114
5109.78 0.00355332
5116.88 0.00259426
5131.07 0.00165346
5145.26 0.00124252
5159.45 0.00105300
5187.84 0.00100218
5202.03 0.00110621
5216.22 0.00132362
5230.41 0.00172886
5244.60 0.00251008
5251.70 0.00318208
5258.80 0.00421756
5265.89 0.00592547
5272.99 0.00903127
5276.53 0.0116365
5280.08 0.0155938
5283.63 0.0220277
5287.18 0.0335296
5288.95 0.0430243
5290.73 0.0572301
5292.50 0.0798593
5293.39 0.0965745
5294.27 0.119138
5295.16 0.150617
5295.61 0.171261
5296.05 0.196376
5296.49 0.227490
5296.94 0.266471
5297.38 0.316426
5297.82 0.381513
5298.27 0.468851
5298.71 0.589022
5299.15 0.761166
5299.60 1.01754
5300.04 1.42203
5300.48 2.09892
5300.71 2.61524
5300.93 3.31421
5301.15 4.27759
5301.37 5.58271
5301.78 8.93059
5302.19 11.1499
5302.60 8.90730
5303.01 5.56419
5303.33 3.81979
5303.64 2.70385
5303.96 1.98380
5304.27 1.50485
5304.90 0.939893
5305.53 0.637704
5306.16 0.459123
5306.78 0.345807
5308.04 0.215841
5309.30 0.147185
5310.55 0.106711
5311.81 0.0808596
5313.07 0.0633852
5315.58 0.0419437
5318.09 0.0298009
5320.60 0.0222677
5323.12 0.0172758
5328.14 0.0112809
5333.17 0.00795569
5338.20 0.00592165
5343.22 0.00458767
5353.27 0.00300140
5363.32 0.00213014
5373.38 0.00160075
5383.43 0.00125534
5403.53 0.000847576
5423.63 0.000626890
5443.74 0.000496784
5463.84 0.000417471
5504.05 0.000351139
5524.15 0.000358914
5544.26 0.000408924
5564.36 0.000551351
5584.46 0.000996867
5604.57 0.00346013
5614.62 0.0132705
5617.13 0.0233593
5619.64 0.0518584
5620.90 0.0911964
5622.16 0.200937
5622.79 0.350010
5623.10 0.495928
5623.41 0.756399
5623.73 1.29194
5623.88 1.80206
5624.04 2.68516
5624.20 4.41448
5624.28 5.98928
5624.36 8.52856
5624.43 13.1377
5624.47 16.8841
5624.51 22.4227
5624.55 31.3085
5624.59 45.6878
5624.63 70.9478
5624.67 117.108
5624.71 187.131
5624.75 234.123
5624.78 187.131
5624.82 117.108
5624.86 75.4201
5624.89 50.2805
5624.93 35.2888
5624.96 25.9024
5625.03 15.4791
5625.10 10.2720
5625.17 7.25681
5625.24 5.41138
5625.38 3.32298
5625.52 2.24334
5625.66 1.61478
5625.93 0.950259
5626.21 0.624121
5626.49 0.441501
5627.05 0.254196
5628.16 0.115634
5629.27 0.0658495
5631.50 0.0296853
5633.72 0.0168601
5638.18 0.00762039
5642.63 0.00436419
5660.44 0.00120577
5678.24 0.000617667
5696.05 0.000412933
5731.67 0.000274924
5767.28 0.000244934
5802.90 0.000263751
5838.51 0.000338475
5874.13 0.000559862
5891.94 0.000960753
5900.84 0.00199601
5905.29 0.00563359
5907.52 0.0195975
5908.63 0.0731443
5909.19 0.270692
5909.33 0.459335
5909.47 0.944217
5909.54 1.54306
5909.61 2.91621
5909.64 4.42223
5909.68 7.40984
5909.71 14.4089
5909.73 21.3639
5909.75 33.0446
5909.76 52.8349
5909.78 66.0198
5909.80 52.8472
5909.82 33.0544
5909.83 24.2119
5909.85 18.0623
5909.87 11.0208
5909.89 7.17114
5909.92 5.06504
5909.96 2.85466
5910.01 1.82046
5910.10 0.921240
5910.20 0.556564
5910.38 0.265416
5910.57 0.154964
5911.32 0.0415355
5912.82 0.0114887
5915.81 0.00383906
5921.80 0.00215011
5933.77 0.00277444
5945.75 0.00751586
5951.74 0.0247259
5953.24 0.0420181
5954.73 0.0903764
5955.48 0.156620
5956.23 0.339492
5956.61 0.585879
5956.79 0.824182
5956.98 1.24472
5957.17 2.09374
5957.26 2.89195
5957.35 4.22912
5957.45 6.78854
5957.49 9.02560
5957.54 12.4578
5957.59 18.3794
5957.63 29.4708
5957.66 39.1337
5957.68 53.0716
5957.70 74.5044
5957.73 108.852
5957.76 173.364
5957.79 217.906
5957.82 173.762
5957.85 109.163
5957.87 80.7740
5957.89 61.4056
5957.92 37.3216
5957.96 24.6050
5958.00 17.2926
5958.04 12.7630
5958.07 9.78379
5958.15 6.25283
5958.22 4.32964
5958.29 3.17152
5958.44 1.91492
5958.59 1.27675
5958.74 0.913592
5959.03 0.533470
5959.62 0.247402
5960.21 0.143188
5961.39 0.0668968
5962.57 0.0398564
5964.93 0.0207091
5967.29 0.0145045
5972.01 0.0118042
5976.74 0.0143023
5981.46 0.0226364
5983.82 0.0315197
5986.18 0.0479854
5987.36 0.0619524
5988.54 0.0833077
5989.72 0.118324
5990.90 0.181637
5991.49 0.234480
5992.08 0.314391
5992.67 0.443544
5993.26 0.672471
5993.55 0.859840
5993.85 1.13784
5994.14 1.57564
5994.44 2.32307
5994.73 3.75521
5994.88 5.02454
5995.03 7.03300
5995.18 10.5244
5995.32 17.1960
5995.40 23.0616
5995.47 32.1605
5995.55 46.8415
5995.62 70.6710
5995.71 112.856
5995.79 141.190
5995.88 112.714
5995.97 70.5202
5996.06 43.6476
5996.14 28.4414
5996.23 19.6481
5996.32 14.3110
5996.40 10.8057
5996.49 8.44767
5996.66 5.53540
5996.84 3.88816
5997.01 2.88103
5997.36 1.75991
5997.70 1.18312
5998.05 0.849983
5998.40 0.639440
5998.74 0.498740
5999.43 0.327512
6000.13 0.231447
6000.82 0.172227
6001.51 0.133165
6002.90 0.0864677
6004.29 0.0606798
6005.67 0.0449507
6007.06 0.0346538
6009.83 0.0224339
6012.60 0.0157308
6018.15 0.00899923
6023.69 0.00584816
6029.23 0.00412052
6040.32 0.00238341
6062.50 0.00111959
6084.67 0.000667717
6129.03 0.000340498
6173.38 0.000230013
6262.08 0.000214009
6306.43 0.000461915
6328.61 0.00149450
6339.70 0.00560381
6345.24 0.0218411
6346.63 0.0384713
6348.01 0.0852247
6348.70 0.149331
6349.40 0.326643
6349.74 0.565225
6350.09 1.20208
6350.26 2.02096
6350.35 2.78972
6350.44 4.07363
6350.52 6.52499
6350.57 8.63032
6350.61 11.9181
6350.65 17.6022
6350.70 27.9196
6350.72 36.8017
6350.74 49.3944
6350.76 69.5656
6350.78 100.078
6350.81 160.633
6350.84 200.282
6350.87 160.598
6350.90 100.050
6350.93 65.1866
6350.95 43.9817
6350.98 31.1380
6351.00 23.2546
6351.05 14.1055
6351.10 9.39732
6351.16 6.64537
6351.21 4.96521
6351.31 3.06637
6351.41 2.07036
6351.51 1.49473
6351.72 0.881002
6352.13 0.410434
6352.54 0.236422
6353.36 0.107654
6354.18 0.0613669
6355.82 0.0276639
6357.46 0.0157124
6364.01 0.00406181
6377.13 0.00112601
6403.36 0.000427736
6429.59 0.000485382
6442.70 0.00117080
6449.26 0.00394347
6452.54 0.0148792
6454.18 0.0573542
6455.00 0.217842
6455.20 0.374766
6455.41 0.790350
6455.51 1.32175
6455.61 2.61563
6455.66 4.10617
6455.71 7.29958
6455.74 10.5166
6455.76 15.9498
6455.79 26.8599
6455.80 36.1795
6455.81 48.9122
6455.84 78.7032
6455.86 97.7854
6455.88 78.6997
6455.90 48.9096
6455.91 36.1778
6455.92 26.8587
6455.95 16.2432
6455.97 10.6786
6456.00 7.49207
6456.05 4.23057
6456.10 2.70080
6456.20 1.36019
6456.30 0.819015
6456.50 0.388856
6456.70 0.226181
6457.50 0.0596106
6459.11 0.0154655
6462.33 0.00410788
6468.76 0.00123773
6481.62 0.000557413
6507.34 0.000625723
6533.07 0.00200258
6545.93 0.00762560
6549.14 0.0134245
6552.36 0.0298359
6553.97 0.0525434
6555.57 0.116148
6556.38 0.203074
6556.78 0.288595
6557.18 0.442144
6557.58 0.760791
6557.79 1.06742
6557.99 1.60431
6558.19 2.67473
6558.29 3.66690
6558.39 5.30529
6558.49 8.36614
6558.54 10.9436
6558.59 14.8830
6558.64 21.2903
6558.69 32.5589
6558.74 54.2805
6558.76 72.6511
6558.79 99.5351
6558.83 158.935
6558.87 199.038
6558.91 158.877
6558.95 99.4905
6558.98 70.8887
6559.00 51.9006
6559.03 38.6983
6559.06 29.9786
6559.11 19.1409
6559.17 13.2529
6559.22 9.62927
6559.28 7.29704
6559.39 4.60838
6559.50 3.15673
6559.61 2.30103
6559.82 1.37608
6560.04 0.912404
6560.26 0.649729
6560.70 0.376787
6561.13 0.245626
6561.57 0.172698
6562.45 0.0986818
6564.19 0.0445745
6565.94 0.0253124
6569.44 0.0113908
6572.94 0.00647556
6586.92 0.00170197
6614.90 0.000515757
6642.87 0.000403367
6656.86 0.000808951
6663.85 0.00259527
6667.35 0.00970996
6669.10 0.0374424
6669.97 0.142604
6670.19 0.246181
6670.41 0.520574
6670.52 0.875227
6670.63 1.75053
6670.68 2.78863
6670.73 5.02090
6670.76 7.36620
6670.79 11.4859
6670.82 19.7627
6670.83 27.3909
6670.84 38.6072
6670.86 61.3408
6670.88 77.2329
6670.90 61.3345
6670.92 38.6023
6670.94 23.1760
6670.96 15.0069
6670.98 10.1502
6671.00 7.36577
6671.05 4.29023
6671.09 2.78857
6671.17 1.44049
6671.25 0.875248
6671.41 0.420679
6671.58 0.246907
6672.23 0.0657262
6673.54 0.0170665
6676.16 0.00445244
6681.39 0.00123651
6691.86 0.000414668
6712.79 0.000194113
6754.66 0.000126627
6838.40 0.000116889
6922.14 0.000177818
6964.01 0.000342084
6984.95 0.000820649
6995.42 0.00249448
7000.65 0.00890783
7003.27 0.0339158
7004.58 0.129981
7004.90 0.225647
7005.23 0.485057
7005.39 0.826119
7005.56 1.69876
7005.64 2.77433
7005.72 5.29359
7005.76 8.03858
7005.80 13.5006
7005.82 18.5930
7005.84 26.3704
7005.86 39.3183
7005.88 61.2735
7005.91 98.1016
7005.93 122.697
7005.95 98.1334
7005.97 61.2985
7006.00 35.4252
7006.02 22.4078
7006.05 14.9530
7006.07 10.7302
7006.12 6.17230
7006.17 4.01509
7006.27 2.05303
7006.36 1.24633
7006.56 0.596769
7006.75 0.348647
7007.14 0.161132
7007.53 0.0925670
7009.09 0.0242073
7012.21 0.00658179
7018.45 0.00224806
7030.92 0.00187439
7043.39 0.00571575
7049.63 0.0216535
7051.19 0.0380024
7052.75 0.0839478
7053.53 0.146958
7054.31 0.320781
7054.70 0.554071
7055.09 1.17757
7055.28 1.97857
7055.38 2.72929
7055.48 3.98350
7055.58 6.37097
7055.63 8.44613
7055.67 11.6149
7055.72 17.0316
7055.77 26.7610
7055.80 35.2152
7055.82 47.2408
7055.84 65.3820
7055.87 93.7639
7055.90 149.350
7055.94 187.452
7055.97 149.396
7056.00 93.7995
7056.04 56.1413
7056.07 35.6380
7056.11 24.1799
7056.15 17.3303
7056.18 12.9706
7056.22 10.0461
7056.29 6.54708
7056.36 4.57045
7056.43 3.37979
7056.58 2.05297
7056.72 1.37666
7056.86 0.986442
7057.15 0.577196
7057.72 0.266687
7058.29 0.153155
7059.44 0.0695451
7060.58 0.0396246
7065.16 0.0102266
7074.32 0.00274296
7092.63 0.000858587
7129.26 0.000427518
7202.52 0.000579129
7239.15 0.000955560
7257.46 0.00134470
7275.77 0.00206481
7294.09 0.00361955
7303.24 0.00517762
7312.40 0.00803146
7316.98 0.0104455
7321.56 0.0141436
7326.14 0.0202315
7330.72 0.0313103
7333.01 0.0406282
7335.29 0.0548168
7337.58 0.0779812
7339.87 0.119654
7341.02 0.154294
7342.16 0.206464
7343.31 0.290315
7344.45 0.437589
7345.02 0.557357
7345.60 0.733348
7346.17 1.00743
7346.74 1.46794
7347.31 2.33086
7347.60 3.07205
7347.89 4.22121
7348.17 6.12830
7348.46 9.58315
7348.60 12.4191
7348.74 16.5521
7348.89 22.7103
7349.03 31.8740
7349.24 51.0054
7349.44 63.6361
7349.65 50.8615
7349.86 31.7623
7350.03 21.3271
7350.20 14.8467
7350.37 10.7575
7350.53 8.08411
7350.87 4.98526
7351.21 3.35538
7351.54 2.40379
7351.88 1.80332
7352.55 1.11958
7353.22 0.761037
7353.89 0.550382
7354.57 0.416330
7355.24 0.325835
7356.58 0.215023
7357.93 0.152458
7359.27 0.113695
7360.61 0.0880340
7363.30 0.0572396
7365.99 0.0401840
7368.68 0.0297558
7371.37 0.0229228
7376.75 0.0148046
7382.12 0.0103503
7387.50 0.00764595
7392.88 0.00588208
7403.63 0.00379655
7414.38 0.00265777
7435.89 0.00152032
7457.40 0.000991870
7478.91 0.000704599
7521.92 0.000420521
7607.95 0.000234330
7650.97 0.000241351
7672.47 0.000398926
7683.23 0.00106051
7688.60 0.00369517
7691.29 0.0140560
7692.64 0.0540855
7693.31 0.203435
7693.48 0.347618
7693.64 0.723377
7693.73 1.19087
7693.81 2.30700
7693.85 3.55228
7693.90 6.10949
7693.94 12.5033
7693.96 19.6357
7693.98 33.4756
7694.00 53.1868
7694.02 66.9626
7694.04 53.1753
7694.06 33.4667
7694.07 23.7441
7694.09 17.5181
7694.11 10.1400
7694.14 6.48255
7694.17 4.46420
7694.22 2.46427
7694.27 1.56478
7694.38 0.779725
7694.49 0.466801
7694.92 0.128107
7695.78 0.0336406
7697.49 0.00873213
7700.93 0.00233746
7707.80 0.000716784
7721.54 0.000310809
7749.02 0.000220722
7803.99 0.000284332
7858.95 0.000817000
7886.44 0.00296839
7893.31 0.00518746
7900.18 0.0114807
7903.61 0.0202130
7907.05 0.0447993
7908.77 0.0785998
7909.63 0.112037
7910.48 0.172351
7911.34 0.298854
7911.77 0.422084
7912.20 0.639979
7912.42 0.818708
7912.63 1.08402
7912.85 1.50210
7913.06 2.21210
7913.28 3.57812
7913.38 4.77759
7913.49 6.68473
7913.60 10.0082
7913.71 16.3395
7913.76 21.9154
7913.81 30.3626
7913.87 44.1733
7913.92 66.3960
7913.98 106.384
7914.05 132.696
7914.11 106.260
7914.18 66.2999
7914.23 42.8431
7914.29 28.9807
7914.35 20.5610
7914.41 15.2134
7914.52 9.18962
7914.63 6.10627
7914.75 4.33701
7914.86 3.23373
7915.09 1.99144
7915.32 1.34473
7915.55 0.969367
7915.77 0.731547
7916.00 0.571519
7916.46 0.376001
7916.92 0.266169
7917.83 0.153306
7918.74 0.0995430
7919.65 0.0698122
7921.48 0.0397929
7925.13 0.0179571
7928.78 0.0102126
7936.09 0.00463317
7943.39 0.00267024
7957.99 0.00127224
7972.60 0.000800222
8001.81 0.000614673
8016.42 0.00115254
8023.72 0.00350847
8027.37 0.0128623
8029.20 0.0493087
8030.11 0.187454
8030.34 0.322773
8030.56 0.682168
8030.68 1.14020
8030.79 2.27324
8030.85 3.59354
8030.91 6.46687
8030.94 9.40657
8030.96 14.4967
8030.99 25.0090
8031.01 33.8889
8031.02 47.5661
8031.04 76.3833
8031.06 95.0973
8031.08 76.3533
8031.11 47.5427
8031.13 28.3846
8031.15 17.9176
8031.17 12.1097
8031.20 8.77423
8031.24 5.05319
8031.29 3.29021
8031.38 1.69295
8031.47 1.03153
8031.65 0.494032
8031.83 0.289376
8032.56 0.0768874
8034.01 0.0200326
8036.91 0.00532982
8042.72 0.00159221
8054.33 0.000670552
8077.56 0.000590277
8100.79 0.00141623
8112.40 0.00469281
8118.21 0.0174214
8121.11 0.0668911
8121.84 0.116914
8122.56 0.255307
8122.93 0.441206
8123.29 0.939286
8123.47 1.58380
8123.65 3.19569
8123.74 5.12330
8123.79 6.78197
8123.83 9.37625
8123.88 13.8655
8123.93 22.0462
8123.95 29.1023
8123.97 39.1562
8123.99 55.2825
8124.02 79.5126
8124.05 127.773
8124.08 159.093
8124.11 127.709
8124.14 79.4633
8124.16 57.9335
8124.18 43.3050
8124.21 25.6820
8124.25 16.6675
8124.29 11.5916
8124.33 8.49221
8124.37 6.47448
8124.45 4.10710
8124.60 2.06593
8124.76 1.23780
8125.07 0.586526
8125.38 0.341404
8126.01 0.157104
8126.63 0.0901105
8129.12 0.0236406
8134.11 0.00672536
8144.08 0.00336588
8154.05 0.00785098
8159.03 0.0285522
8160.28 0.0498232
8161.52 0.109411
8162.15 0.190658
8162.77 0.413344
8163.08 0.709527
8163.39 1.48563
8163.55 2.46510
8163.63 3.36150
8163.70 4.84616
8163.78 7.56108
8163.82 9.84227
8163.86 13.2959
8163.90 18.8386
8163.94 28.3957
8163.98 46.2668
8164.01 80.9826
8164.05 129.847
8164.08 161.787
8164.11 129.651
8164.15 80.8292
8164.19 46.1878
8164.22 28.6824
8164.26 18.9990
8164.30 13.5046
8164.34 9.97663
8164.38 7.70132
8164.46 4.94416
8164.53 3.43314
8164.61 2.51951
8164.76 1.51989
8165.07 0.725165
8165.38 0.423501
8165.99 0.195402
8166.61 0.112111
8167.84 0.0509660
8169.07 0.0290975
8173.99 0.00762180
8183.83 0.00210841
8203.51 0.000663778
8242.88 0.000269838
8282.25 0.000197122
8321.61 0.000185686
8360.98 0.000208251
8400.34 0.000282317
8439.71 0.000558229
8459.39 0.00131095
8469.23 0.00384538
8474.15 0.0134449
8476.61 0.0506425
8477.84 0.192348
8478.15 0.332617
8478.46 0.707634
8478.61 1.19333
8478.77 2.42059
8478.84 3.88880
8478.92 7.20168
8478.96 10.7152
8479.00 17.1624
8479.02 22.6334
8479.04 30.8691
8479.05 43.6606
8479.07 64.4319
8479.10 102.628
8479.12 128.953
8479.15 102.643
8479.17 64.4435
8479.20 38.9885
8479.22 25.2739
8479.25 17.1647
8479.27 12.4551
8479.33 7.26989
8479.38 4.76754
8479.48 2.47492
8479.58 1.50801
8479.78 0.724964
8479.98 0.425449
8480.39 0.197320
8480.79 0.113638
8482.41 0.0299961
8485.65 0.00843533
8492.13 0.00324629
8505.09 0.00337568
8518.05 0.0111465
8521.29 0.0193190
8524.53 0.0423725
8526.15 0.0740719
8526.96 0.105437
8527.77 0.162117
8528.58 0.280975
8528.99 0.396667
8529.39 0.601884
8529.80 1.01957
8530.00 1.41428
8530.20 2.08582
8530.41 3.38244
8530.51 4.52456
8530.61 6.34680
8530.71 9.49862
8530.81 15.5827
8530.86 20.9799
8530.91 29.2001
8530.96 42.7678
8531.01 64.5794
8531.07 103.594
8531.13 128.984
8531.19 102.746
8531.25 64.4054
8531.31 39.7849
8531.37 26.1105
8531.43 18.0274
8531.48 13.1457
8531.54 9.92007
8531.60 7.76162
8531.72 5.10310
8531.83 3.58956
8531.95 2.66454
8532.18 1.62852
8532.42 1.09629
8532.65 0.787655
8533.11 0.462532
8533.58 0.303654
8534.05 0.214714
8534.98 0.123677
8535.91 0.0803844
8536.84 0.0565200
8538.71 0.0324666
8542.44 0.0151453
8546.17 0.00927856
8553.63 0.00762085
8557.36 0.0177632
8559.22 0.0605764
8560.16 0.223800
8560.39 0.383574
8560.62 0.807208
8560.74 1.34925
8560.86 2.67368
8560.92 4.24172
8560.97 7.58850
8561.00 10.9072
8561.03 16.8009
8561.06 28.3316
8561.08 38.6369
8561.09 52.8333
8561.11 85.1471
8561.13 105.624
8561.16 85.0203
8561.18 52.7340
8561.19 37.7484
8561.21 27.1944
8561.24 15.4835
8561.27 9.79802
8561.31 6.70255
8561.37 3.67082
8561.43 2.30315
8561.56 1.14546
8561.69 0.682687
8561.95 0.322338
8562.20 0.187461
8563.23 0.0503931
8565.27 0.0141837
8569.37 0.00463166
8577.56 0.00189635
8593.93 0.000942779
8610.31 0.000691303
8626.68 0.000602606
8659.44 0.000615217
8692.19 0.000808662
8708.57 0.00100120
8724.94 0.00130841
8741.32 0.00182369
8757.69 0.00276863
8765.88 0.00356394
8774.07 0.00477390
8782.26 0.00674400
8790.45 0.0102715
8794.54 0.0131873
8798.64 0.0175555
8802.73 0.0245255
8806.82 0.0366528
8808.87 0.0463955
8810.92 0.0605909
8811.94 0.0702569
8812.96 0.0824041
8813.99 0.0979845
8815.01 0.118364
8816.04 0.145763
8817.06 0.183664
8818.08 0.238170
8819.11 0.320019
8820.13 0.450224
8820.64 0.545396
8821.15 0.671397
8821.66 0.842122
8822.18 1.07713
8822.69 1.40414
8823.20 1.85478
8824.11 2.96663
8825.02 3.70466
8825.92 2.96110
8826.83 1.85032
8827.49 1.29584
8828.15 0.931682
8828.80 0.691448
8829.46 0.529294
8830.78 0.334627
8832.09 0.228802
8833.41 0.165677
8834.72 0.125249
8837.35 0.0785708
8839.98 0.0537539
8842.61 0.0390527
8845.24 0.0296377
8847.87 0.0232564
8853.13 0.0154101
8858.39 0.0109563
8863.65 0.00818872
8868.90 0.00635271
8879.42 0.00414495
8889.94 0.00291898
8900.46 0.00216837
8910.98 0.00167565
8932.01 0.00108930
8953.05 0.000766825
8974.09 0.000570539
8995.12 0.000442159
9037.20 0.000289759
9079.27 0.000205983
9121.34 0.000154904
9163.42 0.000121390
9247.56 8.13691E-05
9331.71 5.91436E-05
9415.85 4.54375E-05
9500.00 3.63355E-05
9500.00 0.198414
10000.0 0.192288
12500.0 0.166919
14000.0 0.154909
15000.0 0.147907
17000.0 0.135826
20000.0 0.121369
25000.0 0.103827
30000.0 0.0914619
35000.0 0.0823428
40000.0 0.0753806
45000.0 0.0699135
50000.0 0.0655160
60000.0 0.0588775
67500.0 0.0551458
72000.0 0.0532556
85000.0 0.0488017
99999.9 0.0448712
100000 0.0450000
150000 0.0427000
200000 0.0417000
300000 0.0427000
400000 0.0455000
500000 0.0485000
517000 0.0426350
517041 0.0426209
520000 0.0416000
540000 0.0257000
560000 0.0213000
580000 0.0192000
600000 0.0180000
650000 0.0164000
700000 0.0157000
800000 0.0155000
1.00000E+06 0.0168000
1.20000E+06 0.0170400
1.22000E+06 0.0170640
1.23000E+06 0.0170760
1.29000E+06 0.0171480
1.29013E+06 0.0171482
1.39000E+06 0.0172680
1.40000E+06 0.0172800
1.50000E+06 0.0174000
1.60000E+06 0.0166000
1.66000E+06 0.0161200
1.66033E+06 0.0161174
1.80000E+06 0.0150000
1.80013E+06 0.0149989
2.00000E+06 0.0134000
2.50000E+06 0.0103000
3.00000E+06 0.00790000
3.50000E+06 0.00570000
4.00000E+06 0.00410000
4.50000E+06 0.00280000
4.85900E+06 0.00186660
4.85943E+06 0.00186550
5.00000E+06 0.00150000
5.36200E+06 0.00139864
5.36226E+06 0.00139857
6.00000E+06 0.00122000
7.00000E+06 0.000940000
8.00000E+06 0.000660000
8.77200E+06 0.000443840
8.77269E+06 0.000443648
8.95000E+06 0.000394000
8.95072E+06 0.000393798
9.00000E+06 0.000380000
1.00000E+07 0.000100000
1.05300E+07 9.47000E-05
1.10000E+07 9.00000E-05
1.11900E+07 8.81000E-05
1.11906E+07 8.80944E-05
1.13300E+07 8.67000E-05
1.13308E+07 8.66923E-05
1.20000E+07 8.00000E-05
1.30000E+07 7.00000E-05
1.40000E+07 6.00000E-05
1.49700E+07 5.03000E-05
1.49712E+07 5.02883E-05
1.50000E+07 5.00000E-05
1.60000E+07 4.00000E-05
1.67700E+07 3.23000E-05
1.68400E+07 3.16000E-05
1.68413E+07 3.15869E-05
1.70000E+07 3.00000E-05
1.80000E+07 2.00000E-05
1.90000E+07 1.00000E-05
2.00000E+07 0.00000