Cd-114(n,g) ENDF/B-VII.1
Energy(eV) XS(b)
1.00000E-05 15.3578
1.25000E-05 13.7364
1.50000E-05 12.5396
2.00000E-05 10.8596
2.75000E-05 9.26108
3.50000E-05 8.20907
4.25000E-05 7.44961
5.00000E-05 6.86820
6.25000E-05 6.14311
7.50000E-05 5.60786
0.000100000 4.85655
0.000125000 4.34383
0.000150000 3.96536
0.000200000 3.43410
0.000275000 2.92861
0.000350000 2.59594
0.000425000 2.35578
0.000500000 2.17192
0.000625000 1.94263
0.000750000 1.77337
0.00100000 1.53578
0.00125000 1.37365
0.00150000 1.25396
0.00200000 1.08597
0.00275000 0.926117
0.00350000 0.820917
0.00425000 0.744973
0.00500000 0.686833
0.00625000 0.614325
0.00750000 0.560802
0.0100000 0.485673
0.0125000 0.434403
0.0150000 0.396558
0.0200000 0.343435
0.0253000 0.305357
0.0314750 0.273776
0.0376500 0.250326
0.0500000 0.217231
0.0625000 0.194307
0.0750000 0.177385
0.100000 0.153634
0.125000 0.137427
0.150000 0.125465
0.200000 0.108676
0.275000 0.0927046
0.350000 0.0821967
0.500000 0.0688090
0.750000 0.0562349
1.00000 0.0487468
1.50000 0.0398778
2.00000 0.0346023
2.75000 0.0295969
3.50000 0.0263150
5.00000 0.0221565
7.50000 0.0182954
10.0000 0.0160382
15.0000 0.0134576
20.0000 0.0120302
27.5000 0.0108662
35.0000 0.0103618
42.5000 0.0103880
50.0000 0.0117489
51.5972 0.0129885
53.1944 0.0163760
53.9930 0.0209998
54.3923 0.0255866
54.7916 0.0339249
55.1909 0.0516085
55.3906 0.0690453
55.5902 0.100435
55.6900 0.126533
55.7899 0.165848
55.8897 0.229075
55.9895 0.340306
56.0893 0.563758
56.1392 0.771214
56.1892 1.12025
56.2391 1.77418
56.2640 2.33764
56.2890 3.21252
56.3139 4.66887
56.3389 7.31658
56.3514 9.49964
56.3639 12.6937
56.3763 17.4769
56.3888 24.6297
56.4067 39.4257
56.4246 49.2934
56.4425 39.4205
56.4604 24.6315
56.4817 13.9171
56.5029 8.52005
56.5242 5.64666
56.5454 3.98457
56.5667 2.95062
56.5880 2.26842
56.6305 1.45727
56.6730 1.01405
56.7155 0.746556
56.8006 0.454354
56.8856 0.306933
56.9706 0.222417
57.0557 0.169536
57.1407 0.134278
57.3108 0.0916579
57.4809 0.0678674
57.8210 0.0436413
58.1612 0.0321869
58.5013 0.0258896
59.1816 0.0195827
60.5422 0.0151158
61.9029 0.0136581
67.3453 0.0130249
78.2302 0.0161532
89.1151 0.0242961
94.5576 0.0328708
100.000 0.0492526
102.509 0.0623319
105.019 0.0823765
107.528 0.115412
110.038 0.175773
111.292 0.226783
112.547 0.304965
113.802 0.433811
115.056 0.669090
115.684 0.867702
116.311 1.17158
116.938 1.67119
117.566 2.57941
117.879 3.34254
117.958 3.58687
118.036 3.85876
118.115 4.16291
118.193 4.50465
118.272 4.89094
118.350 5.32874
118.389 5.57009
118.428 5.82826
118.507 6.40169
118.585 7.06437
118.664 7.83583
118.742 8.74124
118.820 9.81353
118.899 11.0981
118.977 12.6508
119.056 14.5542
119.134 16.9223
119.213 19.9196
119.291 23.7903
119.369 28.9091
119.448 35.8755
119.526 45.7110
119.605 60.1881
119.683 82.7756
119.761 120.829
119.801 150.433
119.840 192.258
119.879 253.945
119.918 350.002
119.957 510.403
119.997 803.676
120.016 1046.64
120.036 1403.78
120.055 1941.50
120.075 2750.56
120.103 4381.88
120.130 5462.64
120.158 4383.25
120.185 2751.17
120.205 1944.92
120.224 1407.96
120.244 1050.69
120.263 807.296
120.302 513.103
120.341 352.300
120.380 255.621
120.419 193.513
120.497 121.643
120.575 83.2881
120.653 60.5485
120.731 45.9547
120.809 36.0643
120.965 23.8873
121.120 16.9706
121.276 12.6711
121.432 9.81842
121.744 6.38843
122.056 4.48418
122.368 3.31900
122.679 2.55497
123.303 1.64680
123.926 1.14865
124.550 0.846312
125.174 0.649281
126.421 0.416675
127.668 0.289949
128.915 0.213446
130.162 0.163787
132.656 0.105441
135.150 0.0738318
137.645 0.0548404
140.139 0.0425664
145.127 0.0282326
150.116 0.0205376
155.104 0.0159646
160.093 0.0130511
170.069 0.00975501
180.046 0.00813730
200.000 0.00731167
206.716 0.00783171
213.432 0.00974148
216.790 0.0125199
218.469 0.0153251
220.148 0.0204860
221.827 0.0316033
222.666 0.0427403
223.506 0.0631408
223.925 0.0804052
224.345 0.106864
224.765 0.150444
225.185 0.229807
225.395 0.296584
225.604 0.398377
225.814 0.564719
226.024 0.864162
226.129 1.11347
226.234 1.48894
226.339 2.09306
226.444 3.15699
226.496 4.02313
226.549 5.30062
226.601 7.29624
226.654 10.6554
226.706 16.9836
226.732 22.4480
226.759 30.9679
226.785 45.2928
226.811 71.4969
226.824 93.2831
226.837 125.421
226.850 174.038
226.864 247.632
226.882 396.389
226.900 494.740
226.918 395.552
226.937 247.669
226.957 145.204
226.977 91.1516
226.997 61.3915
227.017 43.8491
227.037 32.6959
227.058 25.2848
227.098 16.3403
227.138 11.3965
227.178 8.39009
227.259 5.08332
227.340 3.40294
227.420 2.43729
227.501 1.83145
227.582 1.42668
227.743 0.936281
227.904 0.662223
228.065 0.493549
228.227 0.382543
228.549 0.250016
228.872 0.176960
229.194 0.132462
229.517 0.103366
230.162 0.0688893
230.807 0.0500196
231.452 0.0385839
232.097 0.0311355
233.387 0.0223498
234.677 0.0175703
237.256 0.0128352
242.416 0.00955395
247.576 0.00855299
268.216 0.00871892
288.856 0.0109680
309.495 0.0155680
319.815 0.0195329
330.135 0.0256329
340.455 0.0356865
350.775 0.0540043
355.935 0.0694283
361.095 0.0929803
366.255 0.131598
371.414 0.201607
373.994 0.260280
374.639 0.279024
375.284 0.299897
375.929 0.323235
376.574 0.349438
377.219 0.379005
377.542 0.395232
377.864 0.412534
378.509 0.450765
379.154 0.494622
379.799 0.545268
380.444 0.604181
381.089 0.673266
381.734 0.754993
382.379 0.852682
383.024 0.970759
384.314 1.29492
384.959 1.52188
385.604 1.81440
386.249 2.20039
386.894 2.72418
387.539 3.46018
388.184 4.53994
388.829 6.21484
389.474 9.01354
389.797 11.1735
390.119 14.2023
390.442 18.6261
390.764 25.4246
391.087 36.5685
391.409 56.3918
391.570 72.3778
391.732 95.2705
391.893 128.685
392.054 177.297
392.302 283.710
392.550 354.690
392.798 283.647
393.046 177.164
393.255 117.279
393.464 80.5608
393.673 57.7893
393.882 43.1012
394.299 26.3052
394.717 17.5867
395.135 12.5400
395.553 9.37458
396.388 5.79115
397.224 3.92277
398.060 2.82929
398.895 2.13544
399.731 1.66814
401.402 1.09761
403.073 0.776123
404.744 0.577402
406.415 0.446127
409.758 0.289021
413.100 0.202246
416.442 0.149362
419.785 0.114794
426.469 0.0738877
433.154 0.0515662
439.838 0.0380906
446.523 0.0293536
459.892 0.0191287
473.262 0.0136475
486.631 0.0104202
500.000 0.00841138
516.998 0.00688175
533.996 0.00611049
550.993 0.00620503
555.243 0.00665098
559.492 0.00798533
561.617 0.00984976
563.742 0.0151244
564.804 0.0224336
565.335 0.0297249
565.867 0.0430258
566.398 0.0713665
566.663 0.0994387
566.929 0.150232
567.062 0.192677
567.195 0.256958
567.327 0.361068
567.460 0.546192
567.527 0.698198
567.593 0.924445
567.659 1.28229
567.726 1.89705
567.792 3.08647
567.825 4.14719
567.859 5.85568
567.892 8.85217
567.925 14.7651
567.942 20.0694
567.958 28.5101
567.975 42.6011
567.991 66.3810
568.009 106.371
568.028 132.856
568.046 106.139
568.064 66.3851
568.076 47.1627
568.089 34.2960
568.102 25.6889
568.114 19.8367
568.139 12.6806
568.164 8.73386
568.190 6.34934
568.215 4.81911
568.265 3.03972
568.315 2.08652
568.365 1.52062
568.416 1.15662
568.466 0.909815
568.566 0.605433
568.667 0.432299
568.767 0.324564
568.868 0.253076
569.069 0.166934
569.270 0.119054
569.672 0.0704832
570.074 0.0475781
570.476 0.0349981
571.279 0.0223698
572.887 0.0132728
574.495 0.0100942
577.710 0.00789207
580.926 0.00721993
593.788 0.00732247
606.650 0.00883788
619.511 0.0119803
625.942 0.0147037
632.373 0.0189022
638.804 0.0258314
645.235 0.0384747
648.451 0.0491375
651.666 0.0654479
654.882 0.0922603
658.097 0.141051
659.705 0.182099
661.313 0.244705
662.920 0.347156
664.528 0.532175
664.930 0.601972
665.332 0.686557
665.734 0.790479
665.935 0.851576
666.136 0.920044
666.337 0.997197
666.538 1.08453
666.739 1.18390
666.940 1.29757
667.141 1.42857
667.342 1.58043
667.543 1.75802
667.744 1.96726
668.146 2.51610
668.548 3.33115
668.949 4.61674
669.150 5.55779
669.351 6.81681
669.552 8.55583
669.753 11.0499
669.954 14.8023
670.155 20.8039
670.356 31.2361
670.457 39.5562
670.557 51.5070
670.658 69.4166
670.758 97.4666
670.859 143.317
670.959 219.257
671.075 351.216
671.190 439.537
671.306 351.522
671.421 219.468
671.500 156.615
671.579 114.353
671.658 85.9266
671.737 66.3832
671.895 42.5126
672.052 29.3173
672.210 21.3497
672.368 16.2088
672.684 10.2241
672.999 7.01909
673.315 5.11129
673.631 3.88551
673.946 3.05265
674.578 2.02602
675.209 1.44202
675.840 1.07859
676.472 0.837238
677.734 0.546797
678.997 0.385452
680.260 0.286699
681.522 0.221932
684.047 0.145033
686.573 0.102960
689.098 0.0775597
691.623 0.0611479
696.674 0.0422137
701.724 0.0325722
706.775 0.0276214
711.825 0.0255889
721.926 0.0287753
726.977 0.0354236
732.027 0.0492372
734.553 0.0614199
737.078 0.0803920
739.603 0.111932
742.128 0.169694
743.391 0.218399
744.654 0.292711
745.916 0.414239
747.179 0.633304
747.495 0.715793
747.810 0.815679
748.126 0.938216
748.284 1.01016
748.442 1.09075
748.600 1.18150
748.757 1.28405
748.915 1.40061
749.073 1.53385
749.231 1.68722
749.389 1.86473
749.546 2.07187
749.704 2.31558
750.020 2.95256
750.336 3.89308
750.651 5.36574
750.809 6.43522
750.967 7.85734
751.125 9.80588
751.283 12.5691
751.440 16.6676
751.598 23.0992
751.756 33.9682
751.835 42.3885
751.914 54.1734
751.993 71.2085
752.072 96.6784
752.151 135.864
752.229 196.320
752.335 313.934
752.440 391.530
752.545 312.490
752.651 195.172
752.753 121.658
752.855 79.8441
752.958 55.4396
753.060 40.3883
753.163 30.5901
753.265 23.9064
753.470 15.6900
753.675 11.0528
753.879 8.19354
754.289 5.00841
754.699 3.37150
755.108 2.42235
755.518 1.82386
755.927 1.42265
756.746 0.934895
757.566 0.661180
758.385 0.492413
759.204 0.381084
760.842 0.247985
762.480 0.174488
764.119 0.129663
765.757 0.100321
769.033 0.0654921
772.310 0.0463777
775.587 0.0347531
778.863 0.0271495
785.416 0.0181114
791.969 0.0131259
798.522 0.0100719
805.075 0.00805740
818.182 0.00563342
831.288 0.00427602
857.500 0.00288604
883.712 0.00225533
909.925 0.00201780
923.031 0.00206986
936.137 0.00244225
942.690 0.00303265
949.243 0.00475982
952.520 0.00718490
955.796 0.0140924
957.435 0.0237126
958.254 0.0333391
959.073 0.0509582
959.892 0.0886743
960.302 0.126218
960.711 0.194504
960.916 0.251894
961.121 0.339281
961.326 0.481879
961.530 0.738055
961.633 0.950795
961.735 1.27088
961.838 1.78466
961.940 2.68639
961.991 3.41713
962.042 4.49088
962.094 6.15974
962.145 8.95570
962.196 14.1590
962.222 18.6120
962.247 25.4812
962.273 36.7996
962.298 57.0850
962.324 97.3207
962.337 132.286
962.349 183.111
962.369 293.250
962.388 366.156
962.407 292.647
962.426 183.118
962.445 115.025
962.463 76.0700
962.482 53.0065
962.500 38.7733
962.518 29.4141
962.537 23.0439
962.573 15.1611
962.610 10.6977
962.647 7.93951
962.720 4.86004
962.793 3.27480
962.867 2.35439
962.940 1.77349
963.014 1.38413
963.160 0.909818
963.307 0.643422
963.454 0.479086
963.601 0.370700
963.894 0.240977
964.188 0.169345
964.775 0.0970462
965.362 0.0631271
965.949 0.0445462
967.123 0.0259344
969.472 0.0125305
971.820 0.00781367
976.517 0.00444553
981.213 0.00328443
990.607 0.00251642
1000.00 0.00234275
1012.51 0.00243014
1025.02 0.00276859
1037.52 0.00343616
1050.03 0.00473203
1056.28 0.00584854
1062.54 0.00757287
1068.79 0.0104310
1075.04 0.0156737
1078.17 0.0201143
1081.30 0.0269286
1084.42 0.0381682
1087.55 0.0586902
1089.11 0.0760182
1090.68 0.102500
1092.24 0.146007
1093.80 0.224881
1094.59 0.291015
1095.37 0.391465
1096.15 0.554827
1096.54 0.677916
1096.93 0.846581
1097.13 0.956194
1097.32 1.08783
1097.52 1.24955
1097.71 1.44907
1097.91 1.70189
1098.10 2.02517
1098.30 2.44993
1098.49 3.02339
1098.69 3.82851
1098.89 4.99453
1099.08 6.79357
1099.28 9.73896
1099.37 11.9891
1099.47 15.1026
1099.57 19.5716
1099.67 26.1956
1099.77 36.7816
1099.86 54.4706
1099.96 86.9134
1100.01 112.885
1100.06 147.726
1100.15 237.258
1100.23 296.317
1100.32 236.393
1100.41 147.880
1100.47 108.149
1100.52 80.9884
1100.63 48.5419
1100.74 31.7234
1100.86 22.1666
1100.97 16.2941
1101.08 12.4533
1101.30 7.94069
1101.52 5.48167
1101.74 4.00649
1102.19 2.40653
1102.63 1.60130
1103.07 1.14221
1103.52 0.854961
1103.96 0.664202
1104.85 0.433776
1105.73 0.305415
1106.62 0.226680
1107.51 0.174988
1109.28 0.113357
1111.05 0.0794694
1112.83 0.0588690
1114.60 0.0454272
1118.15 0.0295207
1121.70 0.0208380
1125.24 0.0155867
1128.79 0.0121733
1135.89 0.00815807
1142.98 0.00598404
1157.17 0.00384899
1171.36 0.00290025
1185.55 0.00242998
1213.93 0.00210956
1242.30 0.00223139
1270.68 0.00280155
1284.87 0.00343120
1299.06 0.00478802
1306.16 0.00635384
1309.70 0.00780132
1313.25 0.0103387
1316.80 0.0156165
1318.57 0.0208175
1320.35 0.0302725
1322.12 0.0504869
1323.01 0.0706530
1323.89 0.107447
1324.34 0.138587
1324.78 0.186144
1325.22 0.264510
1325.67 0.406627
1325.89 0.526205
1326.11 0.708240
1326.33 1.00519
1326.55 1.53546
1326.66 1.97670
1326.78 2.63993
1326.89 3.70314
1327.00 5.54292
1327.11 9.23189
1327.16 12.6647
1327.22 18.2805
1327.27 28.8413
1327.30 37.8448
1327.33 51.0592
1327.36 73.2580
1327.38 110.576
1327.41 184.380
1327.44 327.971
1327.46 528.907
1327.48 654.945
1327.51 519.637
1327.53 327.996
1327.55 195.880
1327.58 124.575
1327.60 84.6380
1327.63 60.7227
1327.65 45.4815
1327.67 35.2474
1327.72 22.8657
1327.77 15.9860
1327.82 11.7879
1327.91 7.15581
1328.01 4.79725
1328.11 3.43736
1328.20 2.58319
1328.30 2.01207
1328.49 1.31989
1328.68 0.932493
1328.87 0.694087
1329.07 0.537040
1329.45 0.349566
1329.83 0.246209
1330.22 0.183260
1330.60 0.142198
1331.37 0.0934252
1332.14 0.0667684
1333.67 0.0401778
1335.21 0.0278729
1336.74 0.0212473
1339.81 0.0148295
1342.88 0.0120828
1345.95 0.0108187
1352.10 0.0101857
1364.38 0.0121465
1376.66 0.0175160
1382.80 0.0222758
1388.94 0.0296208
1395.08 0.0416968
1401.23 0.0635286
1404.30 0.0817365
1407.37 0.109247
1408.90 0.128611
1409.67 0.140303
1410.44 0.153661
1411.21 0.169058
1411.97 0.186882
1412.74 0.207728
1413.51 0.232251
1414.28 0.261450
1415.04 0.296544
1415.81 0.339229
1416.58 0.391782
1417.35 0.457672
1418.11 0.541570
1418.88 0.650966
1419.65 0.796857
1420.42 0.997929
1421.19 1.28525
1421.95 1.71541
1422.72 2.39812
1423.49 3.57385
1423.87 4.50222
1424.26 5.82050
1424.64 7.77395
1425.02 10.7825
1425.41 15.5920
1425.79 23.3301
1426.26 37.3304
1426.72 46.7010
1427.19 37.3919
1427.65 23.3724
1428.03 15.7094
1428.40 10.9204
1428.78 7.90307
1429.16 5.93326
1429.91 3.65364
1430.67 2.45673
1431.42 1.75881
1432.17 1.31884
1433.68 0.818600
1435.19 0.556376
1436.70 0.402477
1438.21 0.304645
1439.71 0.238712
1442.73 0.158125
1445.74 0.112799
1448.76 0.0849438
1451.77 0.0667958
1457.80 0.0463464
1463.84 0.0393656
1466.85 0.0425636
1468.36 0.0481436
1469.87 0.0599286
1471.37 0.0870359
1472.13 0.114770
1472.88 0.165802
1473.26 0.209067
1473.64 0.275329
1474.01 0.384189
1474.39 0.581645
1474.58 0.747531
1474.77 0.997895
1474.96 1.40669
1475.14 2.13234
1475.24 2.73726
1475.33 3.63241
1475.43 5.05393
1475.52 7.51029
1475.61 12.3068
1475.66 16.6272
1475.71 23.6611
1475.76 36.1983
1475.78 46.7226
1475.80 61.5967
1475.83 85.6764
1475.85 123.531
1475.87 192.535
1475.90 316.261
1475.92 507.228
1475.94 632.352
1475.97 507.294
1475.99 316.316
1476.01 208.682
1476.03 144.792
1476.05 103.021
1476.07 77.4429
1476.11 47.2632
1476.14 31.9046
1476.18 22.7262
1476.22 16.9806
1476.30 10.5466
1476.38 7.14200
1476.45 5.17386
1476.53 3.90733
1476.61 3.06475
1476.76 2.02732
1476.92 1.44206
1477.07 1.07993
1477.23 0.840463
1477.54 0.553521
1477.85 0.394803
1478.16 0.297999
1478.47 0.234737
1479.09 0.160144
1479.71 0.120073
1480.95 0.0833491
1482.19 0.0750796
1483.43 0.0969862
1484.05 0.138703
1484.36 0.182253
1484.67 0.262634
1484.98 0.433657
1485.13 0.601563
1485.29 0.901442
1485.37 1.15047
1485.44 1.51748
1485.52 2.10816
1485.60 3.11535
1485.68 5.10851
1485.72 6.91059
1485.75 9.75827
1485.79 14.9480
1485.81 19.3358
1485.83 25.4932
1485.85 35.5699
1485.87 51.2961
1485.89 78.3314
1485.91 127.076
1485.93 204.652
1485.95 253.867
1485.97 204.629
1485.99 127.059
1486.00 88.4058
1486.02 62.2151
1486.03 45.4257
1486.05 34.9389
1486.07 21.9454
1486.10 14.9475
1486.13 10.7983
1486.16 8.15191
1486.22 5.10753
1486.28 3.47486
1486.34 2.52968
1486.39 1.92484
1486.45 1.51481
1486.57 1.00763
1486.69 0.722741
1486.92 0.426977
1487.15 0.285146
1487.38 0.206266
1487.85 0.125949
1488.32 0.0877285
1488.78 0.0664364
1489.71 0.0444954
1491.58 0.0274599
1493.44 0.0205764
1497.17 0.0144674
1500.89 0.0115258
1508.35 0.00843513
1515.80 0.00672042
1530.71 0.00479822
1545.61 0.00378081
1560.52 0.00328228
1575.43 0.00339948
1582.88 0.00404477
1590.33 0.00623299
1594.06 0.00941989
1597.79 0.0185873
1599.65 0.0313980
1600.58 0.0442296
1601.51 0.0676937
1602.45 0.117976
1602.91 0.168045
1603.38 0.258907
1603.61 0.335386
1603.84 0.451856
1604.08 0.641946
1604.31 0.983764
1604.43 1.26909
1604.54 1.69484
1604.66 2.38471
1604.77 3.58580
1604.83 4.57790
1604.89 6.01447
1604.95 8.24595
1605.01 11.9816
1605.07 18.9257
1605.09 24.8617
1605.12 34.0089
1605.15 49.0596
1605.18 75.9850
1605.21 129.274
1605.23 177.462
1605.24 245.073
1605.26 391.174
1605.28 490.426
1605.31 391.171
1605.33 245.074
1605.34 169.860
1605.36 121.756
1605.38 90.2014
1605.39 68.9339
1605.42 42.9384
1605.46 29.3874
1605.49 21.0996
1605.52 15.9802
1605.59 10.0498
1605.65 6.85125
1605.72 4.96457
1605.78 3.76076
1605.84 2.95699
1605.97 1.95379
1606.10 1.38964
1606.23 1.03662
1606.36 0.804427
1606.62 0.524165
1606.88 0.368665
1607.14 0.273537
1607.40 0.211140
1607.92 0.136977
1608.43 0.0962630
1609.47 0.0554048
1610.51 0.0363377
1611.54 0.0259330
1613.61 0.0155685
1617.76 0.00824580
1621.90 0.00594907
1626.04 0.00549747
1630.19 0.00709178
1632.26 0.0100447
1634.33 0.0188962
1635.37 0.0313565
1636.40 0.0665877
1636.92 0.115042
1637.18 0.162958
1637.44 0.249467
1637.70 0.430565
1637.83 0.607370
1637.96 0.917846
1638.09 1.55280
1638.15 2.15032
1638.22 3.14982
1638.28 5.08292
1638.31 6.75240
1638.34 9.38210
1638.38 14.0345
1638.41 22.6031
1638.43 29.9276
1638.44 41.0309
1638.46 58.4259
1638.47 86.5050
1638.49 139.343
1638.51 172.980
1638.53 139.345
1638.55 86.5071
1638.57 64.1839
1638.58 47.6719
1638.61 28.3237
1638.63 18.3993
1638.66 12.8030
1638.68 9.38305
1638.71 7.15548
1638.76 4.54075
1638.81 3.12979
1638.87 2.28532
1638.97 1.37001
1639.07 0.911600
1639.18 0.650046
1639.39 0.379323
1639.59 0.248140
1639.80 0.175414
1640.22 0.101240
1641.05 0.0468763
1641.88 0.0274909
1643.54 0.0134258
1645.20 0.00842717
1651.84 0.00348250
1658.48 0.00255555
1665.13 0.00234326
1678.41 0.00371371
1681.73 0.00546374
1685.06 0.0105513
1686.72 0.0176809
1688.38 0.0378944
1689.21 0.0659217
1689.62 0.0937930
1690.04 0.144485
1690.45 0.251883
1690.66 0.357928
1690.87 0.547505
1691.08 0.943368
1691.18 1.32542
1691.28 1.98789
1691.33 2.52851
1691.39 3.32283
1691.44 4.55722
1691.49 6.62483
1691.54 10.4712
1691.57 13.7614
1691.59 18.8341
1691.62 27.1851
1691.65 42.1296
1691.67 71.6864
1691.69 97.2796
1691.70 133.318
1691.72 211.849
1691.74 266.297
1691.76 211.848
1691.78 132.981
1691.79 92.6692
1691.81 67.0596
1691.82 50.0529
1691.83 38.4745
1691.86 24.4781
1691.89 16.8077
1691.92 12.2068
1691.95 9.24837
1692.00 5.81812
1692.06 3.96379
1692.11 2.88586
1692.17 2.19375
1692.23 1.72341
1692.34 1.14009
1692.45 0.811848
1692.68 0.470537
1692.90 0.306836
1693.13 0.215924
1693.58 0.123750
1694.03 0.0803195
1694.48 0.0564632
1695.38 0.0325233
1697.17 0.0152067
1698.97 0.00908348
1702.57 0.00466845
1706.17 0.00310341
1720.56 0.00154666
1749.35 0.00113226
1778.14 0.00112422
1806.92 0.00130515
1835.71 0.00181236
1850.10 0.00234853
1864.49 0.00334410
1871.69 0.00418999
1878.89 0.00548849
1886.08 0.00763036
1893.28 0.0115422
1896.88 0.0148461
1900.48 0.0199027
1904.08 0.0282208
1907.67 0.0433647
1909.47 0.0561145
1911.27 0.0755515
1913.07 0.107349
1914.87 0.164744
1915.77 0.212630
1916.67 0.284916
1917.57 0.401798
1918.02 0.489306
1918.47 0.608572
1918.69 0.685451
1918.92 0.777868
1919.14 0.890298
1919.37 1.02895
1919.59 1.20263
1919.82 1.42415
1920.04 1.71276
1920.27 2.09638
1920.49 2.62668
1920.72 3.38468
1920.94 4.51999
1921.17 6.32563
1921.39 9.43421
1921.51 11.9032
1921.62 15.3906
1921.73 20.5978
1921.84 28.5515
1921.95 41.2467
1922.07 61.6936
1922.20 98.5936
1922.34 123.086
1922.47 98.4749
1922.61 61.5973
1922.70 45.2683
1922.78 33.9769
1922.95 20.5133
1923.12 13.4380
1923.28 9.42250
1923.45 6.93168
1923.62 5.30862
1923.96 3.38845
1924.29 2.34194
1924.63 1.71319
1925.30 1.02998
1925.98 0.686040
1926.65 0.489668
1927.33 0.366846
1928.00 0.285197
1929.35 0.186601
1930.69 0.131682
1932.04 0.0980141
1933.39 0.0759127
1936.08 0.0496722
1938.77 0.0353626
1941.47 0.0268188
1944.16 0.0214543
1949.55 0.0161087
1952.24 0.0154743
1954.94 0.0165806
1957.63 0.0211756
1960.33 0.0367907
1961.67 0.0594400
1962.35 0.0823047
1963.02 0.124161
1963.69 0.213767
1964.03 0.302730
1964.37 0.463339
1964.54 0.598494
1964.70 0.802190
1964.87 1.13210
1965.04 1.71872
1965.12 2.20730
1965.21 2.92784
1965.29 4.06845
1965.38 6.03033
1965.46 9.83340
1965.50 13.2320
1965.54 18.7183
1965.59 28.3727
1965.63 47.5264
1965.65 64.8099
1965.67 92.4837
1965.69 139.083
1965.71 219.708
1965.74 354.102
1965.76 438.929
1965.78 347.859
1965.80 219.227
1965.82 151.231
1965.84 107.355
1965.85 78.9329
1965.87 60.8981
1965.90 38.0093
1965.94 26.0431
1965.97 18.7203
1966.00 14.1874
1966.07 8.87534
1966.14 6.06265
1966.20 4.39974
1966.27 3.33693
1966.34 2.62611
1966.47 1.73821
1966.60 1.23810
1966.74 0.924928
1966.87 0.718736
1967.14 0.469025
1967.41 0.331001
1967.94 0.190984
1968.48 0.124859
1969.01 0.0885781
1970.08 0.0520515
1972.22 0.0254522
1974.35 0.0158954
1978.63 0.00875559
1982.90 0.00603505
1987.18 0.00464446
1991.45 0.00380725
2000.00 0.00285325
2016.73 0.00203126
2033.47 0.00172493
2050.20 0.00168452
2066.93 0.00190785
2083.67 0.00261859
2092.03 0.00339503
2100.40 0.00485702
2104.58 0.00610924
2108.77 0.00804066
2112.95 0.0112399
2117.13 0.0171066
2119.22 0.0220732
2121.31 0.0296839
2123.41 0.0422249
2125.50 0.0650658
2126.54 0.0842981
2127.59 0.113634
2128.64 0.161618
2129.68 0.248076
2130.20 0.320158
2130.73 0.429001
2131.25 0.604580
2131.51 0.736135
2131.77 0.914978
2132.03 1.16895
2132.30 1.54338
2132.43 1.80283
2132.56 2.13337
2132.69 2.56340
2132.82 3.13188
2132.95 3.91806
2133.08 5.03845
2133.21 6.70979
2133.34 9.32741
2133.41 11.2694
2133.47 13.8204
2133.54 17.3068
2133.60 22.2185
2133.67 29.5135
2133.73 40.4144
2133.80 57.4450
2133.86 84.2052
2133.95 135.172
2134.03 168.567
2134.11 134.341
2134.20 84.0597
2134.26 57.0241
2134.33 40.1460
2134.39 29.2046
2134.46 22.0995
2134.59 13.7139
2134.72 9.26648
2134.85 6.65599
2134.98 5.00268
2135.25 3.11356
2135.51 2.11973
2135.77 1.53462
2136.03 1.16175
2136.29 0.910575
2136.82 0.601514
2137.34 0.426716
2137.86 0.318371
2138.39 0.246741
2139.44 0.160592
2140.48 0.112888
2141.53 0.0837186
2142.58 0.0645938
2144.67 0.0418646
2146.77 0.0294007
2148.86 0.0218312
2150.95 0.0168972
2155.14 0.0110665
2159.33 0.00788651
2163.52 0.00596574
2167.71 0.00471941
2176.09 0.00326050
2184.47 0.00248226
2201.22 0.00176919
2217.98 0.00158169
2234.74 0.00184005
2243.11 0.00232484
2251.49 0.00360615
2259.87 0.00932830
2261.96 0.0147033
2264.06 0.0293354
2265.11 0.0492443
2266.15 0.104685
2266.68 0.180574
2266.94 0.255506
2267.20 0.390000
2267.46 0.672061
2267.59 0.945886
2267.72 1.43021
2267.79 1.82942
2267.86 2.41154
2267.92 3.34046
2267.99 4.89613
2268.05 7.90831
2268.09 10.5635
2268.12 14.6243
2268.15 21.7616
2268.18 34.7867
2268.20 46.6729
2268.22 63.7380
2268.23 90.3201
2268.25 134.629
2268.27 213.657
2268.29 269.128
2268.31 213.707
2268.33 134.669
2268.35 90.3463
2268.36 63.7553
2268.38 45.8381
2268.40 34.7950
2268.43 21.4814
2268.46 14.4679
2268.50 10.3696
2268.53 7.78221
2268.59 4.86593
2268.66 3.30610
2268.73 2.39079
2268.79 1.80887
2268.86 1.42128
2268.99 0.938968
2269.12 0.668466
2269.38 0.389333
2269.64 0.255374
2269.91 0.181274
2270.43 0.106646
2271.48 0.0529082
2272.53 0.0347239
2274.64 0.0244669
2276.74 0.0264523
2278.84 0.0390732
2279.89 0.0532935
2280.94 0.0800414
2281.99 0.138035
2282.52 0.196040
2283.04 0.301457
2283.31 0.390197
2283.57 0.525328
2283.83 0.745803
2284.09 1.13994
2284.23 1.46926
2284.36 1.96055
2284.49 2.74673
2284.62 4.12044
2284.75 6.88073
2284.82 9.42910
2284.88 13.6052
2284.95 21.4252
2284.98 28.0787
2285.01 37.8954
2285.05 54.2886
2285.08 83.1840
2285.11 139.027
2285.13 184.610
2285.14 251.774
2285.17 404.460
2285.20 503.704
2285.22 404.413
2285.25 251.740
2285.28 151.539
2285.30 96.2155
2285.33 65.2836
2285.36 46.7897
2285.39 35.0183
2285.42 27.1220
2285.47 17.5787
2285.53 12.2819
2285.58 9.05226
2285.70 5.51308
2285.81 3.69141
2285.92 2.64251
2286.03 1.98433
2286.14 1.54782
2286.37 1.01370
2286.59 0.716151
2286.81 0.532845
2287.04 0.411995
2287.48 0.267360
2287.93 0.187618
2288.82 0.107318
2289.72 0.0696134
2290.61 0.0489713
2292.40 0.0282483
2295.97 0.0132250
2299.54 0.00787200
2306.69 0.00396198
2313.84 0.00255211
2328.13 0.00151430
2342.42 0.00114451
2371.01 0.000903010
2399.60 0.000877298
2428.19 0.000968945
2456.77 0.00124169
2471.07 0.00156696
2485.36 0.00238097
2492.51 0.00344133
2499.65 0.00636003
2503.23 0.0103750
2506.80 0.0217157
2508.59 0.0374557
2510.37 0.0818844
2511.27 0.143299
2511.71 0.204339
2512.16 0.314873
2512.61 0.548859
2512.83 0.777911
2513.05 1.18751
2513.17 1.52759
2513.28 2.03769
2513.39 2.85304
2513.50 4.25813
2513.61 7.05645
2513.67 9.61235
2513.72 13.7379
2513.78 21.3424
2513.81 27.6935
2513.84 37.2495
2513.86 52.4536
2513.89 78.3389
2513.92 125.821
2513.95 213.336
2513.97 340.853
2514.00 426.817
2514.02 340.875
2514.05 213.354
2514.06 148.952
2514.08 105.294
2514.10 77.1409
2514.12 59.2543
2514.16 36.8344
2514.20 25.1429
2514.23 18.0405
2514.27 13.6428
2514.34 8.56222
2514.42 5.83348
2514.49 4.24209
2514.57 3.21079
2514.64 2.52176
2514.79 1.66896
2514.94 1.18548
2515.09 0.885309
2515.24 0.686299
2515.54 0.446595
2515.84 0.314134
2516.43 0.179883
2517.03 0.116575
2517.62 0.0818864
2518.82 0.0470466
2521.20 0.0219290
2523.59 0.0130976
2528.36 0.00681857
2533.13 0.00468904
2542.67 0.00336813
2552.22 0.00322256
2561.76 0.00366246
2571.30 0.00507061
2576.07 0.00689344
2580.84 0.0117864
2583.23 0.0184160
2585.61 0.0369732
2586.81 0.0625932
2588.00 0.134613
2588.60 0.233662
2588.89 0.331483
2589.19 0.508127
2589.49 0.878133
2589.64 1.23786
2589.79 1.87508
2589.86 2.40053
2589.94 3.16930
2590.01 4.39612
2590.09 6.46039
2590.16 10.4673
2590.20 13.9558
2590.24 19.4888
2590.27 29.3226
2590.31 47.7624
2590.33 64.2992
2590.35 88.3956
2590.37 129.076
2590.38 191.574
2590.41 308.904
2590.43 383.006
2590.45 308.889
2590.47 191.563
2590.50 118.755
2590.52 76.3720
2590.54 52.2582
2590.56 38.1742
2590.59 28.6409
2590.61 22.2209
2590.66 14.5572
2590.70 10.1708
2590.75 7.54206
2590.84 4.59040
2590.93 3.08245
2591.02 2.21119
2591.11 1.66317
2591.20 1.29972
2591.38 0.853160
2591.56 0.603139
2591.93 0.348310
2592.29 0.227043
2592.65 0.160346
2593.38 0.0930977
2594.83 0.0443606
2596.29 0.0272030
2599.19 0.0150944
2602.10 0.0111288
2607.91 0.00909071
2613.73 0.00968123
2619.54 0.0121440
2622.44 0.0145655
2625.35 0.0187425
2628.26 0.0271496
2631.16 0.0496556
2632.62 0.0799842
2633.34 0.109910
2634.07 0.163985
2634.80 0.278244
2635.16 0.390277
2635.52 0.591048
2635.70 0.757812
2635.89 1.00841
2636.07 1.41000
2636.25 2.10801
2636.43 3.50422
2636.52 4.78921
2636.61 6.89970
2636.70 10.8223
2636.75 14.1898
2636.79 19.2185
2636.84 27.5732
2636.89 41.9037
2636.93 69.1978
2636.95 92.6298
2636.98 125.546
2637.01 200.244
2637.05 251.158
2637.09 200.256
2637.12 125.557
2637.16 73.5902
2637.20 45.9981
2637.25 30.8897
2637.29 22.1548
2637.33 16.4836
2637.37 12.7113
2637.45 8.23086
2637.53 5.72638
2637.61 4.22405
2637.77 2.56786
2637.94 1.72137
2638.10 1.23492
2638.26 0.930088
2638.42 0.727672
2638.75 0.481112
2639.08 0.343815
2639.73 0.203765
2640.38 0.137691
2641.03 0.101517
2642.33 0.0656603
2644.93 0.0414219
2647.54 0.0351096
2652.75 0.0376031
2657.95 0.0520332
2660.56 0.0654246
2663.16 0.0861831
2665.77 0.120121
2667.07 0.145645
2668.37 0.180584
2669.02 0.203086
2669.67 0.230147
2670.32 0.263082
2670.97 0.303710
2671.63 0.354611
2672.28 0.419546
2672.93 0.504154
2673.58 0.617203
2674.23 0.772909
2674.88 0.995517
2675.53 1.32901
2676.18 1.85961
2676.51 2.25066
2676.83 2.77364
2677.16 3.49761
2677.48 4.52699
2677.81 6.05656
2678.14 8.41067
2678.46 12.1983
2678.79 18.3192
2679.18 29.3286
2679.57 36.7355
2679.96 29.4403
2680.35 18.4044
2680.59 13.5229
2680.84 10.1146
2681.33 6.08046
2681.81 3.98120
2682.30 2.78539
2682.79 2.04937
2683.27 1.56744
2684.25 0.998779
2685.22 0.690346
2686.20 0.505120
2688.14 0.303721
2690.09 0.202560
2692.04 0.144733
2693.99 0.108628
2695.94 0.0845914
2699.83 0.0555930
2703.73 0.0394417
2707.62 0.0295419
2711.52 0.0230471
2719.31 0.0153524
2727.10 0.0111870
2734.90 0.00874398
2742.69 0.00727241
2758.27 0.00611677
2766.06 0.00635141
2773.86 0.00744488
2781.65 0.0104300
2785.54 0.0136195
2789.44 0.0195858
2791.39 0.0246729
2793.34 0.0324917
2795.28 0.0453778
2797.23 0.0688303
2798.21 0.0885263
2799.18 0.118490
2800.15 0.167315
2801.13 0.254890
2801.61 0.327427
2802.10 0.436320
2802.59 0.610576
2802.83 0.740162
2803.08 0.915053
2803.32 1.16130
2803.56 1.52009
2803.68 1.76615
2803.81 2.07683
2803.93 2.47668
2804.05 2.99803
2804.17 3.70771
2804.29 4.69817
2804.42 6.13573
2804.54 8.30361
2804.66 11.8345
2804.78 17.9946
2804.84 22.8643
2804.90 29.7155
2804.96 39.4930
2805.02 53.0904
2805.12 84.7759
2805.22 105.629
2805.32 84.3871
2805.42 52.7844
2805.51 34.2207
2805.60 23.2273
2805.69 16.5203
2805.78 12.2463
2805.95 7.41580
2806.13 4.93550
2806.30 3.50945
2806.48 2.61898
2806.83 1.61505
2807.19 1.09241
2807.54 0.788247
2807.89 0.595462
2808.24 0.465701
2808.95 0.307207
2809.65 0.218064
2810.35 0.162948
2811.06 0.126517
2812.47 0.0828566
2813.88 0.0587279
2815.28 0.0439928
2816.69 0.0343570
2819.51 0.0229430
2822.33 0.0167323
2825.14 0.0130296
2827.96 0.0107102
2833.59 0.00844166
2839.23 0.00884415
2842.05 0.0111425
2844.86 0.0188117
2846.27 0.0298997
2847.68 0.0615282
2848.38 0.105334
2849.09 0.227408
2849.44 0.392907
2849.62 0.554571
2849.79 0.842467
2849.97 1.43212
2850.06 1.99144
2850.14 2.95517
2850.23 4.82859
2850.28 6.50788
2850.32 9.22771
2850.36 14.0380
2850.39 17.9438
2850.41 23.6603
2850.43 32.4230
2850.45 46.5934
2850.47 70.7961
2850.50 114.489
2850.52 182.444
2850.54 229.109
2850.57 182.421
2850.59 114.472
2850.61 66.6349
2850.64 41.2754
2850.67 27.5477
2850.69 19.5214
2850.72 14.4923
2850.74 11.1571
2850.80 7.17222
2850.85 4.98485
2850.90 3.66089
2851.00 2.21097
2851.11 1.47785
2851.21 1.05702
2851.42 0.619100
2851.63 0.405857
2851.83 0.287277
2852.25 0.166009
2853.08 0.0769165
2853.91 0.0450141
2855.57 0.0218337
2857.23 0.0135644
2860.55 0.00750218
2863.87 0.00527710
2870.51 0.00355027
2877.15 0.00285745
2890.43 0.00229055
2903.72 0.00212476
2917.00 0.00222428
2930.28 0.00283298
2943.56 0.00638656
2946.88 0.0100575
2950.20 0.0204694
2951.86 0.0349466
2953.52 0.0758415
2954.35 0.132307
2954.77 0.188396
2955.18 0.290209
2955.60 0.505250
2955.81 0.716876
2956.01 1.09378
2956.12 1.40674
2956.22 1.87609
2956.33 2.62611
2956.43 3.91702
2956.53 6.48780
2956.58 8.83458
2956.64 12.7104
2956.69 19.7666
2956.71 25.6677
2956.74 34.5582
2956.77 48.7275
2956.79 72.9059
2956.82 117.387
2956.84 198.483
2956.87 317.498
2956.89 396.849
2956.91 317.571
2956.94 198.540
2956.95 135.277
2956.97 96.8544
2956.99 70.5254
2957.01 53.9739
2957.04 33.7330
2957.08 22.8961
2957.11 16.4961
2957.15 12.4258
2957.22 7.75621
2957.29 5.29036
2957.36 3.83506
2957.43 2.90608
2957.49 2.28499
2957.63 1.51048
2957.77 1.07452
2958.05 0.622288
2958.33 0.405635
2958.61 0.285401
2959.17 0.163579
2960.28 0.0747213
2961.40 0.0431153
2963.63 0.0203108
2965.87 0.0122867
2970.33 0.00656819
2974.79 0.00461664
2983.72 0.00339018
2992.65 0.00326798
3001.58 0.00379712
3010.51 0.00568856
3014.98 0.00836508
3019.44 0.0159418
3021.67 0.0264624
3023.91 0.0562049
3025.02 0.0973521
3025.58 0.138309
3026.14 0.212834
3026.70 0.370864
3026.97 0.526581
3027.25 0.806655
3027.39 1.04031
3027.53 1.38954
3027.67 1.95479
3027.81 2.94091
3027.88 3.74659
3027.95 4.93378
3028.02 6.78592
3028.09 9.84683
3028.16 15.6404
3028.20 20.6299
3028.23 28.3763
3028.27 41.2549
3028.30 64.6408
3028.32 84.5365
3028.34 111.948
3028.35 152.375
3028.37 212.723
3028.40 342.580
3028.42 425.618
3028.45 342.586
3028.47 212.729
3028.49 158.269
3028.50 117.982
3028.53 71.5133
3028.56 47.0770
3028.60 33.0570
3028.63 24.3842
3028.66 18.6848
3028.72 11.9350
3028.78 8.21639
3028.84 6.02139
3028.97 3.62633
3029.09 2.41216
3029.22 1.72351
3029.34 1.29263
3029.47 1.00532
3029.71 0.657086
3029.96 0.463701
3030.46 0.266431
3030.96 0.173056
3031.45 0.121801
3032.45 0.0702471
3034.44 0.0329559
3036.43 0.0198100
3040.40 0.0104237
3044.38 0.00720084
3052.33 0.00508233
3060.29 0.00458509
3076.20 0.00495093
3092.11 0.00631685
3108.02 0.00900197
3123.92 0.0145547
3131.88 0.0198205
3139.83 0.0291358
3143.81 0.0371687
3147.79 0.0512688
3149.78 0.0647057
3151.76 0.0938723
3152.76 0.128923
3153.75 0.220585
3154.25 0.342339
3154.50 0.461441
3154.75 0.673672
3155.00 1.11542
3155.12 1.53914
3155.24 2.28133
3155.37 3.78037
3155.43 5.15794
3155.49 7.46387
3155.55 11.7501
3155.59 15.4141
3155.62 21.0599
3155.65 30.3491
3155.68 46.9659
3155.71 79.8448
3155.73 109.488
3155.74 151.176
3155.76 243.178
3155.79 302.066
3155.81 243.191
3155.83 151.188
3155.86 96.9602
3155.88 64.2127
3155.90 44.8596
3155.92 32.8248
3155.97 19.5496
3156.01 13.0010
3156.05 9.18353
3156.10 6.87099
3156.18 4.24396
3156.27 2.87645
3156.36 2.09239
3156.53 1.26378
3156.71 0.856952
3156.88 0.630238
3157.23 0.398393
3157.58 0.289525
3157.93 0.230641
3158.62 0.174294
3160.02 0.142404
3161.42 0.142728
3162.11 0.148008
3162.81 0.155705
3163.51 0.165599
3164.21 0.177663
3164.90 0.192077
3165.60 0.209099
3167.00 0.252702
3168.39 0.313813
3169.79 0.401739
3171.18 0.533838
3172.58 0.743651
3173.28 0.897773
3173.98 1.10405
3174.67 1.38782
3175.37 1.79014
3176.07 2.38338
3176.77 3.29057
3177.46 4.73214
3178.16 7.03496
3179.03 11.2761
3179.89 14.0607
3180.75 11.2016
3181.61 6.99561
3182.59 4.04399
3183.57 2.51600
3184.55 1.68483
3185.52 1.19692
3186.50 0.890266
3187.48 0.686425
3189.44 0.442265
3191.39 0.307902
3193.35 0.226432
3197.26 0.137060
3201.17 0.0917985
3205.08 0.0657920
3209.00 0.0494988
3212.91 0.0386280
3220.73 0.0254928
3228.56 0.0181815
3236.38 0.0137231
3244.20 0.0108354
3259.85 0.00759311
3275.50 0.00638609
3283.32 0.00661969
3291.15 0.00831956
3295.06 0.0109327
3298.97 0.0183468
3300.93 0.0285473
3302.88 0.0571878
3303.86 0.0966625
3304.84 0.207240
3305.33 0.358422
3305.57 0.507726
3305.82 0.775082
3306.06 1.33381
3306.19 1.87103
3306.31 2.81378
3306.37 3.59272
3306.43 4.72278
3306.49 6.48103
3306.55 9.43128
3306.61 14.9350
3306.64 19.7520
3306.67 26.9611
3306.71 39.3019
3306.74 60.8249
3306.75 79.6749
3306.77 105.475
3306.78 143.500
3306.80 199.872
3306.82 322.425
3306.84 400.096
3306.86 322.824
3306.89 200.186
3306.90 150.022
3306.91 112.093
3306.94 68.2909
3306.97 44.4723
3307.00 31.3593
3307.02 22.9639
3307.05 17.6595
3307.11 11.2549
3307.16 7.77907
3307.22 5.69107
3307.32 3.43429
3307.43 2.28712
3307.54 1.63195
3307.76 0.953172
3307.98 0.624171
3308.20 0.441693
3308.64 0.255636
3309.08 0.167800
3309.52 0.119537
3310.40 0.0711967
3312.15 0.0366724
3313.91 0.0251089
3317.42 0.0188545
3320.93 0.0207605
3324.44 0.0303003
3326.19 0.0409073
3327.95 0.0608379
3329.70 0.103992
3330.58 0.147129
3331.46 0.225584
3331.90 0.291578
3332.33 0.392056
3332.77 0.555950
3333.21 0.849447
3333.43 1.09392
3333.65 1.45968
3333.87 2.04872
3334.09 3.07560
3334.31 5.13377
3334.42 7.03341
3334.53 10.1708
3334.64 16.0216
3334.69 21.0026
3334.75 28.4714
3334.80 40.8442
3334.86 62.7165
3334.91 105.178
3334.94 140.514
3334.97 192.006
3335.01 308.015
3335.05 383.779
3335.10 307.747
3335.14 191.798
3335.17 138.818
3335.20 101.898
3335.23 76.8751
3335.26 59.5713
3335.31 38.3202
3335.37 26.4962
3335.43 19.3340
3335.49 14.6976
3335.60 9.32052
3335.72 6.40315
3335.83 4.67647
3335.95 3.55526
3336.06 2.79868
3336.30 1.85707
3336.53 1.32332
3336.76 0.990626
3336.99 0.769413
3337.45 0.502402
3337.91 0.354186
3338.38 0.263294
3338.84 0.203567
3339.76 0.132376
3340.69 0.0932228
3342.54 0.0538523
3344.39 0.0353963
3346.24 0.0252816
3349.93 0.0151048
3353.63 0.0103123
3357.33 0.00766083
3364.73 0.00494642
3372.13 0.00362653
3379.52 0.00286836
3394.32 0.00204627
3409.11 0.00161245
3423.91 0.00134469
3453.50 0.00103318
3512.68 0.000771288
3542.27 0.000754459
3557.06 0.000884086
3564.46 0.00144271
3568.16 0.00366053
3570.01 0.0123278
3570.93 0.0454591
3571.39 0.166086
3571.51 0.280407
3571.62 0.566653
3571.68 0.912007
3571.74 1.69496
3571.77 2.51569
3571.80 4.07186
3571.83 7.44850
3571.84 10.5219
3571.85 15.5276
3571.87 24.9671
3571.89 31.0287
3571.91 24.9670
3571.93 15.5276
3571.94 10.2536
3571.96 6.94984
3571.99 3.71913
3572.02 2.23945
3572.05 1.50212
3572.12 0.797611
3572.18 0.495390
3572.30 0.242738
3572.43 0.143631
3572.93 0.0391570
3573.93 0.0106739
3575.93 0.00323688
3579.93 0.00133993
3587.93 0.000866899
3603.94 0.000772604
3635.95 0.000874151
3651.96 0.00102570
3667.96 0.00138650
3675.96 0.00183148
3683.97 0.00301197
3691.97 0.00908212
3693.97 0.0152823
3695.97 0.0328100
3696.97 0.0571127
3697.97 0.125395
3698.47 0.219051
3698.72 0.311531
3698.97 0.478268
3699.22 0.826620
3699.35 1.16432
3699.47 1.76059
3699.60 2.96540
3699.66 4.10289
3699.72 6.00009
3699.78 9.65767
3699.82 12.8027
3699.85 17.7360
3699.88 26.4222
3699.91 42.2635
3699.93 56.2074
3699.94 75.8373
3699.96 108.323
3699.97 157.252
3699.99 253.237
3700.01 314.797
3700.03 253.217
3700.05 157.237
3700.07 103.384
3700.09 69.7830
3700.11 49.4103
3700.12 36.4986
3700.16 21.9923
3700.20 14.7412
3700.23 10.4411
3700.27 7.82882
3700.34 4.82911
3700.41 3.25321
3700.48 2.34816
3700.62 1.38693
3700.77 0.911985
3700.91 0.646462
3701.19 0.373379
3701.76 0.170646
3702.33 0.0976832
3703.47 0.0446071
3704.61 0.0258031
3706.88 0.0122674
3709.16 0.00752439
3718.27 0.00307040
3727.37 0.00245364
3736.48 0.00249290
3745.58 0.00285693
3754.69 0.00362923
3759.24 0.00435673
3763.80 0.00584176
3768.35 0.0118608
3770.63 0.0334625
3771.20 0.0551337
3771.76 0.115256
3772.05 0.196726
3772.33 0.416557
3772.48 0.706416
3772.62 1.44772
3772.69 2.35355
3772.76 4.46038
3772.80 6.78111
3772.83 11.2263
3772.85 15.3191
3772.87 21.8741
3772.89 32.9013
3772.90 50.7214
3772.92 81.8321
3772.94 101.463
3772.96 81.8293
3772.98 50.7194
3773.00 28.5461
3773.03 17.1564
3773.05 11.2263
3773.08 7.84980
3773.12 4.41388
3773.17 2.81146
3773.27 1.42189
3773.36 0.855579
3773.56 0.408895
3773.75 0.240636
3774.13 0.113733
3774.51 0.0675793
3776.05 0.0219528
3779.11 0.0109412
3782.18 0.00973949
3785.24 0.0102405
3791.38 0.0134733
3797.51 0.0201756
3800.57 0.0259140
3803.64 0.0346844
3806.71 0.0490059
3809.77 0.0747176
3811.30 0.0960202
3812.84 0.128002
3814.37 0.179183
3815.14 0.217181
3815.90 0.268608
3816.29 0.301544
3816.67 0.340808
3817.05 0.388250
3817.44 0.446297
3817.82 0.518553
3818.20 0.609511
3818.59 0.726485
3818.97 0.880319
3819.35 1.08870
3819.74 1.37861
3820.12 1.79891
3820.50 2.43837
3820.89 3.47526
3821.08 4.24614
3821.27 5.27829
3821.46 6.70652
3821.65 8.70399
3821.84 11.5685
3822.04 15.6103
3822.35 24.9695
3822.67 31.1526
3822.98 24.8653
3823.30 15.5279
3823.52 10.9110
3823.75 7.87424
3823.97 5.85643
3824.20 4.49375
3824.65 2.84897
3825.10 1.95307
3825.55 1.41588
3826.00 1.07191
3826.90 0.673335
3827.80 0.461127
3828.70 0.335220
3829.60 0.254549
3830.50 0.199817
3832.31 0.132465
3834.11 0.0942367
3835.91 0.0704717
3837.71 0.0547010
3841.32 0.0357301
3844.92 0.0251970
3848.53 0.0187488
3852.13 0.0145174
3859.34 0.00948574
3866.55 0.00672366
3873.76 0.00504663
3880.96 0.00395375
3895.38 0.00266540
3909.80 0.00196781
3938.63 0.00129041
3967.47 0.00100950
3996.30 0.000916081
4010.72 0.000936796
4025.14 0.00106358
4039.55 0.00179193
4046.76 0.00465240
4050.37 0.0159057
4052.17 0.0597430
4052.62 0.104083
4053.07 0.226202
4053.30 0.390661
4053.52 0.827928
4053.63 1.39169
4053.75 2.78405
4053.80 4.45654
4053.83 5.88019
4053.86 8.09238
4053.89 11.7755
4053.92 18.4801
4053.93 24.0109
4053.94 32.1092
4053.96 44.2472
4053.97 62.4314
4053.99 99.8496
4054.01 124.779
4054.03 99.8509
4054.05 62.4326
4054.07 38.4305
4054.09 25.4902
4054.11 17.5326
4054.13 12.8771
4054.17 7.61649
4054.21 5.04588
4054.25 3.54819
4054.28 2.64582
4054.36 1.62095
4054.51 0.786094
4054.67 0.462336
4054.98 0.214764
4055.29 0.123940
4055.90 0.0567686
4056.52 0.0326859
4058.99 0.00896929
4063.92 0.00294174
4073.79 0.00146098
4083.66 0.00123699
4093.52 0.00121669
4113.26 0.00142977
4123.13 0.00191545
4128.06 0.00344506
4130.53 0.00921046
4131.76 0.0313381
4132.38 0.113945
4132.69 0.400899
4132.76 0.658474
4132.84 1.27211
4132.88 1.96702
4132.92 3.35145
4132.96 6.88944
4132.98 10.7076
4132.99 17.7508
4133.01 28.6475
4133.03 35.5017
4133.05 28.6477
4133.07 17.7510
4133.08 11.8475
4133.10 8.22872
4133.13 4.38850
4133.16 2.67301
4133.19 1.78509
4133.25 0.950934
4133.32 0.587780
4133.44 0.288059
4133.56 0.171283
4134.06 0.0472185
4135.05 0.0134513
4137.03 0.00467602
4140.99 0.00251099
4148.91 0.00214627
4164.75 0.00258481
4180.59 0.00352966
4196.42 0.00530308
4204.34 0.00680587
4212.26 0.00910401
4220.18 0.0128727
4228.10 0.0196907
4232.06 0.0253880
4236.02 0.0340153
4239.98 0.0479872
4243.94 0.0728230
4245.92 0.0932209
4247.90 0.123585
4248.89 0.144660
4249.88 0.171621
4250.87 0.206871
4251.37 0.228704
4251.86 0.254174
4252.36 0.284129
4252.85 0.319682
4253.35 0.362308
4253.84 0.413999
4254.34 0.477495
4254.83 0.556638
4255.33 0.656948
4255.82 0.786568
4256.32 0.957873
4256.81 1.19033
4257.31 1.51576
4257.80 1.98857
4258.30 2.70607
4258.79 3.85008
4259.29 5.76466
4259.78 9.02068
4260.32 14.4194
4260.86 17.9612
4261.39 14.3192
4261.93 8.94148
4262.27 6.54119
4262.61 4.87963
4263.29 2.91846
4263.98 1.90484
4264.66 1.33057
4265.34 0.977469
4266.02 0.747023
4267.38 0.475325
4268.74 0.328197
4270.10 0.239933
4272.82 0.144057
4275.54 0.0959317
4278.27 0.0684538
4280.99 0.0513067
4283.71 0.0398977
4289.16 0.0261421
4294.60 0.0184925
4300.04 0.0138125
4305.49 0.0107540
4316.38 0.00718342
4327.27 0.00544778
4332.71 0.00514915
4338.16 0.00568264
4343.60 0.0109565
4346.32 0.0331695
4347.00 0.0559612
4347.68 0.119560
4348.02 0.206319
4348.36 0.442448
4348.53 0.753693
4348.70 1.56365
4348.79 2.56935
4348.83 3.49160
4348.87 4.96306
4348.92 7.66599
4348.94 9.84238
4348.96 13.0551
4348.98 18.3394
4349.00 26.7407
4349.02 41.4741
4349.04 68.1484
4349.06 110.082
4349.08 136.272
4349.11 107.971
4349.13 68.1601
4349.14 44.3972
4349.16 30.7355
4349.18 21.7942
4349.20 16.3708
4349.23 9.96889
4349.26 6.72778
4349.30 4.78713
4349.33 3.57398
4349.40 2.21864
4349.54 1.08692
4349.68 0.643026
4349.96 0.301668
4350.24 0.175138
4350.79 0.0813491
4351.35 0.0475517
4353.57 0.0141573
4358.02 0.00545978
4362.47 0.00371370
4366.91 0.00303148
4375.81 0.00247873
4384.70 0.00233995
4393.60 0.00256335
4402.49 0.00368889
4406.94 0.00542560
4411.38 0.0104987
4413.61 0.0176197
4415.83 0.0378321
4416.94 0.0658524
4418.05 0.144454
4418.61 0.252124
4418.89 0.358254
4419.17 0.549210
4419.44 0.946836
4419.58 1.33089
4419.72 2.00617
4419.79 2.55915
4419.86 3.36149
4419.93 4.63037
4420.00 6.73288
4420.07 10.7277
4420.10 14.1812
4420.14 19.3700
4420.17 28.2194
4420.21 43.7197
4420.23 57.1960
4420.24 75.7790
4420.26 103.218
4420.28 144.826
4420.30 232.869
4420.33 289.787
4420.35 232.934
4420.38 144.877
4420.40 92.3043
4420.42 61.9697
4420.45 43.1188
4420.47 31.8369
4420.52 18.9970
4420.56 12.6287
4420.61 8.91283
4420.66 6.61533
4420.75 4.06828
4420.85 2.73880
4420.94 1.97408
4421.13 1.16104
4421.31 0.763495
4421.50 0.540049
4421.87 0.311098
4422.25 0.202181
4422.62 0.142000
4423.37 0.0813067
4424.86 0.0371423
4426.36 0.0214857
4429.35 0.0101894
4432.34 0.00619891
4438.32 0.00331766
4444.30 0.00229501
4456.27 0.00156468
4468.23 0.00135255
4480.19 0.00137489
4492.16 0.00173877
4504.12 0.00390287
4510.10 0.0123580
4511.60 0.0210101
4513.09 0.0453921
4513.84 0.0790233
4514.59 0.172700
4514.96 0.300049
4515.33 0.647271
4515.52 1.10494
4515.61 1.54397
4515.71 2.29597
4515.80 3.78621
4515.85 5.13806
4515.89 7.29423
4515.94 11.2327
4515.96 14.3989
4515.99 19.0592
4516.01 26.6564
4516.03 38.7068
4516.06 59.6974
4516.08 98.5213
4516.10 157.013
4516.13 197.203
4516.15 157.026
4516.17 98.5317
4516.20 58.5124
4516.22 37.3898
4516.25 25.1212
4516.27 18.1060
4516.29 13.4589
4516.32 10.4723
4516.37 6.83330
4516.42 4.76418
4516.46 3.50609
4516.56 2.13232
4516.66 1.42587
4516.76 1.02306
4516.95 0.599872
4517.34 0.277523
4517.73 0.159835
4518.51 0.0731577
4519.29 0.0421494
4520.85 0.0197183
4522.40 0.0118312
4528.63 0.00460187
4534.86 0.00549614
4537.98 0.0138840
4539.54 0.0472259
4539.93 0.0809115
4540.32 0.173348
4540.51 0.296919
4540.70 0.621889
4540.80 1.03885
4540.90 2.05385
4540.95 3.24010
4541.00 5.72953
4541.02 8.29179
4541.05 12.6442
4541.07 20.9939
4541.08 28.0277
4541.09 38.6063
4541.11 62.0970
4541.13 77.2261
4541.15 62.0966
4541.17 38.6061
4541.19 22.5182
4541.21 14.2287
4541.23 9.62891
4541.26 6.89059
4541.30 3.94269
4541.34 2.55943
4541.43 1.31252
4541.51 0.794904
4541.68 0.381477
4541.85 0.223646
4542.19 0.104415
4542.53 0.0609161
4543.89 0.0174095
4546.61 0.00625205
4552.04 0.00376363
4562.91 0.00521358
4568.34 0.00826583
4571.06 0.0113876
4573.78 0.0171244
4576.49 0.0294004
4577.85 0.0416021
4579.21 0.0637275
4579.89 0.0822993
4580.57 0.110467
4581.25 0.156259
4581.93 0.238129
4582.27 0.305845
4582.61 0.407255
4582.95 0.568998
4583.29 0.849131
4583.63 1.40245
4583.80 1.90579
4583.96 2.72765
4584.13 4.22127
4584.22 5.46247
4584.30 7.32080
4584.39 10.2578
4584.47 15.2120
4584.56 24.1833
4584.64 40.8409
4584.72 65.5138
4584.80 81.6764
4584.88 65.1669
4584.95 40.8339
4585.02 27.5908
4585.08 19.3679
4585.14 14.1221
4585.20 10.6631
4585.32 6.61848
4585.44 4.47311
4585.56 3.21366
4585.69 2.41590
4585.93 1.50421
4586.18 1.02303
4586.42 0.741117
4586.66 0.561395
4586.91 0.439908
4587.40 0.290802
4587.88 0.206639
4588.37 0.154443
4588.86 0.119866
4589.84 0.0783262
4590.81 0.0553274
4591.79 0.0412567
4592.77 0.0320468
4594.72 0.0211138
4596.67 0.0151350
4600.58 0.00919543
4608.39 0.00514309
4616.20 0.00416791
4631.83 0.00753619
4635.73 0.0119040
4639.64 0.0244403
4641.59 0.0418529
4642.57 0.0592285
4643.55 0.0908725
4644.52 0.158258
4645.01 0.224826
4645.50 0.344999
4645.99 0.597373
4646.23 0.842373
4646.48 1.27631
4646.60 1.63122
4646.72 2.15745
4646.84 2.98542
4646.96 4.39717
4647.09 7.09692
4647.15 9.47485
4647.21 13.2550
4647.27 19.7588
4647.33 32.2114
4647.36 43.2511
4647.39 59.7088
4647.42 86.9444
4647.45 130.058
4647.49 207.811
4647.53 260.235
4647.56 207.807
4647.60 130.055
4647.62 96.4438
4647.64 72.9797
4647.69 44.1383
4647.73 29.0050
4647.78 20.3400
4647.82 14.9885
4647.87 11.4762
4647.96 7.32229
4648.05 5.06447
4648.14 3.70668
4648.32 2.22850
4648.50 1.48518
4648.68 1.05997
4648.86 0.794350
4649.04 0.617455
4649.40 0.403938
4649.76 0.284922
4650.48 0.163984
4651.20 0.106745
4651.92 0.0752698
4653.36 0.0436760
4656.24 0.0209415
4659.11 0.0130880
4664.87 0.00804362
4670.63 0.00748157
4673.51 0.00820501
4676.39 0.00978063
4679.27 0.0127524
4682.15 0.0185057
4683.59 0.0234615
4685.02 0.0310929
4686.46 0.0436834
4687.90 0.0665418
4688.62 0.0857016
4689.34 0.114769
4690.06 0.161944
4690.78 0.245888
4691.50 0.418217
4691.86 0.581890
4692.22 0.863242
4692.40 1.08778
4692.58 1.41217
4692.76 1.90502
4692.85 2.25308
4692.94 2.70452
4693.03 3.30383
4693.12 4.12162
4693.21 5.27462
4693.30 6.96508
4693.39 9.56163
4693.48 13.7698
4693.57 20.9690
4693.66 33.3931
4693.75 53.3278
4693.85 66.3749
4693.94 52.9418
4694.03 33.0905
4694.11 21.7508
4694.19 14.8620
4694.27 10.6212
4694.35 7.92821
4694.51 4.81948
4694.67 3.22230
4694.83 2.29384
4694.99 1.71602
4695.31 1.06163
4695.63 0.719413
4695.94 0.519766
4696.26 0.392648
4696.58 0.307275
4697.22 0.202685
4697.86 0.143809
4698.49 0.107377
4699.13 0.0832790
4700.41 0.0543719
4701.68 0.0383767
4702.95 0.0285985
4704.23 0.0221854
4706.78 0.0145551
4709.33 0.0103579
4711.87 0.00780056
4714.42 0.00612573
4719.52 0.00413075
4724.62 0.00302894
4734.81 0.00190916
4745.01 0.00137745
4755.20 0.00108586
4775.59 0.000814403
4795.98 0.000764625
4806.18 0.000824066
4816.37 0.000988622
4836.76 0.00263646
4846.96 0.00939698
4849.51 0.0163786
4852.05 0.0361457
4853.33 0.0635261
4854.60 0.140290
4855.24 0.245233
4855.56 0.348752
4855.88 0.534154
4856.20 0.920672
4856.35 1.29205
4856.51 1.94276
4856.67 3.25356
4856.75 4.46838
4856.83 6.47464
4856.91 10.2498
4856.95 13.4854
4856.99 18.3279
4857.03 26.4685
4857.07 41.0575
4857.11 69.9909
4857.13 95.1304
4857.15 131.571
4857.18 210.814
4857.21 263.182
4857.24 210.809
4857.27 131.568
4857.31 75.3853
4857.34 46.4589
4857.38 30.9091
4857.41 21.8575
4857.45 16.2027
4857.48 12.4604
4857.55 8.04368
4857.62 5.57947
4857.69 4.09150
4857.83 2.47348
4857.97 1.64950
4858.11 1.18012
4858.39 0.688029
4858.67 0.449996
4858.95 0.317101
4859.50 0.181894
4860.62 0.0825099
4861.73 0.0469779
4863.96 0.0212466
4866.19 0.0121421
4875.11 0.00328130
4892.95 0.00103539
4910.80 0.000612529
4928.64 0.000466097
4964.32 0.000390564
5000.00 0.000511361
5023.61 0.00118268
5035.41 0.00384817
5041.31 0.0143766
5042.79 0.0251910
5044.26 0.0556797
5045.00 0.0977070
5045.74 0.214570
5046.10 0.373064
5046.47 0.803548
5046.66 1.37041
5046.75 1.90549
5046.84 2.82617
5046.93 4.61188
5046.98 6.20861
5047.03 8.78778
5047.07 13.3306
5047.12 22.3561
5047.14 30.5127
5047.16 43.5927
5047.19 65.6617
5047.21 103.700
5047.24 167.232
5047.26 207.329
5047.28 164.542
5047.31 103.714
5047.33 68.2238
5047.35 47.4375
5047.37 34.3539
5047.39 25.8113
5047.43 15.9166
5047.47 10.7142
5047.51 7.67678
5047.55 5.75996
5047.63 3.57690
5047.71 2.43186
5047.79 1.75898
5047.95 1.04157
5048.27 0.487613
5048.59 0.281627
5049.23 0.128646
5049.87 0.0734569
5051.15 0.0332629
5052.43 0.0189820
5057.55 0.00505923
5067.79 0.00157375
5088.27 0.000866344
5108.75 0.00157570
5118.99 0.00482404
5124.11 0.0175991
5125.39 0.0306740
5126.67 0.0674643
5127.31 0.117991
5127.95 0.258125
5128.27 0.446962
5128.59 0.955412
5128.75 1.61491
5128.83 2.23432
5128.91 3.28995
5128.99 5.30726
5129.03 7.08295
5129.07 9.90400
5129.11 14.7542
5129.15 24.0331
5129.17 32.0930
5129.19 44.5124
5129.21 64.3993
5129.23 98.4745
5129.26 157.732
5129.28 197.046
5129.30 157.752
5129.33 98.4906
5129.35 64.4095
5129.37 43.7535
5129.39 31.1322
5129.41 23.0825
5129.45 13.9793
5129.50 9.30333
5129.54 6.61445
5129.58 4.93534
5129.66 3.04222
5129.75 2.05874
5129.83 1.48439
5130.00 0.877899
5130.33 0.409852
5130.67 0.236483
5131.34 0.107949
5132.01 0.0617717
5133.35 0.0281716
5134.69 0.0162648
5140.06 0.00477583
5150.78 0.00252505
5161.51 0.00570284
5166.88 0.0203265
5168.22 0.0354185
5169.56 0.0779519
5170.23 0.136467
5170.90 0.298563
5171.23 0.516887
5171.40 0.729771
5171.57 1.10423
5171.74 1.86853
5171.82 2.58728
5171.90 3.79446
5171.99 6.12233
5172.03 8.17127
5172.07 11.4257
5172.11 17.0172
5172.16 27.6965
5172.18 36.9495
5172.20 51.1578
5172.22 73.7685
5172.24 108.953
5172.26 173.576
5172.29 217.745
5172.32 173.558
5172.34 108.940
5172.37 61.6504
5172.40 38.0452
5172.43 25.3416
5172.46 17.9375
5172.49 13.3068
5172.52 10.2395
5172.58 6.57812
5172.64 4.56996
5172.70 3.35501
5172.82 2.02490
5172.94 1.35253
5173.06 0.966615
5173.30 0.563786
5173.78 0.260038
5174.26 0.149158
5175.22 0.0677364
5176.18 0.0386712
5178.10 0.0176077
5180.03 0.0101513
5187.71 0.00287898
5203.08 0.00102679
5218.45 0.000693680
5233.81 0.000607297
5249.18 0.000616637
5264.55 0.000710211
5272.23 0.000815815
5279.92 0.00104355
5287.60 0.00198454
5291.44 0.00538219
5293.36 0.0184626
5294.32 0.0682932
5294.80 0.249917
5294.92 0.421133
5295.04 0.854210
5295.10 1.37306
5295.16 2.54646
5295.19 3.77346
5295.22 6.09452
5295.25 11.1189
5295.27 15.8952
5295.28 23.7328
5295.30 37.7944
5295.32 47.4316
5295.34 37.7949
5295.36 23.7332
5295.37 15.5030
5295.39 10.6333
5295.42 5.58539
5295.46 3.37343
5295.49 2.26658
5295.55 1.20649
5295.62 0.745318
5295.75 0.363099
5295.88 0.214943
5296.40 0.0585258
5297.44 0.0159541
5299.53 0.00488926
5303.70 0.00217070
5312.04 0.00178617
5320.37 0.00220159
5328.71 0.00315707
5332.88 0.00399070
5337.05 0.00527731
5341.22 0.00740416
5345.39 0.0112882
5347.48 0.0145642
5349.56 0.0195703
5351.65 0.0277798
5353.73 0.0426383
5354.77 0.0550788
5355.82 0.0739202
5356.86 0.104474
5357.90 0.158906
5358.94 0.270627
5359.46 0.376637
5359.98 0.559499
5360.25 0.705473
5360.51 0.915580
5360.77 1.23610
5360.90 1.46169
5361.03 1.75420
5361.16 2.14585
5361.29 2.67670
5361.42 3.42510
5361.55 4.52237
5361.68 6.22439
5361.81 8.96915
5361.94 13.6749
5362.00 17.2434
5362.07 21.9492
5362.20 35.1505
5362.34 43.8314
5362.47 34.9989
5362.60 21.9124
5362.72 14.2366
5362.84 9.63882
5362.96 6.84219
5363.07 5.06442
5363.31 3.06038
5363.55 2.03401
5363.78 1.44489
5364.02 1.07746
5364.49 0.664302
5364.96 0.449316
5365.43 0.324085
5365.90 0.244576
5366.38 0.191193
5367.32 0.126001
5368.26 0.0892843
5369.20 0.0665927
5370.15 0.0515990
5372.03 0.0336393
5373.92 0.0237163
5375.81 0.0176619
5377.69 0.0137000
5381.47 0.00900524
5385.24 0.00644223
5389.01 0.00489651
5392.78 0.00389804
5400.33 0.00274443
5407.87 0.00215161
5422.96 0.00168251
5438.05 0.00170807
5453.14 0.00224583
5460.68 0.00294896
5468.23 0.00463906
5472.00 0.00671681
5475.77 0.0121618
5479.54 0.0396051
5480.49 0.0672446
5481.43 0.144320
5481.90 0.249388
5482.37 0.536469
5482.61 0.917965
5482.73 1.28374
5482.85 1.92161
5482.96 3.18518
5483.02 4.34095
5483.08 6.25394
5483.14 9.74833
5483.17 12.7413
5483.20 17.1146
5483.23 24.3706
5483.26 36.4205
5483.29 58.5904
5483.32 101.362
5483.34 163.423
5483.37 202.699
5483.39 160.931
5483.42 101.402
5483.44 71.6574
5483.45 52.7733
5483.49 31.0349
5483.52 19.8179
5483.56 13.7707
5483.59 10.0003
5483.63 7.63182
5483.69 4.84975
5483.76 3.33011
5483.83 2.42547
5483.97 1.45449
5484.11 0.965831
5484.24 0.689594
5484.52 0.401934
5485.07 0.186795
5485.62 0.108918
5486.72 0.0520839
5487.82 0.0320478
5492.21 0.0138863
5494.41 0.0127236
5496.61 0.0130507
5501.00 0.0170206
5503.20 0.0211067
5505.40 0.0276151
5507.60 0.0384608
5509.80 0.0581474
5510.89 0.0745462
5511.99 0.0992496
5513.09 0.138927
5514.19 0.208574
5514.74 0.265066
5515.29 0.347899
5515.57 0.404791
5515.84 0.476825
5516.12 0.569846
5516.39 0.692273
5516.66 0.859130
5516.94 1.09355
5517.21 1.43674
5517.49 1.96334
5517.63 2.34181
5517.76 2.83235
5517.90 3.49172
5518.04 4.38648
5518.18 5.65108
5518.31 7.45792
5518.45 10.1049
5518.59 13.9687
5518.80 22.3404
5519.00 27.7957
5519.21 22.1480
5519.42 13.8511
5519.59 9.35933
5519.76 6.53537
5519.92 4.74611
5520.09 3.57271
5520.42 2.20832
5520.76 1.49018
5521.09 1.06854
5521.42 0.802185
5522.09 0.498905
5522.76 0.339417
5523.43 0.245779
5524.09 0.186066
5524.76 0.145798
5526.10 0.0964485
5527.43 0.0685444
5528.77 0.0512493
5530.10 0.0397956
5532.77 0.0260463
5535.44 0.0184213
5538.11 0.0137568
5540.78 0.0106976
5546.12 0.00705861
5551.46 0.00506094
5556.80 0.00384947
5562.14 0.00306239
5572.82 0.00214469
5583.50 0.00166688
5604.86 0.00128908
5626.22 0.00136628
5636.90 0.00161552
5647.57 0.00215568
5658.25 0.00339913
5668.93 0.00702558
5674.27 0.0121068
5676.94 0.0171982
5679.61 0.0265168
5682.28 0.0464694
5683.62 0.0663283
5684.95 0.102452
5686.29 0.179001
5686.96 0.254441
5687.62 0.389794
5687.96 0.502277
5688.29 0.671512
5688.62 0.943152
5688.96 1.41794
5689.12 1.80340
5689.29 2.36956
5689.46 3.24905
5689.62 4.70977
5689.79 7.43504
5689.88 9.77943
5689.96 13.3448
5690.04 19.2753
5690.13 29.7284
5690.21 50.2312
5690.25 68.1218
5690.29 93.9856
5690.36 150.074
5690.42 187.991
5690.48 150.192
5690.55 94.0053
5690.61 59.6547
5690.67 39.7986
5690.72 27.9568
5690.78 20.5372
5690.90 12.2887
5691.02 8.11847
5691.14 5.74409
5691.26 4.27127
5691.49 2.62109
5691.73 1.76880
5691.96 1.27289
5692.20 0.959448
5692.44 0.748897
5692.91 0.492124
5693.38 0.348123
5693.85 0.259205
5694.32 0.200486
5695.27 0.130159
5696.21 0.0913377
5698.10 0.0521228
5699.99 0.0337187
5701.88 0.0236344
5705.66 0.0135293
5713.21 0.00624673
5720.77 0.00367912
5735.88 0.00183854
5750.99 0.00119931
5781.22 0.000777384
5811.44 0.000709216
5841.67 0.000842819
5871.89 0.00137067
5887.00 0.00211670
5902.11 0.00420315
5909.67 0.00707494
5917.23 0.0151654
5921.00 0.0263537
5922.89 0.0375017
5924.78 0.0578211
5926.67 0.101044
5927.62 0.143817
5928.56 0.220991
5929.03 0.285517
5929.51 0.382886
5929.98 0.540189
5930.45 0.818876
5930.69 1.04687
5930.92 1.38500
5931.16 1.91720
5931.39 2.82510
5931.63 4.56259
5931.75 6.09416
5931.87 8.53081
5931.98 12.7280
5932.10 20.7781
5932.16 27.7863
5932.22 38.6035
5932.28 55.9468
5932.34 84.1652
5932.41 134.585
5932.48 168.427
5932.55 134.784
5932.62 84.2623
5932.70 47.9444
5932.79 29.3376
5932.87 19.4260
5932.96 13.6926
5933.04 10.1267
5933.12 7.77442
5933.29 4.99034
5933.46 3.45823
5933.63 2.53873
5933.96 1.53023
5934.30 1.02023
5934.63 0.728931
5934.97 0.546647
5935.30 0.425095
5935.97 0.278030
5936.64 0.196100
5937.31 0.145711
5937.98 0.112620
5939.33 0.0731482
5940.67 0.0514261
5943.35 0.0295964
5946.03 0.0194014
5948.71 0.0138506
5954.07 0.00835703
5964.80 0.00462319
5975.53 0.00368457
5986.25 0.00390509
5996.98 0.00556949
6002.34 0.00783399
6007.70 0.0137167
6010.39 0.0214073
6013.07 0.0423634
6014.41 0.0708296
6015.75 0.149894
6016.42 0.257502
6017.09 0.551873
6017.43 0.942509
6017.59 1.31849
6017.76 1.97033
6017.93 3.27051
6018.01 4.46304
6018.10 6.41209
6018.18 10.0164
6018.22 13.0517
6018.26 17.6575
6018.31 25.0736
6018.35 37.9229
6018.39 62.1301
6018.43 109.883
6018.47 176.156
6018.50 220.110
6018.54 176.644
6018.57 110.266
6018.60 73.9241
6018.63 51.7187
6018.66 37.6175
6018.68 28.3521
6018.74 17.5557
6018.80 11.8481
6018.85 8.45814
6018.91 6.35942
6019.02 3.96139
6019.13 2.69134
6019.25 1.95167
6019.47 1.15869
6019.70 0.767600
6019.92 0.546625
6020.37 0.319563
6021.27 0.150932
6022.17 0.0904809
6023.97 0.0474064
6025.77 0.0333879
6029.36 0.0272817
6032.96 0.0329670
6036.56 0.0518817
6038.35 0.0719699
6040.15 0.109075
6041.05 0.140392
6041.95 0.188117
6042.85 0.265937
6043.75 0.405498
6044.20 0.521177
6044.65 0.694304
6045.10 0.971648
6045.55 1.45423
6046.00 2.41251
6046.22 3.28976
6046.44 4.73467
6046.67 7.38553
6046.78 9.62468
6046.89 12.9843
6047.01 18.4260
6047.12 27.7255
6047.23 45.0724
6047.34 79.5238
6047.44 126.988
6047.54 158.782
6047.63 126.629
6047.73 79.2445
6047.81 50.9000
6047.90 34.2831
6047.99 24.1577
6048.07 17.8436
6048.25 10.7269
6048.42 7.12227
6048.59 5.04722
6048.76 3.75733
6049.11 2.31218
6049.45 1.56166
6049.80 1.12558
6050.14 0.849467
6050.49 0.663750
6051.18 0.437061
6051.87 0.309642
6052.56 0.230791
6053.25 0.178765
6054.63 0.116367
6056.01 0.0818710
6057.40 0.0607967
6058.78 0.0469818
6061.54 0.0305550
6064.30 0.0215289
6069.83 0.0124385
6075.35 0.00816596
6080.87 0.00581509
6091.92 0.00343923
6114.02 0.00169604
6136.12 0.00106973
6180.32 0.000653703
6202.41 0.000720604
6213.46 0.00131270
6218.99 0.00376052
6221.75 0.0134245
6223.13 0.0508107
6223.82 0.190830
6224.00 0.326778
6224.17 0.679840
6224.25 1.12675
6224.34 2.18976
6224.38 3.38183
6224.43 5.84643
6224.45 8.24285
6224.47 12.0885
6224.49 19.3842
6224.51 33.2848
6224.53 52.7692
6224.55 66.5755
6224.57 52.7599
6224.59 33.2776
6224.61 18.9367
6224.64 11.6226
6224.66 7.71204
6224.68 5.44392
6224.73 3.09676
6224.77 2.00268
6224.87 1.02299
6224.96 0.618030
6225.14 0.294436
6225.32 0.172073
6226.05 0.0457175
6227.51 0.0120843
6230.43 0.00340574
6236.27 0.00119811
6247.95 0.000640189
6259.63 0.000543097
6271.31 0.000522776
6294.67 0.000567142
6318.02 0.000715605
6341.38 0.00107559
6353.06 0.00144526
6364.74 0.00212501
6370.58 0.00269946
6376.42 0.00357767
6382.26 0.00501909
6388.10 0.00763351
6391.02 0.00982671
6393.94 0.0131636
6396.86 0.0186087
6399.78 0.0284077
6401.24 0.0365660
6402.70 0.0488817
6404.16 0.0687546
6405.62 0.103929
6407.08 0.175338
6407.81 0.242459
6408.54 0.356979
6408.90 0.447209
6409.27 0.576242
6409.45 0.662839
6409.63 0.769634
6409.81 0.904918
6410.00 1.07751
6410.18 1.30486
6410.36 1.60834
6410.54 2.02975
6410.73 2.62790
6410.91 3.51967
6411.09 4.89007
6411.27 7.08692
6411.46 10.6435
6411.67 17.0203
6411.89 21.2384
6412.11 16.9633
6412.33 10.5989
6412.47 7.81905
6412.60 5.86950
6412.87 3.55057
6413.14 2.33460
6413.41 1.63829
6413.68 1.20814
6413.95 0.925754
6414.48 0.591694
6415.02 0.409844
6415.56 0.300764
6416.64 0.182156
6417.71 0.122737
6418.79 0.0891374
6419.87 0.0686070
6420.94 0.0555635
6423.10 0.0428168
6424.17 0.0418605
6425.25 0.0458665
6426.32 0.0601041
6427.40 0.106587
6427.94 0.172608
6428.48 0.356498
6428.75 0.602921
6429.01 1.25791
6429.15 2.09707
6429.22 2.86764
6429.28 4.15569
6429.35 6.59473
6429.39 8.69499
6429.42 11.8346
6429.45 17.1617
6429.49 26.4022
6429.50 34.1073
6429.52 45.2699
6429.54 61.7741
6429.55 85.2505
6429.58 136.930
6429.60 170.470
6429.63 136.907
6429.65 85.2327
6429.68 49.4563
6429.71 31.0629
6429.74 20.9360
6429.77 14.9407
6429.79 11.1499
6429.82 8.61871
6429.88 5.57333
6429.93 3.89010
6429.99 2.86652
6430.10 1.74057
6430.33 0.837468
6430.55 0.494214
6431.00 0.233780
6431.45 0.138287
6432.35 0.0676125
6433.25 0.0418618
6435.04 0.0224600
6436.84 0.0150124
6440.43 0.00887110
6444.02 0.00619819
6447.61 0.00469449
6451.21 0.00373019
6458.39 0.00257429
6465.57 0.00191817
6472.76 0.00150561
6487.12 0.00103629
6501.49 0.000802108
6515.86 0.000712126
6530.23 0.000939532
6537.41 0.00217237
6541.00 0.00715041
6542.80 0.0266181
6543.70 0.100739
6544.15 0.369177
6544.26 0.619636
6544.37 1.24567
6544.43 1.98460
6544.48 3.62119
6544.51 5.29121
6544.54 8.35826
6544.57 14.6835
6544.58 20.4020
6544.59 29.2373
6544.61 47.1723
6544.63 58.4900
6544.65 47.1722
6544.67 29.2373
6544.69 18.5137
6544.71 12.0880
6544.75 6.06954
6544.78 3.57668
6544.82 2.36459
6544.90 1.23650
6544.97 0.756371
6545.12 0.364728
6545.27 0.214542
6545.87 0.0575540
6547.08 0.0152034
6549.48 0.00420148
6554.29 0.00139297
6563.90 0.000685702
6583.14 0.000594934
6602.37 0.00120318
6611.99 0.00381467
6616.80 0.0141743
6619.20 0.0546658
6619.80 0.0956670
6620.40 0.209246
6620.70 0.362429
6621.00 0.772426
6621.15 1.30686
6621.30 2.65124
6621.38 4.25985
6621.45 7.89177
6621.49 11.7499
6621.53 18.8392
6621.55 25.0694
6621.57 34.5951
6621.59 49.6756
6621.60 73.4144
6621.63 116.703
6621.65 146.912
6621.68 116.709
6621.70 73.4198
6621.73 42.4545
6621.75 26.3118
6621.78 17.5698
6621.81 12.4557
6621.86 7.12259
6621.91 4.61385
6622.02 2.35043
6622.13 1.42341
6622.34 0.679955
6622.56 0.397580
6622.99 0.183557
6623.42 0.105328
6625.13 0.0273190
6628.56 0.00716873
6635.43 0.00206379
6649.16 0.000863758
6662.89 0.00113953
6669.76 0.00313893
6673.19 0.0112046
6674.91 0.0426345
6675.77 0.161543
6675.98 0.278380
6676.20 0.586909
6676.30 0.984163
6676.41 1.95860
6676.46 3.10590
6676.52 5.54696
6676.54 8.02313
6676.57 12.4738
6676.60 21.3379
6676.61 28.7243
6676.62 40.1348
6676.65 64.3596
6676.67 80.1733
6676.69 64.3612
6676.71 40.1362
6676.72 26.1474
6676.74 17.9966
6676.77 9.66258
6676.81 5.91272
6676.84 3.96090
6676.91 2.10078
6676.98 1.30274
6677.12 0.637012
6677.25 0.377415
6677.53 0.176476
6677.80 0.101931
6678.89 0.0267058
6681.08 0.00707351
6685.45 0.00205000
6694.19 0.000779285
6711.67 0.000510025
6729.16 0.000792793
6737.90 0.00213119
6742.27 0.00744510
6744.46 0.0282499
6745.55 0.107974
6745.82 0.186980
6746.10 0.399934
6746.23 0.678009
6746.37 1.38038
6746.44 2.24338
6746.51 4.19483
6746.54 6.25946
6746.57 10.2214
6746.61 19.0052
6746.62 27.5673
6746.64 41.7836
6746.66 67.3379
6746.68 83.6216
6746.70 67.3448
6746.72 41.7891
6746.74 25.7398
6746.76 16.8419
6746.78 11.6710
6746.80 8.49107
6746.84 4.95975
6746.88 3.25905
6746.97 1.69295
6747.05 1.03172
6747.21 0.497455
6747.37 0.291635
6748.02 0.0777957
6749.31 0.0203185
6751.91 0.00542284
6757.09 0.00164048
6767.46 0.000716559
6788.19 0.000635057
6808.92 0.00133160
6819.29 0.00397219
6824.47 0.0141080
6827.06 0.0535169
6827.71 0.0934494
6828.36 0.204282
6828.68 0.353788
6829.01 0.756988
6829.17 1.28100
6829.33 2.61562
6829.41 4.22807
6829.45 5.67270
6829.49 7.91678
6829.53 11.8890
6829.57 19.3293
6829.59 25.7697
6829.61 35.6529
6829.63 51.3773
6829.65 76.6153
6829.68 123.561
6829.70 153.219
6829.73 121.626
6829.75 76.6670
6829.77 52.4126
6829.79 37.5849
6829.81 27.8604
6829.83 21.3039
6829.86 13.4568
6829.90 9.19785
6829.97 5.03406
6830.04 3.15751
6830.19 1.56950
6830.33 0.934696
6830.62 0.439360
6830.91 0.254837
6831.48 0.116976
6832.06 0.0671766
6834.37 0.0178983
6838.98 0.00549192
6848.20 0.00347942
6857.43 0.00927235
6862.04 0.0342922
6863.19 0.0599241
6864.34 0.131671
6864.92 0.229568
6865.50 0.497206
6865.79 0.853539
6865.93 1.19397
6866.07 1.78681
6866.22 2.95862
6866.29 4.02801
6866.36 5.79388
6866.43 9.00873
6866.47 11.6979
6866.51 15.7515
6866.54 22.2190
6866.58 33.2819
6866.61 53.7464
6866.65 94.4913
6866.68 151.527
6866.71 188.909
6866.74 151.569
6866.77 94.5240
6866.80 68.2775
6866.82 50.7690
6866.86 30.2500
6866.90 19.5077
6866.94 13.6201
6866.98 9.93614
6867.02 7.59886
6867.10 4.84166
6867.18 3.33205
6867.26 2.43898
6867.42 1.46247
6867.74 0.693503
6868.06 0.403160
6868.71 0.185379
6869.35 0.106202
6870.64 0.0482185
6871.93 0.0275506
6877.08 0.00729253
6887.39 0.00212222
6908.01 0.000809711
6949.24 0.000564270
6990.47 0.000881675
7011.08 0.00197552
7021.39 0.00584454
7026.54 0.0206363
7029.12 0.0779687
7029.77 0.135836
7030.41 0.295653
7030.73 0.509867
7031.05 1.08195
7031.21 1.81621
7031.30 2.50481
7031.38 3.65182
7031.46 5.83787
7031.50 7.70847
7031.54 10.6205
7031.58 15.6430
7031.62 24.6865
7031.64 32.2066
7031.66 43.3055
7031.68 60.1153
7031.70 86.4029
7031.73 137.725
7031.75 172.861
7031.78 137.916
7031.81 86.5524
7031.83 62.3254
7031.85 46.1957
7031.86 34.6270
7031.88 27.0417
7031.92 17.4070
7031.96 12.0408
7031.99 8.78832
7032.03 6.68198
7032.10 4.22323
7032.18 2.90338
7032.25 2.11613
7032.40 1.26545
7032.70 0.598640
7032.99 0.347795
7033.58 0.160112
7034.18 0.0920267
7035.36 0.0422916
7036.54 0.0246094
7041.28 0.00758195
7050.75 0.00465233
7060.22 0.0115001
7062.59 0.0192434
7064.96 0.0412724
7066.14 0.0717298
7067.33 0.156828
7067.92 0.272520
7068.51 0.588243
7068.81 1.00485
7068.95 1.40214
7069.10 2.09078
7069.25 3.44201
7069.32 4.66534
7069.40 6.66790
7069.47 10.2658
7069.51 13.2344
7069.55 17.6476
7069.58 24.5552
7069.62 36.0501
7069.66 56.4676
7069.69 93.6293
7069.73 150.073
7069.76 187.381
7069.80 150.265
7069.83 93.7791
7069.87 58.0527
7069.90 38.2014
7069.94 26.5789
7069.97 19.3927
7070.01 14.5934
7070.04 11.4247
7070.11 7.51752
7070.18 5.28038
7070.24 3.92211
7070.38 2.39602
7070.52 1.61249
7070.66 1.15833
7070.93 0.681247
7071.48 0.316668
7072.02 0.182474
7073.12 0.0834641
7074.21 0.0479243
7076.40 0.0221149
7078.59 0.0129728
7087.34 0.00409917
7104.85 0.00205549
7139.86 0.00272631
7157.37 0.00443186
7166.12 0.00618892
7174.88 0.00942792
7179.25 0.0121741
7183.63 0.0163871
7188.01 0.0233287
7192.38 0.0359777
7194.57 0.0466303
7196.76 0.0628720
7198.95 0.0894519
7201.14 0.137382
7202.23 0.177357
7203.33 0.237671
7204.42 0.334959
7205.52 0.506924
7206.06 0.647284
7206.61 0.854977
7207.16 1.18087
7207.70 1.73433
7208.25 2.78621
7208.52 3.70867
7208.80 5.15953
7209.07 7.64000
7209.34 12.2970
7209.48 16.2911
7209.62 22.3484
7209.76 31.8382
7209.89 46.6572
7210.07 74.7325
7210.24 93.3381
7210.42 74.6259
7210.59 46.7084
7210.73 31.5280
7210.87 22.0452
7211.01 16.0254
7211.15 12.0719
7211.42 7.46850
7211.70 5.03689
7211.98 3.61333
7212.26 2.71337
7212.81 1.68680
7213.37 1.14761
7213.93 0.830480
7214.48 0.628527
7215.04 0.492122
7216.15 0.325097
7217.26 0.230655
7218.37 0.172128
7219.49 0.133377
7221.71 0.0868643
7223.94 0.0611056
7226.16 0.0453638
7228.38 0.0350490
7232.83 0.0228083
7237.28 0.0161159
7246.18 0.00948447
7255.07 0.00658492
7263.97 0.00555473
7272.87 0.00812858
7277.32 0.0219369
7279.54 0.0769461
7280.10 0.132567
7280.65 0.286000
7280.93 0.491227
7281.21 1.03740
7281.35 1.73523
7281.49 3.46787
7281.56 5.51654
7281.63 9.93730
7281.66 14.4524
7281.70 22.6599
7281.71 29.6509
7281.73 39.2954
7281.75 53.5444
7281.77 75.3160
7281.79 120.961
7281.82 150.508
7281.84 120.806
7281.87 75.1945
7281.89 51.4818
7281.91 36.6326
7281.92 26.9889
7281.94 20.5396
7281.98 12.8877
7282.02 8.77075
7282.10 4.77587
7282.17 2.98728
7282.32 1.48101
7282.48 0.881242
7282.78 0.414527
7283.08 0.240971
7283.69 0.111463
7284.30 0.0646454
7286.74 0.0182922
7291.61 0.00624591
7301.35 0.00296521
7320.83 0.00200025
7340.31 0.00233942
7350.05 0.00428237
7354.92 0.0115326
7357.36 0.0394247
7358.57 0.146047
7358.88 0.252132
7359.18 0.537664
7359.33 0.908891
7359.49 1.85509
7359.56 2.99960
7359.64 5.62331
7359.68 8.41094
7359.71 13.7884
7359.73 18.4990
7359.75 25.8168
7359.77 37.6534
7359.79 57.4359
7359.81 92.5289
7359.84 115.018
7359.86 92.5864
7359.88 57.4811
7359.90 38.4838
7359.92 26.8244
7359.93 19.4562
7359.95 14.6330
7359.99 9.03451
7360.02 6.08580
7360.10 3.25029
7360.17 2.02279
7360.31 0.993613
7360.46 0.590390
7360.75 0.277507
7361.04 0.161190
7362.19 0.0436833
7364.51 0.0131356
7369.13 0.00581771
7378.39 0.00638463
7383.02 0.00969127
7387.64 0.0195593
7389.96 0.0333085
7391.11 0.0469890
7392.27 0.0718115
7393.43 0.124303
7394.01 0.175884
7394.58 0.268084
7394.87 0.344610
7395.16 0.458951
7395.45 0.641465
7395.74 0.959206
7396.03 1.58696
7396.18 2.16204
7396.32 3.10450
7396.46 4.83143
7396.54 6.26552
7396.61 8.42220
7396.68 11.9134
7396.75 17.8017
7396.83 28.6373
7396.90 49.8010
7396.96 79.7692
7397.02 99.5862
7397.09 79.7912
7397.15 49.8185
7397.20 33.4042
7397.25 23.2715
7397.30 16.8714
7397.36 12.6842
7397.46 7.82676
7397.56 5.27010
7397.66 3.76534
7397.76 2.82663
7397.97 1.75671
7398.17 1.19308
7398.38 0.863710
7398.58 0.653950
7398.79 0.512264
7399.19 0.338450
7399.60 0.240462
7400.01 0.179603
7400.42 0.139416
7401.24 0.0911359
7402.05 0.0643886
7403.69 0.0373337
7405.32 0.0246197
7406.96 0.0176543
7410.22 0.0106936
7416.76 0.00576105
7423.30 0.00414744
7436.37 0.00341075
7449.44 0.00400326
7462.51 0.00607125
7469.05 0.00829237
7475.58 0.0124269
7478.85 0.0159412
7482.12 0.0213333
7485.39 0.0302084
7488.66 0.0463453
7490.29 0.0598904
7491.92 0.0804898
7493.56 0.114044
7495.19 0.174201
7496.01 0.224009
7496.83 0.298749
7497.64 0.418288
7498.46 0.626986
7499.28 1.04116
7499.69 1.42133
7500.09 2.05044
7500.50 3.20670
7500.71 4.17857
7500.91 5.65313
7501.12 8.04198
7501.32 12.1663
7501.52 19.9388
7501.73 35.4283
7501.90 56.6966
7502.07 70.6435
7502.24 56.3747
7502.41 35.2807
7502.60 20.8363
7502.78 13.1797
7502.97 8.90565
7503.15 6.37586
7503.34 4.76158
7503.52 3.68687
7503.89 2.38899
7504.26 1.66757
7504.63 1.22926
7505.37 0.745519
7506.12 0.499546
7506.86 0.357843
7507.60 0.268891
7508.34 0.209439
7509.82 0.137384
7511.30 0.0971105
7512.79 0.0723360
7514.27 0.0560235
7517.23 0.0365638
7520.20 0.0258650
7523.16 0.0193803
7526.12 0.0151838
7532.05 0.0104153
7537.98 0.00848902
7543.91 0.0113038
7546.87 0.0283182
7548.36 0.0960409
7548.73 0.164097
7549.10 0.349204
7549.28 0.594824
7549.47 1.23151
7549.56 2.02790
7549.65 3.90180
7549.70 6.03685
7549.75 10.3229
7549.77 14.3081
7549.79 20.8977
7549.82 32.5103
7549.84 54.5775
7549.86 87.5727
7549.88 109.069
7549.91 87.3568
7549.93 54.4088
7549.94 39.2259
7549.96 29.2844
7549.98 17.5575
7550.01 11.4822
7550.04 8.02896
7550.10 4.47633
7550.15 2.85747
7550.27 1.44130
7550.38 0.869175
7550.60 0.414744
7550.83 0.242852
7551.73 0.0667252
7553.53 0.0198358
7557.13 0.00745465
7564.33 0.00386049
7578.74 0.00250214
7607.55 0.00230261
7636.36 0.00550257
7643.56 0.00906369
7650.77 0.0192310
7654.37 0.0333366
7656.17 0.0473858
7657.97 0.0729357
7659.77 0.127133
7660.67 0.180488
7661.57 0.276390
7662.02 0.356209
7662.47 0.476084
7662.92 0.668514
7663.37 1.00626
7663.60 1.27999
7663.82 1.68222
7664.05 2.30746
7664.27 3.35510
7664.50 5.30521
7664.61 6.98358
7664.72 9.55025
7664.84 13.8204
7664.95 21.4093
7665.00 27.6938
7665.06 36.6199
7665.12 49.7423
7665.17 69.0191
7665.26 110.610
7665.34 137.651
7665.43 110.090
7665.51 68.6130
7665.58 45.2059
7665.66 30.8075
7665.73 21.9718
7665.80 16.3185
7665.95 9.90517
7666.09 6.60116
7666.24 4.69767
7666.39 3.50751
7666.68 2.16406
7666.97 1.46536
7667.26 1.05702
7667.55 0.798125
7667.84 0.624326
7668.43 0.411381
7669.01 0.291553
7669.60 0.217315
7670.18 0.168321
7671.35 0.109522
7672.51 0.0770210
7674.85 0.0441705
7677.18 0.0287313
7679.52 0.0202710
7684.18 0.0117910
7693.52 0.00568863
7702.86 0.00355839
7721.53 0.00210905
7740.21 0.00175562
7758.88 0.00186780
7777.55 0.00250277
7786.89 0.00321623
7796.23 0.00461736
7800.90 0.00598097
7805.57 0.00880068
7810.23 0.0199243
7812.57 0.0586772
7813.15 0.0972322
7813.73 0.203274
7814.03 0.345773
7814.32 0.727969
7814.46 1.22148
7814.61 2.46656
7814.68 3.95321
7814.76 7.29838
7814.79 10.8374
7814.83 17.2943
7814.85 22.7467
7814.87 30.9137
7814.88 43.5141
7814.90 63.5740
7814.93 101.321
7814.95 126.957
7814.97 101.172
7815.00 63.4580
7815.03 35.7740
7815.05 22.0004
7815.08 14.4286
7815.11 10.2186
7815.17 5.78988
7815.22 3.70479
7815.34 1.88375
7815.45 1.14171
7815.68 0.547619
7815.91 0.323382
7816.36 0.154337
7816.82 0.0930371
7818.63 0.0330189
7822.27 0.0211220
7825.91 0.0245373
7829.55 0.0348845
7831.36 0.0439839
7833.18 0.0577817
7836.82 0.118064
7837.73 0.148597
7838.64 0.192720
7839.09 0.222577
7839.55 0.259831
7840.00 0.307333
7840.46 0.368855
7840.91 0.450789
7841.37 0.562769
7841.82 0.720970
7842.28 0.952919
7842.73 1.31114
7843.19 1.89312
7843.41 2.32589
7843.64 2.89831
7843.87 3.66261
7844.09 4.67400
7844.56 7.48335
7845.02 9.35757
7845.48 7.48781
7845.94 4.68232
7846.24 3.39452
7846.54 2.51040
7847.14 1.48367
7847.75 0.961096
7848.35 0.667698
7848.95 0.488877
7849.55 0.372604
7850.76 0.236414
7851.96 0.162944
7853.16 0.119038
7855.57 0.0714439
7857.98 0.0476056
7860.38 0.0340097
7862.79 0.0255288
7865.20 0.0198854
7870.01 0.0130758
7874.83 0.00928042
7879.64 0.00694928
7884.46 0.00541483
7894.08 0.00358234
7903.71 0.00256999
7913.34 0.00195135
7922.97 0.00154528
7942.23 0.00106110
7961.49 0.000793909
8000.00 0.000525027
8000.00 0.343218
10000.0 0.304115
12500.0 0.267120
14000.0 0.249289
15000.0 0.238786
17000.0 0.220456
20000.0 0.198142
25000.0 0.170424
30000.0 0.150389
35000.0 0.135307
40000.0 0.123601
45000.0 0.114295
50000.0 0.106750
60000.0 0.0953209
67500.0 0.0889376
72000.0 0.0857383
85000.0 0.0783564
99999.9 0.0721000
100000 0.0700000
150000 0.0670000
200000 0.0660000
300000 0.0680000
400000 0.0730000
500000 0.0790000
550000 0.0830000
560000 0.0840000
563000 0.0793500
563042 0.0792844
580000 0.0530000
600000 0.0430000
620000 0.0390000
640000 0.0350000
660000 0.0340000
700000 0.0320000
800000 0.0310000
1.00000E+06 0.0330000
1.14000E+06 0.0321600
1.14001E+06 0.0321600
1.20000E+06 0.0318000
1.22000E+06 0.0316800
1.22072E+06 0.0316757
1.29000E+06 0.0312600
1.29033E+06 0.0312580
1.32000E+06 0.0310800
1.38000E+06 0.0307200
1.38012E+06 0.0307193
1.40000E+06 0.0306000
1.50000E+06 0.0300000
1.60000E+06 0.0302000
1.75000E+06 0.0305000
1.75037E+06 0.0305007
1.80000E+06 0.0306000
1.86000E+06 0.0307200
1.88000E+06 0.0307600
2.00000E+06 0.0310000
2.50000E+06 0.0220000
3.00000E+06 0.0190000
3.50000E+06 0.0140000
4.00000E+06 0.0110000
4.11300E+06 0.0100960
4.11311E+06 0.0100952
4.14500E+06 0.00984000
4.50000E+06 0.00700000
5.00000E+06 0.00300000
6.00000E+06 0.00237500
7.00000E+06 0.00175000
8.00000E+06 0.00112500
8.11500E+06 0.00105313
8.11564E+06 0.00105273
9.00000E+06 0.000500000
9.12000E+06 0.000512000
9.12005E+06 0.000512005
9.12076E+06 0.000512076
1.00000E+07 0.000600000
1.03600E+07 0.000636000
1.03610E+07 0.000636096
1.03700E+07 0.000637000
1.03700E+07 0.000637004
1.06500E+07 0.000665000
1.10000E+07 0.000700000
1.20000E+07 0.000800000
1.30000E+07 0.000900000
1.40000E+07 0.00100000
1.50000E+07 0.000866667
1.57200E+07 0.000770667
1.57210E+07 0.000770533
1.60000E+07 0.000733333
1.66800E+07 0.000642667
1.66814E+07 0.000642476
1.68900E+07 0.000614667
1.68913E+07 0.000614496
1.70000E+07 0.000600000
1.80000E+07 0.000466667
1.90000E+07 0.000333333
2.00000E+07 0.000200000