Cd-113(n,g) ENDF/B-VII.1
Energy(eV) XS(b)
1.00000E-05 760645
1.25000E-05 680358
1.50000E-05 621094
2.00000E-05 537910
2.75000E-05 458765
3.50000E-05 406682
4.25000E-05 369086
5.00000E-05 340306
6.25000E-05 304417
7.50000E-05 277928
0.000100000 240753
0.000125000 215390
0.000150000 196673
0.000200000 170410
0.000275000 145436
0.000350000 129013
0.000425000 117166
0.000500000 108104
0.000625000 96814.0
0.000750000 88490.9
0.00100000 76830.3
0.00125000 68894.3
0.00150000 63052.1
0.00200000 54884.4
0.00275000 47166.8
0.00350000 42132.8
0.00425000 38532.2
0.00500000 35802.2
0.00625000 32442.0
0.00750000 30005.8
0.0100000 26681.6
0.0125000 24511.6
0.0150000 22989.8
0.0200000 21038.0
0.0253000 19859.9
0.0314750 19131.3
0.0376500 18837.2
0.0500000 19093.8
0.0625000 20197.9
0.0750000 22056.1
0.0875000 24718.9
0.100000 28319.4
0.110815 32324.9
0.121630 37255.5
0.135898 45112.2
0.150165 53636.4
0.164433 60283.9
0.171566 61728.7
0.178700 61415.7
0.189350 57637.4
0.200000 50925.9
0.217885 37768.5
0.226828 31829.2
0.235770 26710.7
0.244027 22728.7
0.252284 19397.3
0.260542 16627.2
0.268799 14327.0
0.277056 12414.1
0.285313 10817.6
0.293570 9479.24
0.301828 8351.41
0.318342 6581.61
0.334856 5283.45
0.351371 4311.09
0.367885 3568.58
0.384399 2991.59
0.400914 2536.13
0.417428 2171.49
0.433943 1875.84
0.500000 1122.66
0.562500 748.698
0.625000 528.284
0.687500 389.022
0.750000 296.205
0.875000 185.234
1.00000 124.795
1.12500 88.7484
1.25000 65.7582
1.50000 39.5187
1.75000 25.8998
2.00000 18.0506
2.37500 11.4079
2.75000 7.74738
3.12500 5.54546
3.50000 4.13197
4.25000 2.50773
5.00000 1.65893
5.96000 1.06862
6.44000 0.886869
6.68000 0.824851
6.80000 0.819148
6.92000 0.919259
7.00000 1.08323
7.08000 0.881188
7.17125 0.741752
7.26250 0.686463
7.44500 0.628148
7.81000 0.552587
8.54000 0.444317
10.0000 0.307892
12.0794 0.207046
14.1587 0.165675
15.1984 0.168566
15.7182 0.182296
16.2381 0.214354
16.7579 0.290352
17.0178 0.368108
17.2777 0.509867
17.5377 0.806832
17.6676 1.09397
17.7976 1.59853
17.9275 2.60940
17.9925 3.54545
18.0575 5.11604
18.1225 8.04655
18.1550 10.5620
18.1875 14.4548
18.2199 20.9000
18.2524 32.5372
18.2687 42.0632
18.2849 55.8974
18.3012 76.4382
18.3174 106.890
18.3412 170.878
18.3650 213.449
18.3888 170.656
18.4126 106.612
18.4374 64.3234
18.4622 41.2270
18.4870 28.1610
18.5118 20.2875
18.5366 15.2440
18.5614 11.8472
18.6110 7.72366
18.6606 5.42491
18.7102 4.01985
18.8095 2.46696
18.9087 1.67533
19.0079 1.21872
19.1071 0.931858
19.2063 0.740028
19.4047 0.507515
19.6032 0.377411
20.0000 0.244993
20.4475 0.178735
20.8950 0.152306
21.1188 0.154282
21.3425 0.182895
21.4544 0.228001
21.5103 0.271802
21.5663 0.346807
21.6222 0.488677
21.6502 0.611242
21.6781 0.801549
21.7061 1.11741
21.7341 1.68878
21.7620 2.83724
21.7760 3.84771
21.7900 5.34636
21.8105 8.50009
21.8310 10.6056
21.8515 8.50689
21.8720 5.35406
21.8930 3.29914
21.9139 2.16243
21.9348 1.51304
21.9558 1.11855
21.9977 0.692330
22.0395 0.482252
22.0814 0.364217
22.1233 0.291499
22.2071 0.210115
22.2908 0.167704
22.3746 0.142558
22.5421 0.114857
22.8772 0.0909734
23.2123 0.0798470
24.5525 0.0612860
27.2330 0.0475156
32.5940 0.0375738
37.9550 0.0354492
40.6355 0.0369561
41.9758 0.0411358
42.3108 0.0447266
42.6459 0.0538758
42.8134 0.0653277
42.9809 0.0934055
43.0647 0.125950
43.1485 0.196406
43.1904 0.266512
43.2322 0.391467
43.2741 0.637333
43.2951 0.849380
43.3160 1.15867
43.3480 1.83190
43.3800 2.28127
43.4120 1.83329
43.4440 1.16047
43.4684 0.810239
43.4928 0.584999
43.5172 0.439543
43.5416 0.342744
43.5904 0.228518
43.6392 0.167421
43.6880 0.131359
43.7368 0.108446
43.8344 0.0822112
44.0296 0.0603171
44.2248 0.0517764
45.0055 0.0436058
46.5670 0.0448654
48.1285 0.0559610
48.5189 0.0652448
48.9093 0.0884935
49.1044 0.117237
49.2020 0.143440
49.2996 0.186828
49.3972 0.266395
49.4460 0.333535
49.4948 0.435657
49.5436 0.600780
49.5924 0.888570
49.6412 1.43604
49.6656 1.89299
49.6900 2.54163
49.7300 4.03860
49.7700 5.03764
49.8100 4.04205
49.8500 2.54613
49.8875 1.63168
49.9250 1.10066
49.9625 0.785740
50.0000 0.589280
50.0480 0.432235
50.0960 0.334032
50.1921 0.223813
50.2881 0.167144
50.3841 0.134448
50.5762 0.100433
50.7682 0.0843063
51.1523 0.0707004
51.5364 0.0660974
53.0728 0.0699217
53.8409 0.0793573
54.6091 0.100628
54.9932 0.125335
55.1853 0.147765
55.3773 0.185696
55.5694 0.259036
55.6654 0.325199
55.7614 0.433772
55.8574 0.630444
55.9055 0.794398
55.9535 1.04092
56.0015 1.43312
56.0495 2.10138
56.0975 3.33025
56.1455 5.70005
56.1878 9.07097
56.2300 11.3206
56.2723 9.07885
56.3145 5.71075
56.3432 4.11510
56.3718 3.03646
56.4292 1.80722
56.4865 1.19343
56.5438 0.853337
56.6012 0.648012
56.6585 0.515595
56.7732 0.362015
56.8879 0.280606
57.0025 0.232950
57.2319 0.183650
57.6905 0.151790
58.1492 0.148656
59.0666 0.173744
59.9839 0.235498
60.9013 0.372056
61.3599 0.507796
61.8186 0.753670
62.0479 0.959534
62.2773 1.27213
62.5066 1.78068
62.7360 2.69155
62.8506 3.44546
62.9653 4.57674
63.0800 6.38649
63.1946 9.54805
63.3093 15.8308
63.3666 21.5995
63.4240 31.1866
63.4813 48.8206
63.5100 63.7274
63.5386 86.4271
63.5673 123.190
63.5816 150.528
63.5960 187.375
63.6103 238.222
63.6246 309.824
63.6390 412.241
63.6533 557.957
63.6650 714.033
63.6767 892.146
63.7000 1114.63
63.7117 1049.00
63.7234 891.800
63.7467 557.533
63.7640 387.399
63.7813 276.647
63.7986 204.323
63.8159 155.768
63.8505 97.9414
63.8851 66.7418
63.9197 48.2152
63.9543 36.3939
64.0235 22.7860
64.0927 15.5770
64.1619 11.3149
64.2312 8.59063
64.3004 6.74613
64.4388 4.48174
64.5772 3.19876
64.7156 2.40277
64.8540 1.87549
65.1308 1.24289
65.4077 0.892871
65.6845 0.679560
65.9613 0.540378
66.5150 0.376695
67.0686 0.288893
68.1759 0.205941
69.2832 0.173939
70.3905 0.163874
72.6051 0.178334
74.8197 0.232064
77.0343 0.351334
78.1416 0.462029
79.2489 0.644940
80.3562 0.978891
80.9099 1.26591
81.1867 1.48328
81.3251 1.67050
81.3943 1.87120
81.4635 2.45052
81.5200 3.28250
81.5765 2.56366
81.6275 2.17771
81.6785 2.07379
81.7805 2.09133
81.9845 2.32963
82.3924 3.10569
82.8004 4.39524
83.2083 6.72022
83.4123 8.65342
83.6163 11.5663
83.8202 16.2528
83.9222 19.7478
84.0242 24.5065
84.1262 31.2202
84.2282 41.1224
84.3302 56.5930
84.3812 67.8110
84.4322 82.7055
84.4832 103.066
84.5341 131.882
84.5851 174.504
84.6361 241.104
84.6871 352.939
84.7381 559.076
84.7636 731.367
84.7891 986.670
84.8146 1375.43
84.8401 1967.87
84.8751 3146.98
84.9100 3931.89
84.9450 3145.24
84.9799 1965.91
85.0061 1359.88
85.0324 967.374
85.0586 712.354
85.0848 541.883
85.1373 339.668
85.1897 230.955
85.2422 166.574
85.2946 125.563
85.3995 78.4364
85.5044 53.5125
85.6093 38.7923
85.7142 29.3911
85.8191 23.0284
86.0289 15.2217
86.2387 10.8002
86.4486 8.05728
86.6584 6.24027
87.0780 4.05929
87.4976 2.85091
87.9172 2.11276
88.3368 1.62939
89.1760 1.05637
90.0153 0.743267
90.8545 0.554334
91.6937 0.432225
93.3722 0.291298
95.0506 0.220690
96.7291 0.196117
97.1487 0.203837
97.5683 0.234565
97.7781 0.276202
97.9879 0.376402
98.0928 0.486375
98.1977 0.705280
98.2502 0.903037
98.3026 1.21974
98.3551 1.75288
98.4075 2.66896
98.4638 4.17508
98.5200 5.17993
98.5763 4.17700
98.6325 2.67106
98.6752 1.88932
98.7180 1.38581
98.7607 1.06007
98.8034 0.843083
98.8889 0.586646
98.9744 0.449278
99.1453 0.316622
99.3163 0.257737
99.6581 0.209508
100.000 0.192574
101.121 0.200350
101.401 0.218315
101.681 0.261340
101.821 0.312310
101.961 0.432197
102.031 0.567242
102.101 0.850870
102.136 1.12492
102.171 1.59855
102.206 2.48919
102.241 4.26401
102.271 6.73421
102.300 8.39587
102.330 6.73814
102.359 4.27046
102.391 2.59506
102.424 1.71303
102.456 1.22511
102.488 0.937180
102.553 0.633753
102.617 0.489011
102.746 0.363445
102.875 0.315097
103.133 0.285850
103.390 0.286464
104.422 0.382085
104.937 0.482938
105.453 0.651637
105.968 0.980749
106.226 1.36024
106.355 1.85301
106.420 2.45307
106.452 3.00708
106.484 3.88995
106.560 6.49763
106.636 4.14973
106.687 3.08363
106.739 2.66148
106.841 2.50899
107.047 3.02442
107.252 4.15348
107.458 6.24593
107.560 7.98235
107.663 10.5797
107.766 14.7088
107.868 21.8489
107.920 27.5548
107.971 35.8002
108.022 48.3886
108.048 57.3071
108.074 68.8546
108.099 84.2879
108.125 105.436
108.151 135.414
108.176 179.474
108.202 248.026
108.228 360.103
108.241 444.387
108.253 556.270
108.266 706.794
108.279 907.635
108.305 1457.51
108.330 1826.24
108.356 1457.11
108.381 907.159
108.398 651.969
108.415 479.625
108.449 281.464
108.483 181.547
108.516 125.770
108.550 91.8233
108.584 69.8853
108.652 44.2341
108.719 30.4261
108.787 22.1956
108.855 16.8915
108.922 13.2870
109.058 8.83502
109.193 6.29838
109.328 4.71810
109.463 3.66778
109.734 2.40257
110.005 1.69868
110.275 1.26721
110.546 0.983847
111.087 0.646237
111.628 0.460399
112.169 0.347209
112.710 0.273131
113.793 0.185070
114.875 0.136565
117.040 0.0874433
119.205 0.0641929
121.369 0.0514431
125.699 0.0393984
130.028 0.0363046
134.357 0.0418809
136.522 0.0526095
137.604 0.0636386
138.687 0.0838261
139.769 0.126761
140.310 0.169248
140.851 0.246190
141.122 0.310654
141.393 0.408597
141.663 0.568049
141.934 0.853803
142.069 1.09057
142.204 1.44612
142.340 2.01547
142.475 3.01146
142.610 4.99479
142.678 6.82128
142.746 9.85984
142.813 15.4764
142.847 20.2352
142.881 27.5099
142.915 39.3461
142.948 60.1729
142.982 100.355
142.999 134.371
143.016 183.272
143.043 294.238
143.070 368.629
143.097 294.174
143.124 183.197
143.155 105.980
143.185 66.0422
143.215 44.2219
143.246 31.4476
143.276 23.3880
143.307 18.0465
143.368 11.6339
143.429 8.10428
143.489 5.96391
143.611 3.61722
143.733 2.42764
143.855 1.74428
143.977 1.31622
144.098 1.03081
144.342 0.685455
144.585 0.492846
144.829 0.374635
145.072 0.297073
145.560 0.205057
146.047 0.154999
147.021 0.106280
147.995 0.0857793
148.969 0.0773043
150.917 0.0791155
152.866 0.104568
153.840 0.133860
154.814 0.189026
155.301 0.236046
155.788 0.308220
156.275 0.426996
156.762 0.642827
157.006 0.824022
157.250 1.09945
157.493 1.54832
157.737 2.35302
157.858 3.01984
157.980 4.02115
158.102 5.62419
158.224 8.42412
158.346 13.9976
158.406 19.1196
158.467 27.6238
158.528 43.3019
158.559 56.5975
158.589 76.8093
158.604 91.1926
158.620 109.699
158.635 134.129
158.650 167.089
158.665 212.591
158.680 276.800
158.696 368.807
158.711 499.976
158.735 800.398
158.760 999.482
158.772 940.004
158.785 798.959
158.809 499.807
158.824 369.370
158.840 277.661
158.870 168.240
158.900 110.719
158.930 77.7292
158.960 57.2737
158.990 43.8876
159.050 28.0362
159.111 19.3984
159.171 14.2100
159.291 8.55315
159.412 5.70753
159.532 4.07946
159.653 3.06239
159.773 2.38553
160.014 1.56788
160.255 1.11243
160.496 0.832932
160.737 0.649378
161.219 0.430900
161.701 0.311044
162.183 0.238447
162.665 0.191343
163.629 0.136580
164.592 0.108734
165.556 0.100003
165.797 0.104828
166.038 0.122019
166.159 0.144486
166.279 0.196395
166.339 0.250716
166.400 0.352224
166.460 0.566754
166.490 0.765146
166.520 1.07202
166.560 1.66821
166.600 2.06568
166.640 1.66794
166.680 1.07120
166.706 0.802729
166.731 0.617299
166.782 0.399011
166.833 0.286065
166.883 0.222094
166.985 0.156868
167.087 0.126238
167.290 0.0990618
167.493 0.0874036
168.307 0.0726254
169.933 0.0666377
173.186 0.0704301
176.439 0.0868637
179.692 0.121792
181.318 0.152233
182.944 0.199160
184.571 0.276458
186.197 0.416856
187.011 0.534630
187.824 0.713696
188.637 1.00552
189.450 1.52961
189.857 1.96455
190.263 2.61897
190.670 3.66986
191.077 5.51611
191.280 7.01417
191.483 9.21847
191.687 12.6514
191.890 18.4205
192.093 29.2098
192.195 38.4979
192.296 52.8918
192.398 76.8250
192.500 120.204
192.551 155.948
192.601 208.037
192.652 285.823
192.703 401.920
192.777 643.955
192.850 805.510
192.924 643.465
192.997 401.424
193.045 290.487
193.093 214.655
193.189 126.736
193.285 82.0117
193.381 56.9528
193.477 41.6733
193.573 31.7536
193.765 20.1312
193.957 13.8685
194.149 10.1279
194.534 6.08179
194.918 4.06895
195.302 2.95275
195.686 2.40235
195.878 2.56906
195.974 3.22921
196.022 4.10185
196.070 5.89943
196.110 8.38756
196.150 10.0335
196.190 8.31264
196.230 5.74843
196.260 4.44072
196.289 3.57862
196.348 2.61553
196.466 1.84921
196.701 1.35842
197.173 0.998024
198.115 0.663729
199.058 0.485851
200.000 0.378036
201.715 0.275273
202.573 0.272165
202.787 0.292400
203.001 0.352347
203.109 0.426296
203.216 0.590722
203.269 0.756715
203.323 1.05587
203.377 1.65253
203.403 2.17330
203.430 2.93663
203.470 4.57071
203.510 5.65983
203.550 4.56999
203.590 2.93456
203.622 2.04782
203.654 1.49060
203.686 1.13775
203.718 0.906989
203.783 0.637554
203.847 0.495296
203.975 0.358480
204.103 0.297158
204.360 0.244351
204.616 0.222129
205.643 0.196487
207.695 0.211811
208.721 0.244532
209.748 0.307523
210.774 0.441477
211.287 0.611658
211.415 0.707635
211.544 0.891085
211.608 1.06705
211.672 1.38560
211.736 2.05717
211.768 2.69047
211.800 3.68890
211.840 5.52917
211.880 6.76067
211.920 5.55891
211.960 3.74775
212.010 2.39295
212.060 1.74579
212.110 1.41987
212.160 1.24527
212.260 1.09344
212.360 1.05427
212.761 1.22935
213.161 1.67785
213.561 2.52399
213.761 3.23416
213.961 4.30684
214.161 6.03560
214.362 9.08428
214.462 11.5675
214.562 15.2328
214.662 20.9644
214.762 30.6376
214.812 38.1997
214.862 48.8917
214.912 64.7120
214.962 89.4553
215.012 131.143
215.037 163.254
215.062 207.996
215.087 272.301
215.112 367.729
215.137 513.127
215.162 734.866
215.196 1170.85
215.230 1459.43
215.264 1170.61
215.298 734.587
215.331 456.924
215.365 299.576
215.398 207.823
215.431 151.293
215.465 114.435
215.498 89.4013
215.565 58.6482
215.631 41.2851
215.698 30.6043
215.831 18.7032
215.965 12.5939
216.098 9.05332
216.231 6.82158
216.364 5.32551
216.631 3.50762
216.898 2.48751
217.164 1.85856
217.431 1.44376
217.964 0.947530
218.497 0.673402
219.030 0.506061
219.563 0.396458
220.630 0.266267
221.696 0.194862
222.762 0.151659
223.829 0.123810
225.961 0.0929079
228.094 0.0833180
229.160 0.0894782
229.693 0.0991428
230.226 0.119031
230.760 0.163824
231.026 0.208897
231.293 0.290533
231.559 0.461001
231.693 0.625542
231.826 0.914254
231.959 1.49135
232.026 2.02476
232.092 2.91548
232.159 4.57116
232.192 5.98203
232.226 8.15129
232.259 11.7091
232.292 18.0426
232.326 30.4762
232.342 41.2135
232.359 56.7492
232.385 90.8126
232.410 113.390
232.436 90.6600
232.461 56.7360
232.482 38.0303
232.503 26.4312
232.524 19.1321
232.544 14.3710
232.586 8.85574
232.628 5.97057
232.669 4.28517
232.711 3.22572
232.794 2.02021
232.878 1.38793
232.961 1.01680
233.127 0.621700
233.294 0.426823
233.460 0.316806
233.793 0.203610
234.127 0.149688
234.460 0.120127
235.126 0.0916956
235.792 0.0823622
236.458 0.0890902
236.791 0.106021
236.957 0.123642
237.124 0.155137
237.291 0.218018
237.374 0.275305
237.457 0.369126
237.540 0.537879
237.624 0.882865
237.665 1.20547
237.707 1.73908
237.748 2.68139
237.790 4.40245
237.830 7.00988
237.870 8.74754
237.910 7.01076
237.950 4.40333
237.979 3.11047
238.007 2.25875
238.036 1.69489
238.065 1.31216
238.122 0.850538
238.179 0.599042
238.236 0.448320
238.294 0.351742
238.408 0.239850
238.522 0.180109
238.637 0.144603
238.866 0.106222
239.324 0.0759548
239.781 0.0644266
240.697 0.0558705
241.613 0.0532767
245.275 0.0582490
248.938 0.0816567
250.769 0.114048
251.227 0.132753
251.684 0.171984
251.913 0.216436
252.142 0.321080
252.257 0.441411
252.314 0.544455
252.371 0.704337
252.428 0.971382
252.486 1.45894
252.514 1.86335
252.543 2.45890
252.571 3.35814
252.600 4.71674
252.640 7.46323
252.680 9.29295
252.720 7.46650
252.760 4.72242
252.792 3.23043
252.824 2.29455
252.857 1.70318
252.889 1.31640
252.953 0.868349
253.018 0.633660
253.082 0.497135
253.146 0.411836
253.275 0.316425
253.532 0.242406
253.790 0.219521
254.819 0.236828
255.849 0.314662
256.879 0.465204
257.394 0.592543
257.909 0.786542
258.423 1.10342
258.938 1.67441
259.196 2.15043
259.453 2.86967
259.711 4.03223
259.968 6.09486
260.097 7.78548
260.225 10.2980
260.354 14.2644
260.418 17.1721
260.483 21.0614
260.547 26.4447
260.611 34.1629
260.676 45.8129
260.740 64.4723
260.772 78.3300
260.805 97.0597
260.837 123.150
260.869 160.669
260.901 217.258
260.933 306.438
260.965 453.392
260.998 698.381
261.034 1117.59
261.070 1395.81
261.106 1116.14
261.143 698.142
261.174 454.944
261.206 309.078
261.238 219.737
261.270 162.970
261.333 98.6861
261.396 65.7210
261.460 46.7341
261.523 34.8970
261.650 21.5397
261.777 14.5982
261.904 10.5498
262.031 7.98546
262.158 6.26084
262.412 4.15921
262.666 2.97950
262.919 2.25387
263.173 1.77803
263.681 1.21896
264.189 0.926046
264.696 0.767781
265.204 0.691756
266.219 0.729914
266.727 0.870106
267.234 1.17129
267.488 1.43687
267.742 1.84625
267.996 2.51465
268.250 3.70306
268.504 6.11208
268.631 8.36274
268.757 12.1726
268.884 19.3725
268.948 25.6393
269.011 35.4515
269.075 52.0311
269.138 82.7697
269.170 108.734
269.202 147.391
269.233 206.747
269.265 298.151
269.308 476.915
269.350 596.031
269.393 476.790
269.435 298.018
269.466 208.024
269.497 149.251
269.528 110.646
269.559 84.6058
269.621 53.4100
269.683 36.5246
269.745 26.4539
269.807 20.0233
269.931 12.6045
270.055 8.66588
270.179 6.33966
270.304 4.85576
270.428 3.85884
270.676 2.67092
270.924 2.11317
271.048 2.04961
271.172 2.26073
271.234 2.60129
271.296 3.32194
271.358 4.95583
271.389 6.51977
271.420 8.98851
271.460 13.7038
271.500 16.8270
271.540 13.6230
271.580 8.85036
271.620 5.78519
271.660 4.05630
271.700 3.04417
271.740 2.41688
271.819 1.71363
271.899 1.34526
272.058 0.973866
272.218 0.784604
272.536 0.581588
272.855 0.466598
273.493 0.332996
274.130 0.255904
275.405 0.171255
276.680 0.127852
277.955 0.104356
279.230 0.0963914
279.868 0.102659
280.505 0.132100
280.824 0.176320
280.983 0.220330
281.143 0.298908
281.302 0.459185
281.382 0.609845
281.461 0.865970
281.541 1.35463
281.581 1.78403
281.621 2.46195
281.661 3.62388
281.700 5.82021
281.720 7.70696
281.740 10.5805
281.760 15.1080
281.780 22.2924
281.805 35.6445
281.830 44.5509
281.855 35.6411
281.880 22.2880
281.895 16.5832
281.910 12.5435
281.940 7.66857
281.970 5.08605
282.000 3.59727
282.030 2.67332
282.060 2.06473
282.120 1.34234
282.180 0.948232
282.240 0.710611
282.360 0.451216
282.480 0.320367
282.600 0.245310
282.840 0.166903
283.080 0.128878
283.320 0.107610
283.800 0.0860679
284.760 0.0718493
285.720 0.0710390
286.680 0.0789494
287.640 0.100120
288.120 0.120924
288.600 0.158037
288.840 0.190785
289.080 0.250247
289.200 0.306769
289.320 0.416673
289.380 0.521638
289.440 0.709049
289.500 1.09219
289.530 1.44085
289.560 1.97586
289.600 3.01392
289.640 3.70959
289.680 3.03466
289.720 2.01715
289.749 1.51431
289.778 1.18688
289.835 0.832912
289.892 0.672416
289.950 0.596888
290.065 0.554486
290.180 0.578948
290.409 0.741843
290.639 1.08490
290.754 1.37651
290.869 1.81647
290.984 2.52073
291.099 3.74593
291.214 6.16439
291.271 8.36761
291.328 11.9872
291.386 18.5544
291.415 24.0086
291.443 32.1806
291.472 45.1100
291.501 66.9561
291.515 83.7697
291.529 106.627
291.544 138.453
291.558 181.814
291.571 232.775
291.584 290.984
291.610 363.332
291.623 341.901
291.636 290.508
291.662 181.779
291.682 124.342
291.702 87.6615
291.722 64.1172
291.742 48.5235
291.783 30.2114
291.823 20.4780
291.863 14.7323
291.903 11.0948
291.983 6.92376
292.064 4.72528
292.144 3.42930
292.224 2.60265
292.304 2.04362
292.465 1.35819
292.626 0.970040
292.786 0.729196
292.947 0.569546
293.268 0.377619
293.589 0.271034
293.911 0.205698
294.232 0.162729
294.874 0.111402
295.517 0.0829824
296.801 0.0540022
298.086 0.0400888
299.371 0.0322608
301.941 0.0242423
304.511 0.0209710
307.080 0.0216018
308.365 0.0252319
309.008 0.0293900
309.650 0.0373172
310.293 0.0544974
310.614 0.0714891
310.935 0.101939
311.256 0.164639
311.417 0.224340
311.577 0.327553
311.738 0.529125
311.818 0.710653
311.899 1.00608
311.979 1.53221
312.019 1.96305
312.059 2.59624
312.099 3.57796
312.139 5.18034
312.180 7.96762
312.220 12.9315
312.260 20.6909
312.300 25.8461
312.340 20.6728
312.380 12.9347
312.411 8.90302
312.442 6.30959
312.472 4.63447
312.503 3.51953
312.564 2.20356
312.625 1.49931
312.686 1.08351
312.748 0.819093
312.870 0.515777
312.992 0.355600
313.115 0.261051
313.359 0.159840
313.604 0.109660
313.849 0.0812055
314.338 0.0517540
314.828 0.0375668
315.318 0.0296315
316.297 0.0214594
318.255 0.0152087
320.213 0.0127537
324.129 0.0106818
328.045 0.00981780
335.878 0.00973633
337.836 0.0103475
339.794 0.0121725
340.773 0.0146766
341.752 0.0215644
342.241 0.0307896
342.731 0.0554777
342.976 0.0873135
343.098 0.117068
343.220 0.167450
343.343 0.262978
343.404 0.346305
343.465 0.477418
343.526 0.699665
343.588 1.11544
343.618 1.46810
343.649 1.99853
343.679 2.82085
343.710 4.09600
343.750 6.55334
343.790 8.18710
343.830 6.54757
343.870 4.09696
343.900 2.83852
343.930 2.02519
343.960 1.49573
343.990 1.14112
344.050 0.719349
344.110 0.492686
344.169 0.358112
344.229 0.272454
344.349 0.173852
344.469 0.121671
344.588 0.0908341
344.828 0.0578112
345.306 0.0322011
345.785 0.0227020
346.743 0.0158086
347.700 0.0136204
349.615 0.0141511
350.573 0.0213294
350.812 0.0281828
351.051 0.0453970
351.171 0.0658439
351.291 0.111519
351.351 0.158648
351.410 0.246086
351.470 0.429711
351.500 0.598733
351.530 0.859257
351.570 1.36790
351.610 1.70699
351.650 1.36807
351.690 0.859489
351.720 0.601773
351.749 0.433573
351.808 0.249592
351.867 0.161403
351.926 0.113743
352.044 0.0673491
352.162 0.0465530
352.398 0.0290457
352.634 0.0221406
353.578 0.0152886
354.521 0.0148818
355.465 0.0163664
356.409 0.0203807
357.352 0.0319093
357.824 0.0474343
358.060 0.0624591
358.296 0.0889391
358.532 0.142326
358.650 0.192092
358.768 0.276109
358.886 0.434678
358.945 0.572316
359.004 0.787311
359.063 1.14947
359.122 1.81918
359.151 2.38052
359.181 3.21507
359.210 4.48999
359.240 6.43356
359.280 10.2889
359.320 12.8601
359.360 10.2901
359.400 6.43501
359.434 4.25452
359.468 2.92427
359.502 2.09820
359.536 1.56764
359.604 0.960572
359.672 0.646133
359.740 0.463895
359.807 0.349772
359.943 0.220464
360.079 0.153036
360.215 0.113568
360.486 0.0716526
360.757 0.0510669
361.029 0.0394805
361.572 0.0276345
362.657 0.0190472
363.743 0.0161921
365.914 0.0147522
368.085 0.0152344
370.257 0.0170617
372.428 0.0218722
373.514 0.0280077
374.056 0.0339132
374.599 0.0444661
375.142 0.0665515
375.413 0.0881749
375.685 0.126944
375.821 0.159092
375.956 0.207447
376.092 0.285072
376.228 0.421399
376.363 0.694632
376.431 0.948050
376.499 1.37294
376.567 2.16774
376.601 2.84961
376.635 3.90536
376.669 5.66093
376.703 8.82677
376.720 11.4287
376.737 15.1904
376.754 20.8158
376.770 29.1171
376.795 46.6022
376.820 58.2685
376.845 46.5991
376.870 29.1133
376.885 21.2604
376.901 15.8507
376.933 9.46670
376.964 6.17571
376.996 4.31248
377.027 3.17038
377.059 2.42477
377.122 1.54847
377.185 1.07353
377.248 0.788871
377.373 0.480109
377.499 0.325163
377.625 0.236787
377.751 0.181636
377.877 0.145002
378.129 0.100887
378.381 0.0764163
378.885 0.0517866
379.389 0.0404366
379.892 0.0344735
380.900 0.0292796
381.907 0.0282339
382.915 0.0306042
383.419 0.0346610
383.922 0.0457321
384.174 0.0599973
384.426 0.0959252
384.552 0.138876
384.678 0.235717
384.741 0.336841
384.804 0.527267
384.836 0.690431
384.867 0.938030
384.899 1.32629
384.930 1.93647
384.970 3.08558
385.010 3.84963
385.050 3.08290
385.090 1.93700
385.118 1.37728
385.147 1.00479
385.175 0.756913
385.203 0.588461
385.259 0.383857
385.316 0.271876
385.428 0.161410
385.541 0.111340
385.766 0.0688970
385.992 0.0520186
386.442 0.0391630
386.893 0.0347170
388.696 0.0324123
392.302 0.0395487
395.908 0.0536954
399.514 0.0800189
401.317 0.102264
403.120 0.136275
404.922 0.192138
406.725 0.293722
407.627 0.379169
408.528 0.509537
409.430 0.723036
410.331 1.10921
410.782 1.43212
411.233 1.92140
411.683 2.71488
412.134 4.12895
412.360 5.29320
412.585 7.03064
412.810 9.78880
412.923 11.8196
413.036 14.5501
413.148 18.3486
413.261 23.8445
413.374 32.2104
413.486 45.8048
413.599 70.0191
413.655 89.8297
413.712 118.953
413.768 164.049
413.824 237.652
413.881 365.150
413.937 592.354
413.994 947.677
414.050 1184.44
414.107 947.433
414.163 592.102
414.229 336.356
414.296 206.731
414.362 137.307
414.428 96.9914
414.495 71.8445
414.561 55.2209
414.694 35.4195
414.826 24.5819
414.959 18.0347
415.224 10.8773
415.489 7.26458
415.754 5.19338
416.020 3.89778
416.285 3.03430
416.815 1.99185
417.346 1.41149
417.876 1.05666
418.406 0.825233
419.467 0.557649
420.528 0.434955
421.058 0.422723
421.589 0.485612
421.854 0.601710
421.987 0.718675
422.119 0.923796
422.252 1.32285
422.318 1.67697
422.384 2.24179
422.451 3.21564
422.517 5.08208
422.550 6.70711
422.583 9.20224
422.617 13.2024
422.650 19.6368
422.690 31.2757
422.730 39.0359
422.770 31.2755
422.810 19.6341
422.846 12.8089
422.882 8.73134
422.918 6.25622
422.953 4.68503
423.025 2.91573
423.096 2.00984
423.167 1.48944
423.239 1.16429
423.382 0.796833
423.524 0.604365
423.667 0.490765
423.953 0.367961
424.524 0.269295
425.095 0.231166
426.237 0.210459
427.379 0.232021
428.521 0.315168
429.092 0.407873
429.664 0.582343
429.949 0.730836
430.235 0.957865
430.520 1.32904
430.806 1.99522
430.949 2.54696
431.091 3.37444
431.234 4.69638
431.377 6.99764
431.520 11.5512
431.591 15.7088
431.662 22.5643
431.698 27.8003
431.734 35.0631
431.769 45.5212
431.805 61.2884
431.841 86.4492
431.859 104.968
431.877 129.485
431.894 162.972
431.912 209.034
431.930 273.435
431.948 362.856
431.979 580.514
432.010 725.595
432.041 580.459
432.072 362.793
432.102 229.336
432.131 152.077
432.160 106.365
432.189 77.9715
432.248 46.4636
432.306 30.6458
432.365 21.6538
432.424 16.0984
432.541 9.88097
432.658 6.67625
432.775 4.81396
432.892 3.63782
433.009 2.84819
433.243 1.88708
433.477 1.34669
433.712 1.01294
433.946 0.792473
434.414 0.528068
434.882 0.381453
435.351 0.291562
435.819 0.232400
436.756 0.161585
437.693 0.122310
439.566 0.0828654
441.439 0.0666117
443.313 0.0665736
444.250 0.0786340
444.718 0.0929443
445.186 0.120504
445.655 0.180634
445.889 0.240387
446.123 0.347891
446.240 0.437050
446.357 0.570872
446.474 0.784821
446.591 1.15791
446.708 1.89662
446.767 2.57255
446.826 3.68854
446.884 5.72860
446.913 7.43981
446.943 10.0151
446.972 14.1488
447.001 21.2182
447.030 34.3987
447.060 60.0745
447.072 76.8849
447.085 96.0965
447.110 120.109
447.135 96.0907
447.160 60.0673
447.181 40.2625
447.202 27.9341
447.222 20.1910
447.243 15.1481
447.284 9.32549
447.325 6.28036
447.366 4.50167
447.407 3.38367
447.490 2.11048
447.572 1.44310
447.654 1.05188
447.737 0.803023
447.819 0.635059
447.984 0.429411
448.148 0.313240
448.313 0.241178
448.478 0.193458
448.807 0.136076
449.136 0.104172
449.795 0.0717319
450.453 0.0564555
451.112 0.0482558
452.429 0.0413949
453.746 0.0425124
454.405 0.0469784
455.064 0.0568805
455.722 0.0797585
456.051 0.103001
456.381 0.145381
456.545 0.180875
456.710 0.234559
456.875 0.321356
457.039 0.474884
457.122 0.600456
457.204 0.786161
457.286 1.07769
457.369 1.57307
457.451 2.51527
457.492 3.34158
457.533 4.64386
457.574 6.86999
457.616 11.0620
457.636 14.6596
457.657 20.1237
457.677 28.7005
457.698 42.1637
457.724 67.4162
457.750 84.2365
457.776 67.4120
457.802 42.1585
457.818 31.3325
457.834 23.7091
457.865 14.4663
457.896 9.56602
457.927 6.74675
457.959 4.98979
457.990 3.83555
458.052 2.46207
458.115 1.71153
458.177 1.25982
458.302 0.766704
458.428 0.517929
458.553 0.375498
458.678 0.286387
458.803 0.226962
459.053 0.155083
459.303 0.114929
459.803 0.0738982
460.303 0.0543500
460.803 0.0434848
461.803 0.0323593
463.804 0.0239730
465.804 0.0208721
469.805 0.0189531
473.806 0.0194104
477.807 0.0217902
481.808 0.0273225
483.808 0.0326956
485.809 0.0430288
486.809 0.0536098
487.809 0.0775663
488.309 0.106477
488.559 0.133414
488.809 0.179968
489.059 0.272691
489.184 0.358742
489.309 0.504192
489.435 0.779826
489.497 1.02026
489.560 1.39909
489.622 2.04285
489.685 3.25233
489.716 4.28503
489.747 5.84054
489.778 8.27478
489.810 12.0798
489.850 19.3086
489.890 24.1139
489.930 19.2917
489.971 12.0832
490.010 7.51283
490.050 4.93506
490.089 3.43404
490.129 2.51413
490.208 1.50904
490.287 1.01047
490.366 0.729577
490.445 0.557136
490.603 0.365886
490.761 0.268645
490.919 0.213244
491.236 0.157213
491.552 0.132800
491.868 0.122173
492.501 0.120828
493.133 0.137831
493.766 0.185544
494.082 0.243424
494.240 0.296739
494.398 0.388183
494.556 0.569097
494.635 0.736754
494.714 1.01970
494.793 1.55680
494.833 2.02617
494.872 2.76774
494.912 4.03759
494.951 6.43639
494.971 8.50278
494.991 11.6333
495.011 16.5905
495.030 24.4138
495.055 38.9653
495.080 48.6646
495.105 38.9656
495.130 24.4158
495.149 16.7839
495.168 11.9191
495.187 8.78354
495.206 6.69998
495.244 4.24061
495.282 2.93162
495.320 2.15855
495.358 1.66949
495.434 1.10998
495.510 0.816962
495.586 0.646104
495.738 0.468159
495.891 0.385882
496.043 0.344872
496.347 0.317320
496.956 0.349751
497.565 0.450258
498.174 0.640754
498.782 1.01827
499.087 1.35741
499.391 1.90722
499.696 2.88466
499.848 3.68672
500.000 4.87967
500.116 6.22371
500.231 8.21183
500.347 11.3299
500.405 13.5970
500.463 16.6158
500.521 20.7647
500.578 26.6565
500.636 35.4406
500.694 49.2653
500.752 72.8090
500.781 91.1486
500.810 116.970
500.839 154.581
500.868 211.381
500.897 299.897
500.925 438.560
500.963 701.654
501.000 877.013
501.037 701.574
501.075 438.473
501.108 282.904
501.142 190.521
501.175 134.724
501.209 99.4413
501.276 59.8723
501.343 39.7271
501.410 28.1781
501.477 20.9909
501.610 12.9183
501.744 8.73330
501.878 6.29571
502.012 4.75188
502.146 3.71471
502.414 2.45016
502.682 1.73855
502.950 1.29905
503.218 1.00879
503.754 0.661508
504.289 0.469727
504.825 0.352913
505.361 0.276656
506.433 0.186819
507.504 0.138463
509.647 0.0927564
511.791 0.0761805
513.934 0.0749181
516.077 0.0918842
516.613 0.103646
517.148 0.127792
517.416 0.154312
517.684 0.215901
517.818 0.287189
517.952 0.446917
518.019 0.614772
518.086 0.935459
518.120 1.21496
518.153 1.64681
518.187 2.34035
518.220 3.46193
518.260 5.47167
518.300 6.80692
518.340 5.46879
518.380 3.46654
518.405 2.58626
518.430 1.96991
518.479 1.23690
518.529 0.854895
518.579 0.637456
518.678 0.417081
518.777 0.315758
518.975 0.231759
519.174 0.202263
519.570 0.190896
519.967 0.202460
520.761 0.261415
521.554 0.381070
521.951 0.483349
522.347 0.639630
522.744 0.894979
523.141 1.35414
523.339 1.73546
523.538 2.30899
523.736 3.23042
523.934 4.84809
524.033 6.16094
524.133 8.09232
524.232 11.0992
524.331 16.1428
524.381 20.0575
524.430 25.5722
524.480 33.6750
524.529 46.2278
524.579 67.0374
524.604 82.8767
524.629 104.676
524.653 135.525
524.678 180.416
524.703 247.186
524.728 345.873
524.764 553.347
524.800 691.639
524.836 553.295
524.872 345.817
524.911 207.223
524.949 132.275
524.987 90.0237
525.025 64.7215
525.064 48.5217
525.102 37.6572
525.178 24.4864
525.255 17.1470
525.331 12.6658
525.484 7.72288
525.637 5.20663
525.790 3.76128
525.943 2.85910
526.096 2.26483
526.402 1.58354
526.708 1.32278
526.861 1.37006
527.014 1.69940
527.090 2.13420
527.167 3.05235
527.205 3.90691
527.243 5.29274
527.281 7.65698
527.320 11.7724
527.360 18.4690
527.400 22.9153
527.440 18.4196
527.481 11.7081
527.523 7.22101
527.566 4.78085
527.608 3.40283
527.651 2.57024
527.736 1.67014
527.820 1.22117
527.990 0.798188
528.160 0.603687
528.500 0.420213
528.840 0.329946
529.520 0.237938
530.200 0.193756
530.879 0.176508
531.559 0.194267
531.899 0.237266
532.069 0.282278
532.239 0.362959
532.409 0.524422
532.494 0.671699
532.579 0.913072
532.664 1.34749
532.706 1.70574
532.749 2.23622
532.791 3.06656
532.834 4.44429
532.876 6.88124
532.919 11.3275
532.959 18.0746
533.000 22.5587
533.041 18.0573
533.082 11.3273
533.115 7.57136
533.149 5.25288
533.183 3.80695
533.217 2.87023
533.285 1.79428
533.353 1.23317
533.421 0.907261
533.488 0.702243
533.624 0.469403
533.759 0.347243
533.895 0.275358
534.166 0.198446
534.437 0.160297
534.708 0.138808
535.251 0.117859
535.793 0.111760
536.335 0.119794
536.607 0.136128
536.878 0.181007
537.013 0.236322
537.149 0.363776
537.217 0.499410
537.284 0.761160
537.318 0.990418
537.352 1.34637
537.386 1.92141
537.420 2.85768
537.460 4.52162
537.500 5.62776
537.540 4.51753
537.580 2.85811
537.624 1.71612
537.668 1.11235
537.712 0.779314
537.756 0.582349
537.845 0.374199
537.933 0.273950
538.109 0.185054
538.285 0.148472
538.638 0.120237
538.990 0.110865
540.400 0.112846
541.810 0.142374
542.163 0.160210
542.515 0.197183
542.691 0.238142
542.868 0.330973
542.956 0.432702
543.044 0.641303
543.088 0.838161
543.132 1.16864
543.176 1.76775
543.220 2.89595
543.260 4.54079
543.300 5.63399
543.340 4.53922
543.380 2.90133
543.413 1.99627
543.446 1.43453
543.479 1.08279
543.512 0.855000
543.577 0.592685
543.643 0.456480
543.775 0.329816
543.906 0.277198
544.169 0.240219
544.432 0.233531
545.483 0.278869
546.535 0.383319
547.586 0.580047
548.112 0.746340
548.638 0.999727
549.163 1.41306
549.689 2.15457
549.952 2.76893
550.215 3.69123
550.478 5.16717
550.609 6.26166
550.741 7.74469
550.872 9.82561
551.004 12.8676
551.135 17.5715
551.266 25.3807
551.332 31.3827
551.398 39.7416
551.464 51.8612
551.529 70.3030
551.595 100.113
551.661 152.060
551.694 193.163
551.726 250.790
551.759 333.282
551.792 450.013
551.846 720.373
551.900 900.163
551.954 719.714
552.008 449.882
552.058 286.618
552.108 191.323
552.158 134.351
552.207 98.7228
552.307 59.0648
552.407 39.0315
552.506 27.6124
552.606 20.5362
552.805 12.6031
553.005 8.50607
553.204 6.12239
553.403 4.61583
553.602 3.60391
554.001 2.37162
554.400 1.67899
554.798 1.25140
555.197 0.969075
555.994 0.631196
556.791 0.444462
557.589 0.330486
558.386 0.255853
559.980 0.167251
561.575 0.118654
563.169 0.0891594
564.764 0.0699495
567.953 0.0474605
571.142 0.0360039
574.331 0.0335286
575.128 0.0370182
575.925 0.0489953
576.324 0.0659109
576.723 0.111429
576.922 0.169416
577.022 0.222855
577.121 0.311792
577.221 0.475962
577.271 0.614946
577.321 0.827112
577.371 1.17248
577.420 1.77733
577.470 2.93816
577.495 3.91532
577.520 5.31251
577.560 8.48752
577.600 10.5961
577.640 8.47960
577.680 5.31313
577.707 3.80991
577.734 2.79704
577.762 2.11278
577.789 1.64068
577.843 1.06217
577.897 0.740920
577.951 0.546277
578.006 0.420643
578.114 0.274111
578.222 0.195442
578.331 0.148579
578.548 0.0979292
578.981 0.0582167
579.415 0.0433541
580.283 0.0327981
581.150 0.0305359
582.017 0.0332009
582.885 0.0457487
583.319 0.0639404
583.536 0.0817666
583.752 0.113239
583.969 0.176519
584.078 0.235160
584.186 0.333567
584.295 0.517317
584.349 0.674797
584.403 0.918232
584.457 1.32052
584.511 2.04467
584.538 2.63534
584.566 3.49102
584.593 4.75681
584.620 6.62556
584.660 10.5944
584.700 13.2314
584.740 10.5845
584.780 6.62641
584.810 4.60233
584.840 3.29045
584.870 2.43205
584.900 1.85833
584.959 1.17453
585.019 0.805833
585.079 0.587078
585.139 0.447498
585.258 0.286966
585.377 0.201857
585.497 0.151541
585.735 0.0976422
586.213 0.0558944
586.690 0.0405685
587.645 0.0302728
588.600 0.0291056
589.555 0.0342187
590.510 0.0535652
590.987 0.0809653
591.226 0.107782
591.465 0.155275
591.704 0.251354
591.823 0.341089
591.942 0.492791
592.062 0.779575
592.121 1.02888
592.181 1.41891
592.241 2.07728
592.300 3.29858
592.330 4.32759
592.360 5.85696
592.390 8.20059
592.420 11.8011
592.460 18.8782
592.500 23.5788
592.540 18.8606
592.580 11.8026
592.620 7.29917
592.660 4.76859
592.700 3.29944
592.739 2.40092
592.779 1.81698
592.819 1.42093
592.898 0.935361
592.978 0.661750
593.057 0.493573
593.216 0.306358
593.375 0.210296
593.534 0.154620
593.852 0.0959609
594.169 0.0673048
594.487 0.0511833
595.123 0.0346095
596.394 0.0222450
597.665 0.0177458
600.208 0.0146101
602.750 0.0140320
605.293 0.0148922
607.835 0.0179823
609.106 0.0217631
610.377 0.0310321
611.013 0.0426680
611.649 0.0730282
611.966 0.112186
612.125 0.149163
612.284 0.212801
612.443 0.336625
612.523 0.447960
612.602 0.628602
612.682 0.950065
612.721 1.21211
612.761 1.59744
612.801 2.19367
612.840 3.16415
612.880 4.84022
612.920 7.81549
612.960 12.4898
613.000 15.6051
613.040 12.4908
613.080 7.81691
613.122 4.75396
613.163 3.06732
613.204 2.10789
613.245 1.52817
613.287 1.15475
613.328 0.903119
613.410 0.596445
613.493 0.425122
613.575 0.320254
613.740 0.204344
613.905 0.145395
614.070 0.111587
614.400 0.0767166
615.060 0.0522257
615.720 0.0458622
617.041 0.0494620
618.361 0.0670049
619.021 0.0833617
619.681 0.108992
620.341 0.151600
621.001 0.229474
621.331 0.295037
621.661 0.394913
621.991 0.557986
622.321 0.851365
622.486 1.09512
622.651 1.46218
622.816 2.05210
622.981 3.08939
623.063 3.93162
623.146 5.17156
623.228 7.10378
623.311 10.3532
623.393 16.4360
623.435 21.6818
623.476 29.8064
623.496 35.6753
623.517 43.3510
623.538 53.6688
623.558 67.9039
623.579 88.2285
623.600 117.810
623.620 162.043
623.641 228.141
623.670 365.380
623.700 456.504
623.715 429.359
623.730 364.865
623.759 228.116
623.783 153.908
623.807 107.325
623.831 77.8576
623.855 58.5594
623.902 36.1529
623.950 24.3505
623.997 17.4538
624.045 13.0993
624.140 8.14212
624.235 5.53810
624.330 4.00797
624.426 3.03423
624.521 2.37748
624.711 1.57288
624.901 1.11855
625.092 0.837112
625.282 0.651092
625.663 0.428407
626.044 0.305848
626.424 0.231990
626.805 0.185000
627.566 0.135787
628.328 0.130701
628.708 0.156735
628.899 0.188269
629.089 0.248453
629.279 0.376499
629.375 0.499763
629.470 0.713187
629.565 1.12996
629.612 1.50413
629.660 2.10882
629.708 3.17981
629.755 5.31993
629.779 7.26553
629.803 10.4046
629.827 15.7447
629.850 24.9912
629.875 39.9559
629.900 49.9316
629.925 39.9536
629.950 24.9879
629.965 18.4609
629.980 13.8773
630.011 8.41633
630.042 5.54288
630.072 3.90309
630.103 2.88668
630.133 2.22158
630.194 1.43390
630.255 1.00447
630.316 0.745939
630.438 0.464060
630.561 0.321571
630.683 0.239650
630.927 0.153383
631.171 0.110834
631.416 0.0864261
631.904 0.0603119
632.393 0.0468386
632.881 0.0386618
633.858 0.0291764
635.813 0.0202659
637.767 0.0159900
641.675 0.0120650
645.584 0.0106837
649.492 0.0107946
653.401 0.0130231
655.355 0.0162259
657.309 0.0244650
658.287 0.0347927
658.775 0.0444345
659.264 0.0610533
659.752 0.0941427
659.997 0.125125
660.241 0.178457
660.485 0.283675
660.607 0.380503
660.729 0.542718
660.852 0.847082
660.913 1.11057
660.974 1.52187
661.035 2.21499
661.096 3.49663
661.126 4.57730
661.157 6.18367
661.187 8.64614
661.218 12.4317
661.259 19.8704
661.300 24.8165
661.341 19.8580
661.382 12.4448
661.428 7.28873
661.474 4.59499
661.520 3.12025
661.565 2.25235
661.611 1.70737
661.657 1.34673
661.749 0.921180
661.840 0.697222
661.932 0.574766
662.115 0.491693
662.298 0.570690
662.390 0.696177
662.482 0.935979
662.573 1.42209
662.619 1.86095
662.665 2.56936
662.711 3.80853
662.757 6.23315
662.779 8.38538
662.802 11.7713
662.825 17.3364
662.848 26.6220
662.874 42.5658
662.900 53.1350
662.926 42.4944
662.952 26.6115
662.980 15.9344
663.007 10.1806
663.035 6.94824
663.062 5.00796
663.090 3.76535
663.117 2.93313
663.172 1.92389
663.227 1.36055
663.282 1.01644
663.392 0.634796
663.502 0.438725
663.612 0.324656
663.833 0.203416
664.053 0.143171
664.273 0.108695
664.713 0.0724676
665.153 0.0547642
665.594 0.0449116
666.474 0.0354444
668.235 0.0320454
669.997 0.0387621
670.877 0.0463912
671.758 0.0588777
672.638 0.0800991
673.519 0.119380
673.959 0.152667
674.399 0.203622
674.840 0.287248
675.280 0.438698
675.500 0.565360
675.720 0.757165
675.941 1.06811
676.161 1.62110
676.271 2.07566
676.381 2.75274
676.491 3.82474
676.601 5.66690
676.711 9.24143
676.766 12.4333
676.821 17.5849
676.876 26.6704
676.904 33.9994
676.931 44.6696
676.959 60.9090
676.986 86.9057
677.000 105.924
677.014 130.664
677.027 163.450
677.041 205.861
677.071 329.478
677.100 411.462
677.115 387.047
677.130 329.013
677.159 205.840
677.179 146.629
677.199 107.014
677.220 80.2769
677.240 62.0105
677.280 39.6778
677.321 27.3650
677.361 19.9196
677.402 15.1165
677.483 9.53530
677.564 6.54503
677.645 4.76732
677.726 3.62429
677.807 2.84847
677.968 1.89182
678.130 1.34753
678.292 1.00879
678.454 0.783814
678.778 0.513012
679.102 0.362479
679.426 0.270275
679.749 0.209762
680.397 0.137760
681.044 0.0982271
681.692 0.0742323
682.339 0.0586175
683.635 0.0403473
684.930 0.0309820
686.225 0.0285163
686.872 0.0387654
687.196 0.0751715
687.358 0.162626
687.439 0.306011
687.480 0.461661
687.520 0.740533
687.560 1.17333
687.600 1.46083
687.640 1.17206
687.680 0.740239
687.722 0.452629
687.764 0.296120
687.848 0.154855
688.017 0.0700586
688.353 0.0341268
689.026 0.0213860
690.373 0.0163253
693.065 0.0134712
698.450 0.0127072
701.143 0.0138221
703.835 0.0165560
705.181 0.0193034
706.528 0.0249278
707.201 0.0311273
707.874 0.0460566
708.210 0.0646028
708.547 0.111578
708.715 0.169327
708.883 0.306418
708.968 0.459011
709.052 0.771133
709.094 1.06315
709.136 1.54720
709.178 2.40758
709.220 3.98388
709.260 6.36081
709.300 7.93966
709.340 6.35515
709.380 3.98493
709.414 2.63130
709.449 1.80938
709.483 1.30106
709.517 0.975603
709.586 0.604471
709.654 0.412930
709.791 0.233145
709.928 0.155218
710.202 0.0916883
710.476 0.0677550
711.023 0.0516651
711.571 0.0486931
712.666 0.0556183
713.762 0.0752798
714.857 0.118638
715.405 0.161139
715.953 0.237227
716.226 0.300436
716.500 0.395882
716.774 0.550486
717.048 0.826203
717.185 1.05402
717.322 1.39513
717.459 1.94000
717.596 2.89043
717.733 4.77774
717.801 6.50843
717.870 9.37631
717.938 14.6458
717.972 19.0830
718.006 25.8232
718.041 36.7334
718.058 44.8021
718.075 55.6428
718.092 70.5317
718.109 91.4100
718.126 121.103
718.143 163.090
718.158 208.793
718.172 261.000
718.200 325.924
718.214 306.709
718.228 260.621
718.257 163.077
718.277 113.938
718.298 81.8458
718.319 60.6477
718.339 46.4122
718.381 29.3205
718.422 20.0469
718.463 14.5223
718.505 10.9875
718.587 6.91290
718.670 4.74691
718.752 3.46498
718.917 2.09133
719.083 1.41133
719.248 1.02815
719.413 0.792444
719.578 0.638787
719.908 0.461673
720.239 0.374841
720.899 0.330701
721.229 0.354941
721.560 0.415688
721.890 0.533861
722.220 0.762871
722.385 0.958379
722.550 1.25579
722.716 1.73746
722.881 2.58778
722.963 3.28020
723.046 4.30108
723.129 5.89423
723.211 8.57336
723.294 13.6024
723.335 17.9406
723.376 24.6670
723.397 29.5310
723.417 35.8982
723.438 44.5150
723.459 56.3723
723.479 73.3347
723.500 98.0823
723.521 135.196
723.541 190.837
723.571 305.307
723.600 381.612
723.615 359.162
723.629 305.290
723.659 190.817
723.688 117.071
723.718 75.9340
723.748 52.2962
723.777 37.9206
723.807 28.6012
723.836 22.3018
723.895 14.5869
723.954 10.2572
724.014 7.59746
724.132 4.64406
724.250 3.13115
724.368 2.25526
724.486 1.70340
724.605 1.33346
724.841 0.883543
725.077 0.630820
725.314 0.474647
725.550 0.371325
726.023 0.247157
726.496 0.178027
726.969 0.135461
727.442 0.107315
728.387 0.0734135
729.333 0.0544335
731.224 0.0348763
733.116 0.0254614
735.007 0.0202352
738.789 0.0151155
742.572 0.0131994
746.355 0.0132261
750.137 0.0169822
751.083 0.0202527
752.029 0.0281769
752.502 0.0379705
752.974 0.0629505
753.211 0.0943534
753.447 0.172253
753.565 0.264137
753.684 0.468344
753.743 0.677857
753.802 1.06535
753.831 1.39093
753.861 1.87359
753.890 2.61405
753.920 3.74472
753.960 5.98076
754.000 7.46602
754.040 5.97546
754.080 3.74578
754.121 2.30478
754.161 1.50316
754.201 1.04150
754.242 0.760794
754.322 0.456441
754.403 0.306456
754.564 0.171201
754.726 0.114737
755.048 0.0706175
755.371 0.0556729
756.017 0.0507896
756.662 0.0616257
757.308 0.0927629
757.630 0.125012
757.953 0.183787
758.114 0.232888
758.276 0.307019
758.437 0.426425
758.598 0.636685
758.679 0.807798
758.760 1.06013
758.841 1.45418
758.921 2.11776
759.002 3.36651
759.042 4.44836
759.083 6.13164
759.123 8.95669
759.163 14.1285
759.183 18.4402
759.204 24.7680
759.224 34.3874
759.244 48.8742
759.272 78.1728
759.300 97.6968
759.328 78.1693
759.356 48.8701
759.375 35.3337
759.393 26.0726
759.430 15.3623
759.467 9.93401
759.504 6.90086
759.541 5.04948
759.578 3.84744
759.652 2.44205
759.726 1.68448
759.800 1.23240
759.948 0.742891
760.096 0.497834
760.244 0.358141
760.391 0.271093
760.539 0.213266
760.835 0.143575
761.131 0.104863
761.722 0.0657149
762.314 0.0475004
762.905 0.0378125
764.088 0.0293100
765.271 0.0282252
766.454 0.0356587
767.045 0.0481826
767.637 0.0835629
767.933 0.130350
768.081 0.174738
768.228 0.251036
768.376 0.398916
768.450 0.530813
768.524 0.743367
768.598 1.11710
768.672 1.85480
768.709 2.51862
768.746 3.57364
768.783 5.34363
768.820 8.35416
768.860 13.3630
768.900 16.6910
768.940 13.3504
768.980 8.35497
769.006 6.09750
769.032 4.53620
769.083 2.70904
769.134 1.76791
769.186 1.23715
769.237 0.911583
769.288 0.699644
769.391 0.450370
769.494 0.315477
769.596 0.234720
769.802 0.147024
770.007 0.103052
770.212 0.0779469
770.623 0.0518842
771.444 0.0324546
772.265 0.0256024
773.908 0.0213063
775.550 0.0210004
777.193 0.0227387
778.835 0.0273378
779.656 0.0323596
780.477 0.0438488
780.888 0.0576389
781.299 0.0922158
781.504 0.135057
781.709 0.239306
781.812 0.359474
781.915 0.617715
781.966 0.873455
782.017 1.32529
782.069 2.20446
782.094 2.95636
782.120 4.03929
782.160 6.44568
782.200 8.05112
782.240 6.44645
782.280 4.04058
782.309 2.83480
782.339 2.04601
782.368 1.52559
782.397 1.17553
782.455 0.755545
782.513 0.527725
782.630 0.305449
782.747 0.205773
782.980 0.122498
783.213 0.0904338
783.679 0.0684042
784.146 0.0640326
785.078 0.0729391
786.011 0.0998682
786.477 0.124042
786.944 0.161516
787.410 0.223380
787.876 0.335756
788.109 0.429884
788.343 0.572665
788.576 0.804382
788.809 1.21733
788.925 1.55746
789.042 2.06510
789.159 2.87103
789.275 4.26154
789.392 6.97640
789.450 9.41961
789.508 13.3934
789.567 20.4647
789.596 26.2538
789.625 34.7476
789.654 47.9158
789.683 69.3581
789.698 85.3325
789.712 106.448
789.727 134.913
789.741 172.421
789.771 275.858
789.800 344.811
789.815 324.394
789.829 275.845
789.859 172.406
789.893 98.7576
789.926 61.0078
789.960 40.6572
789.994 28.7868
790.028 21.3601
790.062 16.4398
790.130 10.5722
790.198 7.34795
790.265 5.39983
790.401 3.26487
790.536 2.18560
790.672 1.56616
790.807 1.17832
790.943 0.919611
791.214 0.606756
791.485 0.432188
791.756 0.324965
792.027 0.254448
792.569 0.170438
793.111 0.124282
793.653 0.0962783
794.195 0.0780701
795.279 0.0567314
796.363 0.0453338
798.531 0.0346265
802.868 0.0291898
807.204 0.0305125
811.540 0.0353024
815.877 0.0441383
818.045 0.0514070
820.213 0.0639419
821.297 0.0761958
822.381 0.104072
822.923 0.138580
823.194 0.171432
823.465 0.229495
823.736 0.348805
823.872 0.463217
824.007 0.663484
824.143 1.06353
824.211 1.43355
824.278 2.05235
824.346 3.20559
824.380 4.19304
824.414 5.71155
824.448 8.22116
824.482 12.7239
824.515 21.6710
824.532 29.4331
824.549 40.8297
824.562 52.2472
824.575 65.2987
824.600 81.6169
824.625 65.2969
824.651 40.8277
824.669 28.6668
824.687 20.6870
824.706 15.3870
824.724 11.8162
824.760 7.50960
824.797 5.16344
824.833 3.76201
824.870 2.86365
824.943 1.82632
825.016 1.27381
825.089 0.946791
825.235 0.595395
825.380 0.421241
825.526 0.322794
825.818 0.222059
826.110 0.174948
826.402 0.149936
826.985 0.127542
828.153 0.124651
828.736 0.150654
828.882 0.172949
829.028 0.223951
829.174 0.385916
829.247 0.634362
829.284 0.888285
829.320 1.31761
829.360 2.03587
829.400 2.51457
829.440 2.03660
829.480 1.31901
829.527 0.799298
829.575 0.537108
829.670 0.316890
829.764 0.234028
829.859 0.195349
830.238 0.150439
830.997 0.144635
832.513 0.167310
834.030 0.207375
835.546 0.272914
837.063 0.394308
837.821 0.503202
838.580 0.687879
839.338 1.05549
839.717 1.40417
840.096 2.01603
840.475 3.26006
840.665 4.43996
840.855 6.47999
840.949 8.11296
841.044 10.4850
841.139 14.1171
841.234 20.0700
841.328 30.8200
841.376 39.7314
841.423 53.0430
841.471 74.0187
841.518 109.258
841.565 172.724
841.613 291.346
841.656 466.016
841.700 582.045
841.744 465.555
841.787 291.316
841.825 191.589
841.862 131.119
841.900 93.7802
841.937 69.8906
842.012 42.6744
842.087 28.6337
842.162 20.5205
842.237 15.4451
842.386 9.71945
842.536 6.74386
842.686 5.01178
842.985 3.18993
843.285 2.31519
843.584 1.84263
844.183 1.41254
844.782 1.28515
845.381 1.30713
845.980 1.43637
846.579 1.67400
847.178 2.05218
847.777 2.64422
848.076 3.06317
848.376 3.60317
848.675 4.31315
848.974 5.26871
849.274 6.59494
849.573 8.50516
849.873 11.3942
850.172 16.0435
850.472 24.1900
850.621 30.7360
850.771 40.2194
850.921 54.5699
851.071 77.3273
851.220 115.175
851.370 179.262
851.535 286.837
851.700 358.526
851.865 286.707
852.030 179.130
852.175 116.778
852.319 79.2769
852.464 56.3888
852.608 41.8098
852.897 25.3239
853.186 16.8588
853.475 11.9919
853.764 8.95278
854.341 5.52611
854.919 3.74546
855.497 2.70511
856.075 2.04548
856.653 1.60128
857.808 1.05881
858.964 0.752754
860.119 0.563304
861.275 0.437993
863.586 0.288147
865.897 0.207112
868.209 0.169631
868.786 0.173591
869.364 0.201763
869.653 0.245916
869.798 0.289536
869.942 0.365768
870.086 0.514894
870.159 0.648258
870.231 0.863104
870.303 1.23996
870.375 1.97964
870.411 2.63971
870.448 3.68405
870.484 5.41393
870.520 8.32796
870.560 13.2559
870.600 16.5284
870.640 13.2425
870.680 8.32682
870.710 5.80527
870.740 4.17290
870.770 3.10878
870.800 2.39527
870.860 1.54557
870.920 1.08821
870.980 0.816239
871.039 0.642822
871.159 0.442576
871.279 0.335968
871.399 0.272444
871.638 0.203257
872.117 0.146789
872.595 0.123125
873.553 0.100948
874.511 0.0889635
878.341 0.0639249
882.171 0.0507698
886.001 0.0433709
889.831 0.0409291
893.662 0.0471702
895.577 0.0597928
896.534 0.0730541
897.492 0.0975492
898.449 0.149785
898.928 0.201329
899.407 0.294112
899.646 0.371303
899.886 0.487714
900.125 0.675244
900.364 1.00605
900.484 1.27579
900.604 1.67448
900.723 2.29919
900.843 3.35813
900.963 5.36492
901.023 7.11744
901.083 9.87079
901.142 14.5473
901.202 23.2846
901.232 30.6957
901.262 41.8426
901.292 59.1252
901.322 86.0380
901.361 137.638
901.400 172.034
901.439 137.629
901.478 86.0280
901.518 52.6406
901.557 34.0800
901.597 23.4432
901.637 16.9694
901.676 12.7954
901.716 9.96850
901.795 6.52189
901.874 4.58761
901.953 3.40203
902.112 2.08595
902.270 1.41241
902.428 1.02334
902.587 0.778628
902.745 0.614936
903.062 0.416703
903.378 0.306292
904.011 0.195287
904.645 0.145304
905.278 0.121045
906.545 0.109473
907.811 0.135545
908.445 0.171190
909.078 0.240387
909.395 0.299655
909.711 0.390227
910.028 0.537775
910.344 0.800742
910.503 1.01693
910.661 1.33841
910.819 1.84636
910.978 2.71738
911.136 4.39876
911.215 5.89363
911.294 8.28948
911.374 12.4744
911.453 20.6514
911.492 27.9292
911.532 39.4062
911.572 58.3359
911.611 89.9563
911.656 143.911
911.700 179.874
911.745 143.898
911.789 89.9432
911.820 64.1172
911.850 46.7569
911.881 35.1007
911.911 27.0989
911.973 17.3458
912.034 11.9591
912.095 8.71181
912.156 6.61672
912.279 4.18116
912.401 2.87671
912.523 2.10081
912.768 1.26339
913.013 0.845784
913.257 0.608128
913.502 0.460193
913.747 0.361940
914.236 0.243757
914.726 0.178296
915.215 0.138615
915.704 0.113220
916.683 0.0864344
917.662 0.0836459
918.151 0.0979076
918.641 0.147712
918.886 0.216205
919.008 0.281232
919.130 0.392056
919.253 0.602999
919.314 0.787276
919.375 1.07676
919.436 1.56800
919.497 2.48624
919.528 3.26427
919.559 4.43309
919.589 6.24227
919.620 9.04242
919.660 14.4453
919.700 18.0472
919.740 14.4454
919.780 9.04222
919.819 5.66836
919.858 3.74075
919.897 2.61206
919.936 1.91438
920.013 1.14867
920.091 0.766078
920.168 0.549743
920.246 0.416105
920.401 0.266852
920.556 0.189723
920.711 0.144736
921.022 0.0967506
921.642 0.0589339
922.263 0.0439882
923.504 0.0314594
924.746 0.0259278
927.228 0.0208983
929.711 0.0191740
932.193 0.0200301
933.435 0.0220681
934.676 0.0264855
935.917 0.0366834
936.538 0.0470968
937.158 0.0662187
937.779 0.106963
938.089 0.147155
938.400 0.219429
938.555 0.279446
938.710 0.369663
938.865 0.514506
939.020 0.768352
939.175 1.27604
939.253 1.74503
939.331 2.52844
939.408 3.98470
939.447 5.22824
939.486 7.14222
939.525 10.2860
939.563 15.8943
939.602 26.9393
939.622 36.4718
939.641 50.2956
939.670 80.4650
939.700 100.576
939.730 80.4617
939.759 50.2919
939.784 33.2241
939.809 22.7877
939.835 16.3306
939.860 12.1730
939.910 7.42682
939.960 4.97063
940.010 3.54663
940.060 2.65548
940.161 1.64553
940.261 1.11853
940.361 0.810396
940.462 0.614796
940.562 0.482991
940.763 0.321920
940.963 0.231113
941.364 0.137739
941.766 0.0931810
942.167 0.0685085
942.970 0.0435559
943.772 0.0318326
944.575 0.0254224
946.180 0.0190931
949.390 0.0151362
952.601 0.0152414
955.811 0.0186722
957.416 0.0227374
959.021 0.0304461
960.627 0.0471237
961.429 0.0637425
962.232 0.0939762
962.633 0.119395
963.034 0.158146
963.436 0.221527
963.837 0.335954
964.038 0.431440
964.238 0.575765
964.439 0.809232
964.640 1.22321
964.740 1.56275
964.840 2.06664
964.941 2.86135
965.041 4.22108
965.141 6.83544
965.191 9.15435
965.242 12.8557
965.292 19.2942
965.317 24.4265
965.342 31.7679
965.367 42.7864
965.392 60.0196
965.405 72.3646
965.417 88.1293
965.430 108.442
965.442 134.363
965.457 172.023
965.471 215.044
965.500 268.550
965.515 252.717
965.529 214.739
965.558 134.353
965.578 95.1650
965.599 69.0268
965.619 51.5996
965.639 39.7040
965.680 25.2919
965.720 17.3941
965.761 12.6378
965.801 9.57817
965.883 6.03271
965.964 4.13814
966.045 3.01376
966.126 2.29171
966.207 1.80208
966.369 1.19894
966.532 0.856193
966.694 0.643102
966.856 0.501727
967.181 0.331863
967.506 0.237775
967.830 0.180460
968.155 0.143153
968.804 0.0997086
969.453 0.0772417
970.102 0.0653808
970.751 0.0600622
972.050 0.0651707
972.699 0.0782966
973.348 0.106052
973.673 0.130587
973.997 0.168714
974.322 0.231776
974.647 0.346208
974.809 0.441720
974.971 0.585956
975.134 0.818431
975.296 1.22857
975.377 1.56282
975.458 2.05564
975.539 2.82736
975.620 4.13011
975.702 6.59083
975.742 8.72777
975.783 12.0641
975.823 17.6909
975.864 28.0696
975.884 36.7894
975.904 49.7613
975.925 69.5927
975.935 83.1487
975.945 99.7939
975.959 127.809
975.973 159.834
976.000 199.689
976.014 187.888
976.028 159.596
976.055 99.7875
976.077 68.1602
976.098 48.0011
976.119 35.0813
976.141 26.5666
976.183 16.5406
976.226 11.2019
976.269 8.06002
976.311 6.06659
976.397 3.78486
976.482 2.58250
976.568 1.87383
976.653 1.42185
976.738 1.11622
976.909 0.741348
977.080 0.529237
977.251 0.397621
977.422 0.310373
977.763 0.205477
978.105 0.147210
978.447 0.111483
978.788 0.0879794
979.472 0.0598938
980.155 0.0443397
981.521 0.0285020
982.888 0.0209552
984.254 0.0167820
986.987 0.0127447
989.720 0.0115676
992.453 0.0133113
993.820 0.0170472
995.186 0.0283564
995.870 0.0440558
996.553 0.0871613
996.895 0.144183
997.065 0.198590
997.236 0.292939
997.407 0.478164
997.492 0.645939
997.578 0.920715
997.663 1.41476
997.706 1.82270
997.749 2.42961
997.791 3.38062
997.834 4.96575
997.877 7.78835
997.919 13.0010
997.960 20.7926
998.000 25.9851
998.040 20.7934
998.081 13.0020
998.111 9.02323
998.141 6.43678
998.171 4.75085
998.201 3.62062
998.261 2.27676
998.321 1.55241
998.381 1.12275
998.441 0.848653
998.561 0.533458
998.681 0.366370
998.800 0.267647
999.040 0.161739
999.280 0.109201
999.520 0.0794211
1000.00 0.0486593
1000.73 0.0290662
1001.47 0.0205335
1002.93 0.0135195
1005.86 0.0102313
1008.79 0.0146586
1009.52 0.0202724
1010.26 0.0359547
1010.62 0.0569296
1010.99 0.111973
1011.17 0.181105
1011.35 0.348340
1011.45 0.539287
1011.54 0.934929
1011.58 1.31789
1011.63 1.97383
1011.68 3.18774
1011.72 5.47292
1011.76 8.73544
1011.80 10.9034
1011.84 8.73577
1011.88 5.47334
1011.91 3.66107
1011.95 2.56267
1011.98 1.86539
1012.01 1.40733
1012.07 0.867872
1012.14 0.588346
1012.27 0.319276
1012.40 0.201349
1012.65 0.102219
1012.91 0.0632682
1013.43 0.0331501
1013.94 0.0220191
1014.97 0.0140069
1016.00 0.0116621
1018.06 0.0151270
1019.09 0.0354752
1019.35 0.0551045
1019.61 0.104800
1019.73 0.164768
1019.86 0.301158
1019.93 0.446106
1019.99 0.717783
1020.06 1.30767
1020.09 1.86963
1020.12 2.76237
1020.16 4.41139
1020.20 5.50894
1020.24 4.41154
1020.28 2.76255
1020.31 1.89196
1020.34 1.35009
1020.40 0.754885
1020.46 0.474103
1020.52 0.325683
1020.65 0.179434
1020.77 0.114707
1021.01 0.0599954
1021.25 0.0382975
1021.74 0.0213511
1022.22 0.0150199
1024.16 0.00857852
1028.05 0.00715984
1031.93 0.00756974
1035.81 0.00890967
1039.69 0.0119250
1041.64 0.0148824
1043.58 0.0201759
1045.52 0.0312870
1046.49 0.0422363
1047.46 0.0620582
1047.95 0.0787447
1048.43 0.104147
1048.92 0.145741
1049.40 0.221011
1049.64 0.284127
1049.89 0.379933
1050.13 0.535644
1050.37 0.812445
1050.49 1.04270
1050.62 1.38432
1050.74 1.92734
1050.86 2.86702
1050.98 4.72814
1051.04 6.41880
1051.10 9.13685
1051.16 14.0967
1051.19 18.1193
1051.22 24.0693
1051.25 33.7127
1051.27 40.4528
1051.28 49.2487
1051.30 60.9108
1051.31 76.5855
1051.33 97.8020
1051.34 126.265
1051.36 162.793
1051.37 201.599
1051.40 251.646
1051.42 235.970
1051.43 201.592
1051.46 126.257
1051.48 84.3030
1051.51 58.2933
1051.53 42.0204
1051.55 31.4548
1051.60 19.2947
1051.65 13.0424
1051.70 9.31297
1051.74 7.00999
1051.84 4.35422
1051.93 2.96207
1052.03 2.14432
1052.12 1.62402
1052.22 1.27283
1052.41 0.843132
1052.60 0.600374
1052.79 0.450045
1052.98 0.350588
1053.36 0.231395
1053.74 0.165497
1054.12 0.125354
1054.50 0.0991693
1055.26 0.0684087
1056.02 0.0519854
1057.54 0.0368971
1059.06 0.0322647
1060.58 0.0340154
1062.10 0.0477333
1062.48 0.0584746
1062.86 0.0834920
1063.05 0.113011
1063.24 0.182471
1063.34 0.260544
1063.43 0.424530
1063.48 0.584914
1063.53 0.855772
1063.57 1.37490
1063.62 2.38046
1063.66 3.77367
1063.70 4.70044
1063.74 3.77504
1063.78 2.38309
1063.82 1.55692
1063.85 1.06638
1063.92 0.587647
1064.00 0.376478
1064.07 0.270882
1064.21 0.173483
1064.35 0.133653
1064.64 0.105828
1064.92 0.101744
1065.49 0.120199
1066.06 0.169271
1066.35 0.212870
1066.63 0.279860
1066.92 0.389684
1067.20 0.587245
1067.35 0.751760
1067.49 0.997125
1067.63 1.39284
1067.77 2.07972
1067.92 3.45605
1067.99 4.71229
1068.06 6.79786
1068.13 10.7011
1068.17 14.0229
1068.20 18.9404
1068.24 27.1351
1068.25 33.2663
1068.27 41.0364
1068.29 52.3339
1068.31 68.3253
1068.33 91.3045
1068.34 121.982
1068.36 157.426
1068.37 195.159
1068.40 243.940
1068.42 228.646
1068.43 195.152
1068.46 121.974
1068.48 78.7612
1068.51 53.8379
1068.54 38.0217
1068.56 28.3441
1068.61 17.1503
1068.66 11.4933
1068.71 8.16269
1068.76 6.08719
1068.86 3.76786
1068.97 2.55014
1069.07 1.84605
1069.17 1.39889
1069.27 1.09746
1069.47 0.727803
1069.67 0.520522
1069.88 0.391729
1070.08 0.307063
1070.48 0.205476
1070.89 0.149467
1071.29 0.115472
1071.70 0.0934169
1072.51 0.0678468
1073.32 0.0546875
1074.94 0.0443539
1076.56 0.0451020
1078.18 0.0576518
1078.99 0.0747224
1079.80 0.118147
1080.20 0.173147
1080.41 0.225137
1080.61 0.314635
1080.81 0.492306
1080.91 0.654333
1081.01 0.923318
1081.12 1.42469
1081.17 1.85141
1081.22 2.49008
1081.27 3.54927
1081.32 5.37212
1081.37 8.95202
1081.39 11.9169
1081.42 16.1493
1081.46 25.9585
1081.50 32.2973
1081.54 25.7051
1081.58 16.1525
1081.61 11.3710
1081.64 8.21357
1081.67 6.12645
1081.70 4.71153
1081.76 3.00959
1081.81 2.09405
1081.87 1.53534
1081.93 1.18272
1082.04 0.770345
1082.16 0.549911
1082.27 0.421215
1082.50 0.284700
1082.73 0.219131
1082.96 0.184666
1083.43 0.156142
1084.35 0.163083
1085.27 0.220272
1085.73 0.274305
1086.19 0.358386
1086.65 0.496038
1087.11 0.740488
1087.34 0.941461
1087.57 1.23801
1087.80 1.70606
1088.03 2.49861
1088.26 4.01466
1088.38 5.33837
1088.49 7.42986
1088.61 10.9965
1088.72 17.7314
1088.78 23.5613
1088.84 32.2614
1088.90 46.1666
1088.95 67.7603
1089.03 108.583
1089.10 135.865
1089.17 108.568
1089.25 67.7449
1089.31 44.9722
1089.37 31.1464
1089.43 22.3714
1089.49 16.7780
1089.61 10.2850
1089.73 6.89838
1089.85 4.93173
1089.97 3.69536
1090.21 2.29248
1090.46 1.55929
1090.70 1.12943
1090.94 0.856295
1091.18 0.672741
1091.67 0.447289
1092.15 0.320062
1092.63 0.241340
1093.12 0.189385
1094.08 0.127059
1095.05 0.0927496
1096.02 0.0719805
1096.99 0.0585919
1098.92 0.0433943
1100.86 0.0361773
1104.72 0.0333726
1106.66 0.0363539
1108.59 0.0430139
1110.53 0.0556662
1112.46 0.0802106
1113.43 0.101391
1114.40 0.134030
1115.37 0.187910
1116.33 0.286023
1116.82 0.368523
1117.30 0.494074
1117.78 0.698739
1118.27 1.06503
1118.51 1.36900
1118.75 1.82553
1118.99 2.55653
1119.23 3.82783
1119.36 4.85710
1119.48 6.36362
1119.60 8.69286
1119.66 10.3810
1119.72 12.5660
1119.78 15.5693
1119.84 19.6916
1119.90 25.7769
1119.96 34.8951
1120.02 49.9131
1120.08 75.6974
1120.11 96.0181
1120.14 124.534
1120.17 165.120
1120.20 222.539
1120.25 356.757
1120.30 443.549
1120.35 353.873
1120.40 222.509
1120.43 160.358
1120.47 117.986
1120.53 69.2171
1120.60 44.6249
1120.66 30.9023
1120.73 22.5736
1120.80 17.1743
1120.93 10.8990
1121.06 7.49438
1121.19 5.47572
1121.45 3.28052
1121.72 2.18271
1121.98 1.55698
1122.24 1.16713
1122.50 0.908081
1123.03 0.595929
1123.56 0.423269
1124.08 0.318225
1124.61 0.250316
1125.66 0.174591
1126.71 0.150095
1127.24 0.163369
1127.50 0.184821
1127.77 0.228490
1128.03 0.323671
1128.16 0.415963
1128.29 0.573765
1128.43 0.879690
1128.49 1.15019
1128.56 1.57274
1128.62 2.30849
1128.69 3.71550
1128.72 4.93576
1128.75 6.81101
1128.79 9.79822
1128.82 14.4141
1128.86 23.1716
1128.90 28.8348
1128.94 22.9433
1128.98 14.4128
1129.02 9.35308
1129.05 6.40072
1129.09 4.58786
1129.12 3.42644
1129.19 2.10635
1129.26 1.42451
1129.33 1.03076
1129.40 0.783996
1129.54 0.504461
1129.68 0.357438
1129.82 0.271633
1130.10 0.179304
1130.66 0.105527
1131.22 0.0759595
1132.35 0.0505738
1133.47 0.0389239
1135.71 0.0274713
1137.95 0.0220067
1140.19 0.0197546
1142.44 0.0216599
1143.56 0.0268458
1144.68 0.0431556
1145.24 0.0659678
1145.80 0.128134
1146.08 0.209746
1146.22 0.286564
1146.36 0.418054
1146.50 0.670928
1146.57 0.894959
1146.64 1.25326
1146.71 1.87519
1146.78 3.08245
1146.81 4.14686
1146.85 5.81099
1146.88 8.52492
1146.92 13.0137
1146.96 20.9604
1147.00 26.1034
1147.04 20.7541
1147.08 13.0145
1147.13 7.60548
1147.17 4.81265
1147.22 3.23522
1147.26 2.32138
1147.30 1.72956
1147.35 1.34308
1147.44 0.875367
1147.53 0.613074
1147.61 0.455105
1147.79 0.279807
1147.97 0.190640
1148.14 0.139243
1148.50 0.0853495
1149.21 0.0443760
1149.92 0.0292709
1151.33 0.0179508
1152.75 0.0137675
1155.58 0.0107223
1158.42 0.0100847
1161.25 0.0110785
1162.67 0.0125704
1164.08 0.0155047
1165.50 0.0218730
1166.21 0.0281553
1166.92 0.0394632
1167.62 0.0632291
1167.98 0.0864965
1168.33 0.128286
1168.69 0.215465
1168.86 0.300070
1169.04 0.449876
1169.22 0.754298
1169.31 1.04283
1169.39 1.53018
1169.48 2.47669
1169.53 3.30491
1169.57 4.62347
1169.62 6.96687
1169.66 11.4104
1169.68 15.2995
1169.70 21.3341
1169.73 31.0754
1169.75 46.9804
1169.76 60.1136
1169.77 75.1136
1169.80 93.8492
1169.83 75.1120
1169.85 46.9785
1169.87 31.6419
1169.89 22.3971
1169.91 16.2018
1169.93 12.3165
1169.98 7.64083
1170.02 5.20954
1170.06 3.73955
1170.10 2.82904
1170.18 1.77000
1170.26 1.20645
1170.34 0.879237
1170.50 0.529244
1170.67 0.355582
1170.83 0.258393
1171.15 0.159294
1171.48 0.113505
1171.80 0.0903043
1172.45 0.0751468
1173.10 0.0881105
1173.43 0.109647
1173.75 0.152513
1174.07 0.246402
1174.24 0.339240
1174.40 0.503286
1174.56 0.838858
1174.64 1.15202
1174.72 1.68392
1174.81 2.69448
1174.85 3.59173
1174.89 4.97250
1174.93 7.38374
1174.97 11.8089
1174.99 15.7912
1175.01 21.5602
1175.03 30.5311
1175.05 44.5521
1175.06 57.0532
1175.07 71.3566
1175.10 89.2600
1175.13 71.3547
1175.15 44.5497
1175.17 31.0928
1175.19 22.2844
1175.21 16.5065
1175.23 12.6134
1175.27 7.95953
1175.30 5.48810
1175.34 3.96793
1175.38 3.01813
1175.45 1.90058
1175.53 1.29940
1175.60 0.948316
1175.75 0.570057
1175.91 0.380633
1176.06 0.273700
1176.36 0.162691
1176.66 0.108996
1176.96 0.0790254
1177.56 0.0483894
1178.16 0.0336829
1178.76 0.0254619
1179.96 0.0169535
1181.17 0.0128037
1182.37 0.0104404
1184.78 0.00795602
1189.59 0.00605409
1194.40 0.00541397
1204.02 0.00531212
1213.64 0.00608798
1223.27 0.00799227
1228.08 0.00975655
1232.89 0.0126580
1237.70 0.0180436
1240.10 0.0228178
1242.51 0.0307659
1244.92 0.0462499
1246.12 0.0607629
1247.32 0.0862045
1248.52 0.138749
1249.13 0.190017
1249.73 0.281946
1250.03 0.358676
1250.33 0.474890
1250.63 0.663485
1250.93 0.998879
1251.08 1.27750
1251.23 1.69177
1251.38 2.35120
1251.53 3.49500
1251.68 5.76406
1251.76 7.81470
1251.83 11.1818
1251.87 13.7754
1251.91 17.2593
1251.94 22.3790
1251.98 29.8242
1252.02 41.8835
1252.06 61.5994
1252.08 77.0136
1252.09 98.0974
1252.11 127.196
1252.13 164.587
1252.17 264.373
1252.20 328.179
1252.22 307.381
1252.24 261.330
1252.27 164.576
1252.30 107.733
1252.33 73.3564
1252.36 52.2879
1252.39 39.1851
1252.45 23.7352
1252.51 15.8987
1252.57 11.2990
1252.63 8.46954
1252.74 5.25940
1252.86 3.57113
1252.98 2.58516
1253.10 1.96050
1253.22 1.54320
1253.46 1.02963
1253.69 0.741936
1253.93 0.564380
1254.17 0.447421
1254.64 0.308307
1255.12 0.233144
1256.07 0.161600
1257.02 0.134345
1257.97 0.127080
1259.86 0.148888
1260.81 0.178940
1261.76 0.229225
1262.71 0.315045
1263.66 0.473020
1264.14 0.605845
1264.61 0.807245
1265.09 1.13332
1265.56 1.71032
1265.80 2.18468
1266.03 2.88566
1266.27 3.98864
1266.39 4.79774
1266.51 5.86929
1266.63 7.35725
1266.75 9.48699
1266.87 12.6824
1266.98 17.7216
1267.10 26.4755
1267.16 33.3395
1267.22 43.1108
1267.28 57.8504
1267.34 80.2464
1267.40 116.055
1267.46 173.874
1267.53 279.156
1267.60 348.110
1267.67 277.563
1267.74 173.841
1267.83 99.3540
1267.91 61.2847
1267.99 40.8019
1268.07 28.9815
1268.16 21.4829
1268.24 16.5211
1268.41 10.6309
1268.57 7.37960
1268.74 5.42466
1269.07 3.27653
1269.40 2.19077
1269.73 1.56764
1270.06 1.17749
1270.39 0.917202
1271.05 0.602456
1271.72 0.426670
1272.38 0.318634
1273.04 0.247619
1274.36 0.162778
1275.69 0.116105
1277.01 0.0877269
1278.33 0.0692818
1280.98 0.0477962
1283.63 0.0369535
1286.27 0.0340987
1287.60 0.0457460
1287.93 0.0585933
1288.26 0.0927853
1288.43 0.135775
1288.59 0.237848
1288.67 0.352195
1288.76 0.582562
1288.84 1.15834
1288.88 1.78214
1288.92 2.91058
1288.96 4.63547
1289.00 5.78287
1289.04 4.63553
1289.08 2.91060
1289.12 1.74230
1289.17 1.12514
1289.25 0.566109
1289.33 0.340623
1289.42 0.230313
1289.59 0.131058
1289.75 0.0893058
1290.09 0.0554962
1290.43 0.0424373
1291.77 0.0285112
1294.46 0.0249952
1297.15 0.0262517
1299.84 0.0307555
1302.54 0.0409942
1303.88 0.0507004
1305.23 0.0672789
1306.57 0.0999790
1307.25 0.130616
1307.92 0.183907
1308.59 0.292360
1308.93 0.395975
1309.26 0.578074
1309.60 0.948161
1309.77 1.29575
1309.94 1.89094
1310.10 3.03879
1310.19 4.05992
1310.27 5.70111
1310.36 8.57157
1310.40 10.8764
1310.44 14.2128
1310.48 19.2529
1310.52 27.2407
1310.57 40.5069
1310.61 62.9389
1310.65 101.221
1310.70 126.071
1310.75 100.347
1310.79 62.9357
1310.82 46.2551
1310.85 34.6171
1310.91 20.9934
1310.97 13.8418
1311.02 9.74238
1311.08 7.20795
1311.14 5.54318
1311.25 3.57300
1311.37 2.49487
1311.48 1.85399
1311.71 1.15809
1311.94 0.810110
1312.16 0.615543
1312.62 0.422719
1313.08 0.343534
1313.53 0.316439
1314.45 0.353755
1314.90 0.417659
1315.36 0.527485
1315.82 0.716381
1316.27 1.06249
1316.50 1.35268
1316.73 1.78747
1316.96 2.48292
1317.19 3.69488
1317.30 4.67950
1317.42 6.10491
1317.53 8.29734
1317.59 9.86368
1317.64 11.9159
1317.70 14.6743
1317.76 18.4973
1317.82 23.9963
1317.87 32.2747
1317.93 45.4579
1317.99 67.9384
1318.02 85.6788
1318.04 109.304
1318.07 143.448
1318.10 189.073
1318.15 301.891
1318.20 376.843
1318.25 301.869
1318.30 189.050
1318.35 112.303
1318.41 71.1469
1318.46 48.2129
1318.52 34.5293
1318.57 25.8315
1318.62 20.0023
1318.73 12.9637
1318.84 9.06007
1318.95 6.68105
1319.16 4.05890
1319.38 2.72500
1319.60 1.95623
1319.81 1.47342
1320.03 1.15056
1320.46 0.759100
1320.89 0.539783
1321.32 0.404626
1321.76 0.315443
1322.62 0.208692
1323.48 0.149596
1324.35 0.113461
1325.21 0.0897607
1326.94 0.0616281
1328.67 0.0463151
1332.12 0.0316536
1335.58 0.0264802
1339.04 0.0275910
1340.76 0.0322704
1341.63 0.0372550
1342.49 0.0463868
1343.36 0.0656712
1343.79 0.0846258
1344.22 0.118774
1344.65 0.190388
1344.87 0.260302
1345.08 0.384936
1345.30 0.640950
1345.41 0.884707
1345.52 1.30659
1345.62 2.13253
1345.68 2.87852
1345.73 4.09650
1345.79 6.27600
1345.81 8.06655
1345.84 10.7166
1345.87 14.8386
1345.89 21.6344
1345.92 33.5333
1345.93 42.3225
1345.95 53.9257
1345.96 69.8804
1345.97 86.7151
1346.00 107.420
1346.03 85.4224
1346.05 53.9236
1346.08 35.9726
1346.10 24.8585
1346.12 17.9132
1346.14 13.5756
1346.18 8.30993
1346.23 5.61645
1346.27 4.01019
1346.31 3.02195
1346.40 1.89206
1346.49 1.29205
1346.57 0.940434
1346.75 0.568074
1346.92 0.383610
1347.09 0.280192
1347.44 0.173961
1347.79 0.123486
1348.13 0.0959688
1348.83 0.0692796
1349.52 0.0581650
1350.21 0.0536595
1351.60 0.0542348
1352.99 0.0641364
1354.38 0.0899698
1355.07 0.120075
1355.42 0.147369
1355.76 0.193890
1356.11 0.287381
1356.28 0.375921
1356.46 0.530719
1356.63 0.844629
1356.72 1.13940
1356.80 1.63528
1356.89 2.59452
1356.93 3.43052
1356.98 4.75653
1357.02 7.10231
1357.06 11.5124
1357.08 15.4484
1357.11 21.2240
1357.13 30.8859
1357.15 45.6967
1357.16 58.3185
1357.17 72.6663
1357.20 90.4864
1357.23 72.6660
1357.25 45.6973
1357.28 26.8155
1357.31 16.8539
1357.34 11.3746
1357.37 8.22363
1357.40 6.14813
1357.42 4.80609
1357.48 3.15173
1357.54 2.22287
1357.60 1.66936
1357.71 1.06004
1357.83 0.749515
1357.94 0.574026
1358.17 0.393485
1358.40 0.310956
1358.63 0.269770
1359.08 0.241313
1360.00 0.272998
1360.92 0.386136
1361.37 0.488624
1361.83 0.646952
1362.29 0.905980
1362.75 1.36912
1362.98 1.75043
1363.21 2.31895
1363.43 3.21977
1363.55 3.88500
1363.66 4.77084
1363.78 6.01014
1363.89 7.78168
1364.01 10.4906
1364.12 14.8313
1364.18 18.1342
1364.24 22.5560
1364.29 28.7582
1364.35 37.7919
1364.41 51.5486
1364.46 73.5908
1364.52 110.745
1364.58 174.740
1364.64 280.030
1364.70 350.404
1364.76 280.005
1364.82 174.715
1364.87 121.493
1364.91 86.8136
1364.96 64.1538
1365.00 49.2117
1365.09 30.9362
1365.18 21.1580
1365.27 15.2741
1365.36 11.5555
1365.54 7.23978
1365.72 4.95053
1365.90 3.59549
1366.08 2.72872
1366.25 2.14134
1366.61 1.41964
1366.97 1.01015
1367.33 0.755751
1367.69 0.587371
1368.40 0.384233
1369.12 0.271513
1369.83 0.202354
1370.55 0.156990
1371.98 0.102882
1373.41 0.0731092
1374.84 0.0549679
1376.27 0.0430931
1379.14 0.0289927
1382.00 0.0212654
1384.86 0.0165920
1387.72 0.0135799
1393.45 0.0102096
1399.17 0.00890609
1404.90 0.0100954
1407.76 0.0158738
1409.19 0.0353212
1409.55 0.0536528
1409.91 0.101293
1410.08 0.160789
1410.26 0.304146
1410.35 0.467283
1410.44 0.803792
1410.49 1.12803
1410.53 1.66423
1410.58 2.66284
1410.62 4.51514
1410.66 7.20092
1410.70 8.98470
1410.74 7.20123
1410.78 4.51560
1410.81 3.02307
1410.85 2.09616
1410.91 1.14734
1410.98 0.707778
1411.04 0.481039
1411.17 0.263726
1411.30 0.168894
1411.57 0.0896454
1411.83 0.0588806
1412.35 0.0359062
1412.87 0.0284569
1413.92 0.0263724
1414.96 0.0323906
1416.01 0.0493255
1416.53 0.0669522
1417.05 0.0992774
1417.58 0.168110
1417.84 0.236034
1418.10 0.357431
1418.36 0.609960
1418.49 0.852791
1418.62 1.27322
1418.75 2.11372
1418.82 2.87800
1418.88 4.14220
1418.95 6.49914
1418.98 8.49483
1419.02 11.4244
1419.05 16.2799
1419.08 24.3983
1419.10 31.1695
1419.11 40.0931
1419.13 52.6224
1419.15 70.0912
1419.16 90.0133
1419.17 112.705
1419.20 139.666
1419.21 131.225
1419.23 111.084
1419.26 70.0882
1419.28 46.6096
1419.30 32.6216
1419.32 23.7377
1419.34 17.8983
1419.39 10.9823
1419.43 7.42761
1419.48 5.30312
1419.52 3.99285
1419.61 2.48040
1419.70 1.68756
1419.79 1.22186
1419.88 0.925562
1419.97 0.725569
1420.15 0.480848
1420.32 0.342570
1420.68 0.200480
1421.03 0.132340
1421.39 0.0945981
1422.10 0.0564571
1422.81 0.0384952
1423.52 0.0286638
1424.95 0.0188309
1426.37 0.0143068
1427.79 0.0119158
1430.64 0.00978872
1436.33 0.00970579
1439.18 0.0124031
1440.60 0.0207853
1441.31 0.0487404
1441.67 0.134516
1441.84 0.345309
1441.93 0.710633
1441.98 1.12299
1442.02 1.90090
1442.06 3.03011
1442.10 3.78090
1442.14 3.03024
1442.18 1.90109
1442.22 1.21646
1442.25 0.815543
1442.33 0.426208
1442.48 0.175952
1442.77 0.0644145
1443.36 0.0267042
1444.54 0.0163817
1446.90 0.0155769
1449.26 0.0183224
1451.61 0.0233731
1453.97 0.0324180
1455.15 0.0399389
1456.33 0.0516439
1457.51 0.0725150
1458.10 0.0907405
1458.69 0.120986
1459.28 0.180251
1459.57 0.236007
1459.87 0.333263
1460.16 0.532091
1460.31 0.722844
1460.46 1.05391
1460.60 1.71984
1460.68 2.33713
1460.75 3.35649
1460.83 5.28079
1460.86 6.93477
1460.90 9.41085
1460.94 13.5963
1460.97 21.1382
1460.99 27.4920
1461.01 36.2074
1461.02 41.9677
1461.03 48.9490
1461.04 57.3921
1461.05 67.5120
1461.06 86.7081
1461.07 108.589
1461.10 134.610
1461.11 126.461
1461.13 107.027
1461.16 67.5118
1461.18 41.9691
1461.21 27.4951
1461.24 19.0781
1461.26 13.9019
1461.29 10.5398
1461.32 8.25033
1461.37 5.44130
1461.43 3.85934
1461.48 2.88563
1461.59 1.81029
1461.69 1.25340
1461.80 0.932510
1462.02 0.599764
1462.23 0.441232
1462.45 0.357175
1462.88 0.283115
1463.31 0.265001
1463.74 0.275289
1464.60 0.360979
1465.03 0.445040
1465.46 0.575162
1465.90 0.784469
1466.33 1.14594
1466.76 1.84370
1466.97 2.46420
1467.19 3.45186
1467.40 5.17341
1467.51 6.54526
1467.62 8.49416
1467.73 11.4291
1467.83 15.9592
1467.94 23.3825
1468.05 35.4679
1468.18 56.8292
1468.30 70.9138
1468.43 56.6368
1468.55 35.4559
1468.64 25.4975
1468.72 18.7300
1468.89 10.9662
1469.06 7.06301
1469.22 4.88889
1469.39 3.57081
1469.56 2.71695
1469.90 1.71981
1470.23 1.18423
1470.57 0.864583
1471.24 0.518895
1471.91 0.346037
1472.58 0.247450
1473.26 0.185961
1473.93 0.145090
1475.27 0.0956773
1476.61 0.0681161
1477.96 0.0511834
1479.30 0.0400464
1481.99 0.0267579
1484.68 0.0194642
1487.36 0.0150695
1490.05 0.0122685
1495.43 0.00929924
1500.80 0.00877594
1503.49 0.00990309
1506.17 0.0139610
1507.52 0.0196122
1508.86 0.0349182
1509.53 0.0552923
1510.21 0.110568
1510.54 0.184179
1510.71 0.255394
1510.88 0.381184
1511.05 0.636029
1511.13 0.875163
1511.21 1.28249
1511.30 2.06044
1511.34 2.74479
1511.38 3.83115
1511.42 5.69616
1511.47 9.25310
1511.49 12.3298
1511.51 17.0448
1511.53 24.5251
1511.55 35.7644
1511.56 45.7739
1511.57 57.2132
1511.60 71.5119
1511.63 57.2124
1511.65 35.7637
1511.67 25.9134
1511.69 19.1572
1511.72 11.4795
1511.75 7.42007
1511.79 5.19991
1511.82 3.80016
1511.85 2.91529
1511.92 1.86853
1511.99 1.29280
1512.05 0.948752
1512.19 0.578567
1512.32 0.392159
1512.45 0.287185
1512.72 0.179614
1513.25 0.105400
1513.79 0.0915021
1514.32 0.111628
1514.85 0.196451
1515.12 0.314298
1515.25 0.425941
1515.39 0.616817
1515.52 0.985598
1515.59 1.31137
1515.65 1.82048
1515.72 2.70745
1515.79 4.37056
1515.82 5.85442
1515.85 8.06646
1515.89 11.5637
1515.92 17.1334
1515.96 27.3655
1516.00 34.1706
1516.04 27.3657
1516.08 17.1335
1516.11 12.3964
1516.14 9.25176
1516.19 5.54436
1516.24 3.59915
1516.29 2.52087
1516.35 1.84749
1516.40 1.41658
1516.50 0.903981
1516.61 0.626826
1516.71 0.460664
1516.92 0.280729
1517.13 0.189743
1517.34 0.137654
1517.76 0.0833374
1518.60 0.0419285
1519.44 0.0264834
1521.12 0.0147046
1522.79 0.0102574
1526.15 0.00684872
1529.50 0.00563164
1536.21 0.00525481
1539.57 0.00646804
1541.24 0.0107294
1542.08 0.0255146
1542.50 0.0725982
1542.71 0.196372
1542.82 0.431934
1542.87 0.725945
1542.92 1.34576
1542.96 2.14839
1543.00 2.68284
1543.04 2.14846
1543.08 1.34586
1543.13 0.767441
1543.17 0.473666
1543.27 0.225060
1543.46 0.0856697
1543.83 0.0301855
1544.58 0.0125936
1546.09 0.00795140
1549.09 0.00778439
1552.10 0.00955458
1555.10 0.0132495
1556.61 0.0164525
1558.11 0.0214000
1559.61 0.0295904
1561.12 0.0445864
1561.87 0.0572694
1562.62 0.0766621
1563.37 0.108592
1564.12 0.166560
1564.50 0.215298
1564.87 0.289489
1565.25 0.410510
1565.62 0.627175
1565.81 0.807266
1566.00 1.07805
1566.19 1.51231
1566.38 2.26805
1566.56 3.78191
1566.66 5.17757
1566.75 7.50764
1566.80 9.30411
1566.85 11.8205
1566.89 15.4904
1566.94 21.1179
1566.99 30.3115
1567.01 37.3796
1567.03 46.5776
1567.06 59.9434
1567.08 78.1850
1567.10 104.399
1567.13 141.888
1567.16 227.017
1567.20 283.765
1567.24 227.008
1567.27 141.879
1567.32 80.0961
1567.36 48.9873
1567.41 32.4324
1567.45 23.0291
1567.49 17.0159
1567.54 13.1284
1567.62 8.42800
1567.71 5.85273
1567.80 4.29574
1567.97 2.59224
1568.15 1.72799
1568.32 1.23566
1568.49 0.927344
1568.67 0.721645
1569.02 0.472391
1569.37 0.333706
1569.71 0.248479
1570.06 0.192402
1570.76 0.125488
1571.45 0.0887470
1572.15 0.0664146
1572.85 0.0519217
1574.24 0.0350869
1575.63 0.0269963
1577.03 0.0281193
1577.72 0.0499420
1578.07 0.122238
1578.25 0.299618
1578.33 0.602681
1578.38 0.950374
1578.42 1.58703
1578.46 2.52783
1578.50 3.15408
1578.54 2.52772
1578.58 1.58678
1578.63 0.908450
1578.67 0.569067
1578.77 0.277416
1578.95 0.110599
1579.32 0.0432465
1580.06 0.0206312
1581.54 0.0127989
1584.49 0.00904833
1587.45 0.00764020
1590.40 0.00704142
1596.31 0.00758967
1599.27 0.0107840
1600.74 0.0217095
1601.48 0.0593733
1601.67 0.0936455
1601.85 0.176113
1601.94 0.270878
1602.04 0.468115
1602.13 0.980673
1602.17 1.57796
1602.22 2.73539
1602.26 4.36057
1602.30 5.43933
1602.34 4.36070
1602.38 2.73557
1602.42 1.68929
1602.46 1.10181
1602.54 0.555311
1602.62 0.330011
1602.70 0.218551
1602.86 0.117487
1603.02 0.0747817
1603.66 0.0270858
1604.94 0.0137628
1607.50 0.0115066
1610.06 0.0130404
1612.61 0.0163783
1615.17 0.0225352
1617.73 0.0354628
1619.01 0.0488641
1619.65 0.0600268
1620.29 0.0777129
1620.93 0.110507
1621.57 0.190601
1621.89 0.291641
1622.05 0.387287
1622.21 0.554040
1622.37 0.887878
1622.45 1.19849
1622.53 1.72379
1622.61 2.71760
1622.65 3.58374
1622.69 4.94586
1622.73 7.25329
1622.77 11.5654
1622.79 15.2179
1622.81 20.7016
1622.83 29.1761
1622.85 41.5044
1622.86 53.8644
1622.87 66.9563
1622.90 83.1295
1622.93 65.9511
1622.95 41.5062
1622.97 28.1524
1623.00 19.7278
1623.02 14.3748
1623.04 10.8569
1623.08 6.75799
1623.12 4.59193
1623.16 3.32385
1623.21 2.52250
1623.29 1.61714
1623.37 1.13582
1623.46 0.854542
1623.62 0.559721
1623.79 0.417865
1623.96 0.342727
1624.29 0.277738
1624.63 0.264322
1624.96 0.278249
1625.63 0.373090
1625.97 0.465578
1626.30 0.610741
1626.64 0.849933
1626.97 1.27718
1627.14 1.63116
1627.31 2.15567
1627.47 2.98509
1627.64 4.40874
1627.72 5.54475
1627.81 7.18189
1627.89 9.66045
1627.97 13.5999
1628.02 16.5631
1628.06 20.5847
1628.10 26.2158
1628.14 34.1615
1628.18 46.4438
1628.23 65.9861
1628.27 98.5855
1628.31 152.223
1628.35 243.332
1628.40 303.977
1628.45 243.319
1628.49 152.209
1628.53 104.820
1628.56 74.9946
1628.60 55.4822
1628.63 42.3579
1628.70 26.6944
1628.77 18.2187
1628.83 13.1775
1628.90 9.95523
1629.04 6.24048
1629.17 4.25881
1629.31 3.09619
1629.45 2.35206
1629.58 1.84755
1629.86 1.22573
1630.13 0.874376
1630.40 0.655347
1630.67 0.510655
1631.22 0.336445
1631.76 0.239879
1632.31 0.180954
1632.85 0.142491
1633.94 0.0973975
1635.03 0.0736383
1636.12 0.0605134
1637.21 0.0537191
1639.39 0.0539266
1640.48 0.0622446
1641.57 0.0811888
1642.66 0.125049
1643.21 0.169597
1643.75 0.250945
1644.03 0.319382
1644.30 0.422917
1644.57 0.591705
1644.84 0.891707
1644.98 1.14076
1645.12 1.51012
1645.25 2.09624
1645.39 3.10796
1645.52 5.08007
1645.59 6.85297
1645.66 9.73324
1645.69 11.8955
1645.73 14.8502
1645.76 19.0237
1645.80 25.1585
1645.83 34.6157
1645.85 41.3324
1645.86 50.0250
1645.88 61.4382
1645.90 76.6053
1645.91 96.8770
1645.93 123.732
1645.97 199.339
1646.00 247.919
1646.02 232.064
1646.04 197.028
1646.07 123.725
1646.10 83.0937
1646.13 57.7392
1646.15 41.7787
1646.18 31.3648
1646.24 19.3179
1646.29 13.0788
1646.35 9.35895
1646.40 7.01671
1646.52 4.37195
1646.63 2.97211
1646.74 2.15728
1646.85 1.63780
1646.96 1.28665
1647.18 0.854901
1647.41 0.611146
1647.63 0.460287
1647.85 0.360911
1648.30 0.241346
1648.74 0.175567
1649.19 0.135612
1649.63 0.109855
1650.52 0.0803796
1651.42 0.0660317
1653.20 0.0589196
1654.98 0.0737439
1655.87 0.0943983
1656.76 0.134895
1657.21 0.169909
1657.65 0.223723
1658.10 0.312464
1658.54 0.472634
1658.77 0.606443
1658.99 0.808514
1659.21 1.13435
1659.43 1.70623
1659.55 2.17626
1659.66 2.86432
1659.77 3.93908
1659.88 5.75256
1659.99 9.20811
1660.05 12.2178
1660.10 16.8380
1660.13 20.2387
1660.16 24.7445
1660.19 30.8655
1660.21 39.0603
1660.24 51.2335
1660.27 69.3509
1660.30 97.0439
1660.32 137.568
1660.36 219.869
1660.40 274.636
1660.42 258.532
1660.44 219.861
1660.48 137.559
1660.50 99.5108
1660.53 74.3159
1660.57 44.1352
1660.62 28.6754
1660.67 19.9599
1660.72 14.6333
1660.77 11.1631
1660.87 7.11793
1660.97 4.90563
1661.06 3.58228
1661.26 2.15352
1661.45 1.43350
1661.65 1.02459
1661.85 0.768120
1662.04 0.598343
1662.43 0.392919
1662.82 0.278440
1663.21 0.208158
1663.60 0.161914
1664.39 0.106713
1665.17 0.0762196
1665.95 0.0575752
1666.73 0.0453211
1668.30 0.0306656
1669.86 0.0225164
1672.99 0.0141498
1676.12 0.0100970
1679.24 0.00780692
1685.50 0.00545508
1691.75 0.00443168
1698.01 0.00420937
1704.26 0.00582988
1707.39 0.0128924
1708.17 0.0199820
1708.96 0.0394124
1709.35 0.0652338
1709.74 0.133345
1709.93 0.219738
1710.13 0.429673
1710.23 0.671704
1710.32 1.18047
1710.37 1.68036
1710.42 2.55183
1710.47 4.20833
1710.52 7.45329
1710.56 12.0157
1710.60 14.9723
1710.64 11.8970
1710.68 7.45364
1710.73 4.30379
1710.77 2.67488
1710.82 1.79047
1710.87 1.27199
1710.96 0.730168
1711.05 0.471306
1711.23 0.242680
1711.42 0.148086
1711.79 0.0727096
1712.15 0.0440517
1712.89 0.0224002
1713.62 0.0145635
1716.57 0.00717242
1719.51 0.00657626
1722.45 0.00775522
1725.39 0.0111915
1726.86 0.0147775
1728.33 0.0213771
1729.80 0.0354721
1730.54 0.0494596
1731.28 0.0747718
1732.01 0.128221
1732.38 0.180623
1732.75 0.274026
1733.11 0.467105
1733.30 0.651741
1733.48 0.970454
1733.67 1.60095
1733.76 2.17435
1733.85 3.11756
1733.94 4.82454
1733.99 6.24342
1734.03 8.36827
1734.08 11.7274
1734.13 17.3947
1734.17 27.6572
1734.19 35.8282
1734.22 46.4392
1734.26 74.2996
1734.30 92.8717
1734.34 74.2966
1734.38 46.4361
1734.43 26.4836
1734.48 16.3113
1734.53 10.8488
1734.58 7.72155
1734.63 5.71912
1734.68 4.41791
1734.77 2.84271
1734.87 1.97069
1734.97 1.44918
1735.16 0.877249
1735.36 0.586592
1735.55 0.420681
1735.75 0.316709
1735.94 0.247317
1736.33 0.163253
1736.72 0.116510
1737.11 0.0877944
1737.49 0.0690371
1738.27 0.0468998
1739.05 0.0351051
1739.82 0.0284313
1740.60 0.0247495
1742.16 0.0235642
1743.71 0.0334332
1744.49 0.0501525
1745.26 0.0980556
1745.65 0.162516
1745.85 0.224347
1746.04 0.332220
1746.24 0.547423
1746.33 0.743586
1746.43 1.06824
1746.53 1.66124
1746.58 2.16515
1746.62 2.91156
1746.67 4.13370
1746.72 6.19385
1746.77 10.1235
1746.82 17.6968
1746.86 28.5177
1746.90 35.5316
1746.94 28.2429
1746.98 17.6975
1747.01 13.1307
1747.03 9.90623
1747.08 6.08212
1747.13 4.00874
1747.18 2.83609
1747.23 2.09215
1747.28 1.61164
1747.38 1.03798
1747.48 0.720778
1747.58 0.529617
1747.77 0.321792
1747.97 0.216374
1748.17 0.156238
1748.56 0.0933837
1749.35 0.0457552
1750.14 0.0282879
1751.72 0.0153082
1753.30 0.0105997
1759.62 0.00652729
1762.77 0.00710486
1765.93 0.00987274
1767.51 0.0137451
1769.09 0.0243267
1769.88 0.0386161
1770.67 0.0779153
1771.06 0.130938
1771.46 0.274572
1771.66 0.463369
1771.76 0.642643
1771.85 0.947760
1771.95 1.54558
1772.00 2.07486
1772.05 2.92730
1772.10 4.46410
1772.15 7.46379
1772.17 10.2356
1772.20 14.4896
1772.22 21.9545
1772.25 34.5941
1772.26 44.5906
1772.27 55.5778
1772.30 69.2238
1772.33 55.5769
1772.35 34.5931
1772.38 20.1125
1772.41 12.6472
1772.44 8.42525
1772.47 6.02666
1772.50 4.46385
1772.53 3.45933
1772.59 2.23065
1772.65 1.55439
1772.71 1.14434
1772.82 0.694561
1772.94 0.466838
1773.06 0.336033
1773.30 0.199840
1773.77 0.0968659
1774.24 0.0595113
1775.18 0.0327695
1776.12 0.0241584
1778.01 0.0208837
1779.89 0.0255441
1780.83 0.0309640
1781.78 0.0398322
1782.72 0.0549091
1783.66 0.0827585
1784.13 0.106388
1784.60 0.142458
1785.08 0.201578
1785.55 0.308440
1785.78 0.397846
1786.02 0.532463
1786.25 0.750988
1786.49 1.13667
1786.61 1.45362
1786.72 1.92435
1786.84 2.66662
1786.96 3.92185
1787.08 6.34580
1787.14 8.48831
1787.20 11.9063
1787.23 14.4765
1787.25 17.8164
1787.28 22.5998
1787.31 29.2142
1787.34 39.3965
1787.37 54.6530
1787.40 79.0312
1787.43 118.327
1787.47 188.675
1787.50 235.305
1787.52 220.864
1787.54 188.669
1787.57 118.321
1787.61 67.4996
1787.65 41.5615
1787.69 27.6329
1787.73 19.5319
1787.78 14.4741
1787.82 11.1285
1787.90 7.14100
1787.98 4.95736
1788.06 3.63771
1788.23 2.20052
1788.39 1.46904
1788.55 1.04977
1788.72 0.787499
1788.88 0.613543
1789.21 0.401883
1789.54 0.284104
1789.86 0.211703
1790.19 0.164051
1790.84 0.107161
1791.50 0.0758991
1792.15 0.0568651
1792.81 0.0444732
1794.12 0.0298656
1795.43 0.0220230
1796.74 0.0174550
1798.04 0.0147299
1800.66 0.0126830
1803.28 0.0154223
1804.59 0.0212672
1805.90 0.0388116
1806.56 0.0630776
1807.21 0.129339
1807.54 0.216931
1807.70 0.300392
1807.86 0.443699
1808.03 0.725277
1808.11 0.979311
1808.19 1.38702
1808.27 2.12107
1808.31 2.72218
1808.36 3.60910
1808.40 4.98319
1808.44 7.23701
1808.48 11.1585
1808.52 17.9560
1808.56 28.8030
1808.60 36.0666
1808.64 28.8036
1808.68 17.9568
1808.71 12.8140
1808.74 9.45550
1808.79 5.57618
1808.85 3.60954
1808.90 2.50746
1808.95 1.82661
1809.01 1.39378
1809.12 0.886138
1809.23 0.610435
1809.33 0.447304
1809.55 0.270343
1809.98 0.130633
1810.42 0.0781474
1811.28 0.0388416
1812.15 0.0247072
1813.88 0.0148781
1815.62 0.0125368
1817.35 0.0139980
1819.08 0.0223318
1819.95 0.0349001
1820.81 0.0706106
1821.25 0.119493
1821.68 0.252671
1821.90 0.428725
1822.01 0.595657
1822.11 0.884138
1822.22 1.45504
1822.28 1.96684
1822.33 2.80145
1822.39 4.29247
1822.41 5.51558
1822.44 7.32355
1822.47 10.1319
1822.49 14.7560
1822.52 22.8500
1822.53 29.3736
1822.55 37.5417
1822.56 48.6336
1822.57 60.4484
1822.60 75.0306
1822.63 60.4474
1822.65 37.5405
1822.67 25.8580
1822.69 18.0671
1822.72 13.1205
1822.74 9.87434
1822.78 6.09981
1822.82 4.14525
1822.86 2.96814
1822.90 2.24035
1822.99 1.39607
1823.07 0.951833
1823.15 0.690251
1823.32 0.410866
1823.48 0.272815
1823.65 0.194705
1823.98 0.114194
1824.65 0.0542693
1825.31 0.0326630
1826.64 0.0169027
1827.97 0.0113383
1830.63 0.00755173
1833.28 0.00676018
1838.60 0.0113280
1839.93 0.0168211
1841.26 0.0322356
1841.92 0.0531587
1842.59 0.109889
1842.92 0.184249
1843.25 0.376176
1843.42 0.612047
1843.50 0.823304
1843.58 1.16514
1843.66 1.76877
1843.75 2.97288
1843.79 4.08213
1843.83 5.82564
1843.87 8.85887
1843.91 13.9919
1843.96 22.4259
1844.00 27.8541
1844.04 22.2225
1844.09 13.9924
1844.13 8.40315
1844.18 5.36529
1844.23 3.65533
1844.27 2.62793
1844.32 1.97165
1844.36 1.53023
1844.45 0.999501
1844.55 0.700065
1844.64 0.518900
1844.82 0.317164
1845.19 0.154552
1845.55 0.0923536
1846.29 0.0451841
1847.02 0.0280003
1848.48 0.0155650
1849.95 0.0114282
1852.88 0.00943837
1855.81 0.0107166
1858.74 0.0153878
1860.21 0.0203803
1861.67 0.0296056
1862.41 0.0374156
1863.14 0.0493662
1863.87 0.0689956
1864.60 0.104584
1864.97 0.134538
1865.34 0.180006
1865.70 0.254151
1866.07 0.387393
1866.25 0.498744
1866.44 0.665626
1866.62 0.933763
1866.80 1.40512
1866.89 1.79025
1866.99 2.35093
1867.08 3.23439
1867.17 4.70327
1867.26 7.48376
1867.31 9.88495
1867.35 13.5211
1867.37 16.1835
1867.40 19.6845
1867.42 24.3971
1867.44 30.9090
1867.47 40.1678
1867.49 53.7163
1867.51 73.9882
1867.53 102.671
1867.57 163.971
1867.60 204.712
1867.62 192.047
1867.63 163.967
1867.67 102.667
1867.69 70.8471
1867.72 50.9554
1867.74 37.4120
1867.76 28.6867
1867.81 18.0374
1867.86 12.2905
1867.91 8.87914
1867.96 6.70183
1868.06 4.21357
1868.16 2.87817
1868.25 2.08923
1868.35 1.58530
1868.45 1.24711
1868.64 0.827280
1868.84 0.590602
1869.04 0.443022
1869.23 0.345846
1869.62 0.229236
1870.01 0.165306
1870.40 0.127182
1870.79 0.103548
1871.58 0.0815036
1872.36 0.0892990
1872.75 0.116562
1873.14 0.199083
1873.33 0.307587
1873.53 0.574123
1873.63 0.882414
1873.72 1.53073
1873.77 2.16721
1873.82 3.27498
1873.87 5.37358
1873.92 9.45710
1873.96 15.1371
1874.00 18.7801
1874.04 14.9897
1874.08 9.45640
1874.11 6.51445
1874.14 4.62039
1874.17 3.39682
1874.21 2.58250
1874.27 1.62157
1874.33 1.10743
1874.45 0.610785
1874.58 0.390391
1874.82 0.202930
1875.07 0.128203
1875.57 0.0690999
1876.06 0.0462490
1877.05 0.0281329
1878.04 0.0208955
1880.02 0.0151563
1882.00 0.0135561
1885.96 0.0197436
1886.95 0.0275390
1887.94 0.0491827
1888.43 0.0781822
1888.93 0.155752
1889.18 0.255987
1889.42 0.507204
1889.55 0.807546
1889.67 1.47392
1889.73 2.16728
1889.80 3.46223
1889.83 4.55842
1889.86 6.20331
1889.89 8.74419
1889.92 12.5242
1889.96 20.0329
1890.00 25.0390
1890.04 20.0334
1890.08 12.5248
1890.12 7.97739
1890.16 5.37478
1890.19 3.80436
1890.23 2.81150
1890.31 1.68752
1890.38 1.12427
1890.53 0.598011
1890.68 0.372692
1890.97 0.187135
1891.27 0.114925
1891.87 0.0598581
1892.46 0.0399075
1893.65 0.0260243
1894.84 0.0222373
1897.22 0.0233804
1899.59 0.0315102
1900.78 0.0392356
1901.97 0.0513919
1903.16 0.0716334
1904.35 0.108607
1904.94 0.139783
1905.54 0.187225
1906.13 0.264887
1906.73 0.404588
1907.02 0.521303
1907.32 0.696891
1907.62 0.979831
1907.92 1.47933
1908.06 1.88820
1908.21 2.48851
1908.36 3.43577
1908.51 5.03063
1908.58 6.29707
1908.66 8.07504
1908.73 10.7149
1908.81 14.8636
1908.84 17.9738
1908.88 22.0105
1908.92 27.5129
1908.96 35.2384
1908.99 46.4517
1909.03 63.3079
1909.07 89.4239
1909.10 130.063
1909.15 209.038
1909.20 260.288
1909.25 207.310
1909.30 130.054
1909.33 94.8679
1909.36 71.1800
1909.42 42.6433
1909.48 27.8612
1909.54 19.5716
1909.60 14.3757
1909.66 11.0271
1909.78 7.03237
1909.90 4.86377
1910.02 3.56065
1910.27 2.14305
1910.51 1.43083
1910.75 1.02381
1910.99 0.769899
1911.23 0.601127
1911.72 0.398050
1912.20 0.286530
1912.69 0.219839
1913.17 0.178364
1914.14 0.140079
1915.11 0.156131
1915.59 0.208753
1915.83 0.266037
1916.08 0.372252
1916.32 0.595570
1916.44 0.810501
1916.56 1.18484
1916.68 1.92258
1916.74 2.59975
1916.80 3.69344
1916.86 5.70252
1916.89 7.34301
1916.92 9.78586
1916.95 13.7826
1916.98 20.3088
1917.00 25.2714
1917.01 32.0192
1917.03 41.2791
1917.04 54.2824
1917.06 69.1105
1917.07 86.5763
1917.10 108.521
1917.11 102.053
1917.13 86.5742
1917.16 54.2796
1917.19 32.5460
1917.21 20.8847
1917.24 14.2847
1917.27 10.3018
1917.30 7.67820
1917.33 5.97862
1917.39 3.90959
1917.45 2.73744
1917.51 2.03378
1917.62 1.25277
1917.74 0.850065
1917.86 0.617658
1918.09 0.374166
1918.32 0.254582
1918.56 0.187359
1919.02 0.117423
1919.49 0.0832427
1919.96 0.0636710
1920.89 0.0426820
1921.83 0.0318135
1922.76 0.0252155
1924.63 0.0176237
1926.49 0.0133903
1928.36 0.0107102
1932.10 0.00755661
1935.83 0.00581743
1939.57 0.00476268
1947.04 0.00366705
1954.51 0.00332013
1961.98 0.00369557
1969.45 0.00686592
1971.32 0.0101030
1973.18 0.0190874
1974.12 0.0313252
1975.05 0.0650327
1975.52 0.110165
1975.99 0.230644
1976.22 0.385742
1976.34 0.530280
1976.45 0.771713
1976.57 1.22919
1976.63 1.62129
1976.69 2.23098
1976.74 3.27024
1976.80 5.14501
1976.83 6.69772
1976.86 8.98009
1976.89 12.4183
1976.92 17.6007
1976.96 28.2093
1977.00 35.3028
1977.04 28.2098
1977.08 17.6014
1977.12 11.5853
1977.15 7.92475
1977.19 5.66837
1977.22 4.21946
1977.29 2.56969
1977.36 1.72572
1977.43 1.22955
1977.50 0.919118
1977.64 0.570245
1977.78 0.387046
1977.92 0.280625
1978.20 0.167373
1978.76 0.0799656
1979.31 0.0476924
1980.43 0.0238865
1981.54 0.0154991
1983.77 0.00992895
1986.00 0.00893047
1990.46 0.0161870
1991.57 0.0244787
1992.69 0.0473814
1993.25 0.0782067
1993.80 0.161016
1994.08 0.268784
1994.36 0.542100
1994.50 0.875153
1994.57 1.17018
1994.64 1.63330
1994.71 2.44457
1994.78 3.98199
1994.81 5.34275
1994.85 7.45620
1994.88 10.8703
1994.92 16.2453
1994.96 26.1526
1995.00 32.5640
1995.04 25.9013
1995.08 16.2460
1995.12 10.2738
1995.16 6.88394
1995.20 4.81132
1995.24 3.54831
1995.31 2.12345
1995.39 1.40415
1995.47 0.995008
1995.55 0.741399
1995.70 0.458735
1996.01 0.226194
1996.31 0.136279
1996.93 0.0677064
1997.54 0.0428158
1998.77 0.0254233
2000.00 0.0207582
2002.08 0.0229219
2003.12 0.0283648
2004.16 0.0393357
2005.20 0.0633799
2005.72 0.0872452
2006.24 0.130161
2006.76 0.219853
2007.02 0.306752
2007.28 0.460191
2007.54 0.770436
2007.67 1.06072
2007.80 1.55343
2007.93 2.48908
2007.99 3.30708
2008.06 4.59713
2008.12 6.79085
2008.19 10.9135
2008.22 14.4913
2008.25 19.7274
2008.28 27.8214
2008.32 40.3740
2008.36 64.4079
2008.40 80.3537
2008.44 64.4058
2008.48 40.3719
2008.53 23.8330
2008.58 15.0317
2008.62 10.1564
2008.67 7.30931
2008.71 5.45655
2008.76 4.24125
2008.85 2.75316
2008.94 1.92046
2009.03 1.41954
2009.21 0.866959
2009.40 0.584724
2009.58 0.423401
2009.76 0.322362
2009.94 0.255135
2010.31 0.174538
2010.67 0.131177
2011.04 0.106481
2011.40 0.0930201
2012.13 0.0898032
2012.86 0.129921
2013.23 0.195288
2013.59 0.373577
2013.77 0.600997
2013.86 0.807798
2013.95 1.14864
2014.05 1.76668
2014.09 2.28807
2014.14 3.05298
2014.18 4.29278
2014.23 6.34544
2014.27 10.1711
2014.32 17.2910
2014.36 27.7024
2014.40 34.6639
2014.44 27.7024
2014.48 17.2908
2014.51 12.2044
2014.54 8.82985
2014.57 6.58966
2014.60 5.06560
2014.66 3.22528
2014.71 2.21806
2014.77 1.61449
2014.83 1.22663
2014.95 0.777142
2015.06 0.537384
2015.18 0.394873
2015.41 0.241630
2015.87 0.120668
2016.34 0.0748088
2017.26 0.0396425
2018.19 0.0263165
2020.04 0.0159862
2021.90 0.0121083
2025.61 0.00966479
2029.31 0.00999473
2033.02 0.0125084
2034.88 0.0150805
2036.73 0.0194134
2038.58 0.0275738
2039.51 0.0348555
2040.44 0.0470080
2041.36 0.0705736
2041.83 0.0924683
2042.29 0.130268
2042.75 0.206703
2042.99 0.279560
2043.22 0.406789
2043.45 0.665643
2043.57 0.910411
2043.68 1.32771
2043.80 2.14722
2043.85 2.88621
2043.91 4.09198
2043.97 6.24945
2044.00 8.02271
2044.03 10.6493
2044.06 14.7408
2044.09 21.5042
2044.10 26.7841
2044.12 33.4051
2044.13 42.2740
2044.14 54.7369
2044.16 70.3215
2044.17 87.7486
2044.20 109.458
2044.21 103.082
2044.23 87.7505
2044.26 54.7420
2044.29 31.8288
2044.32 20.0767
2044.35 13.5860
2044.38 9.73519
2044.41 7.29703
2044.44 5.66790
2044.51 3.70765
2044.57 2.61266
2044.63 1.96221
2044.75 1.25382
2044.88 0.903554
2045.00 0.718245
2045.25 0.578607
2045.50 0.639248
2045.62 0.765336
2045.75 1.01682
2045.87 1.54903
2045.94 2.04118
2046.00 2.85891
2046.06 4.35130
2046.09 5.59951
2046.12 7.47875
2046.15 10.4705
2046.18 15.5697
2046.21 24.9505
2046.23 32.8329
2046.25 43.5558
2046.26 55.5195
2046.27 69.8166
2046.30 86.9824
2046.33 69.8120
2046.35 43.5475
2046.38 25.7811
2046.41 16.4570
2046.44 11.2288
2046.47 8.09375
2046.50 6.09313
2046.53 4.74815
2046.59 3.11840
2046.65 2.19912
2046.70 1.64869
2046.82 1.03888
2046.94 0.724809
2047.05 0.544858
2047.29 0.355381
2047.75 0.212572
2048.22 0.165041
2049.15 0.150208
2050.08 0.188213
2050.54 0.229947
2051.01 0.297258
2051.48 0.410404
2051.94 0.615667
2052.17 0.786830
2052.41 1.04430
2052.64 1.45679
2052.87 2.17371
2053.10 3.60158
2053.22 4.91749
2053.34 7.08163
2053.40 8.77013
2053.45 11.0850
2053.51 14.4308
2053.57 19.5005
2053.63 27.6474
2053.66 33.6649
2053.69 41.7249
2053.72 52.7536
2053.74 68.1502
2053.77 89.9365
2053.80 120.588
2053.85 193.326
2053.90 241.981
2053.95 193.318
2054.00 120.579
2054.05 74.1082
2054.10 48.1380
2054.15 33.1873
2054.19 24.0570
2054.24 18.1554
2054.29 14.1508
2054.39 9.25417
2054.49 6.50497
2054.59 4.81564
2054.78 2.94599
2054.98 1.98184
2055.17 1.42400
2055.37 1.07274
2055.56 0.838429
2055.96 0.552177
2056.35 0.391943
2056.74 0.293051
2057.13 0.227746
2057.91 0.149479
2058.69 0.106234
2059.48 0.0797844
2060.26 0.0624800
2061.83 0.0419542
2063.39 0.0308288
2064.96 0.0242806
2066.52 0.0203195
2069.65 0.0171811
2072.78 0.0207364
2074.35 0.0287710
2075.13 0.0373571
2075.91 0.0533657
2076.69 0.0879043
2077.09 0.122183
2077.48 0.184186
2077.87 0.314648
2078.06 0.441749
2078.26 0.665786
2078.46 1.12343
2078.55 1.55445
2078.65 2.28119
2078.75 3.68463
2078.80 4.92346
2078.85 6.89703
2078.90 10.3026
2078.94 16.8498
2078.97 22.7044
2078.99 31.3882
2079.01 37.4707
2079.02 45.1875
2079.03 54.9849
2079.04 67.3039
2079.06 86.4978
2079.07 108.410
2079.10 134.599
2079.12 126.427
2079.13 106.949
2079.16 67.3017
2079.19 42.4051
2079.21 28.4401
2079.24 19.8202
2079.27 14.6276
2079.32 8.73746
2079.38 5.76709
2079.43 4.07862
2079.49 3.03246
2079.60 1.86158
2079.71 1.25746
2079.82 0.906185
2080.04 0.536351
2080.26 0.354416
2080.48 0.252191
2080.92 0.147623
2081.36 0.0977258
2081.80 0.0702026
2082.68 0.0423632
2083.55 0.0293058
2084.43 0.0221880
2086.19 0.0152746
2087.95 0.0126448
2089.71 0.0128983
2091.46 0.0220640
2092.34 0.0577584
2092.56 0.0911392
2092.78 0.173689
2092.89 0.270793
2093.00 0.483955
2093.11 1.08916
2093.17 1.87557
2093.22 3.55369
2093.26 5.66565
2093.30 7.06738
2093.34 5.66577
2093.38 3.55385
2093.43 1.91732
2093.48 1.14970
2093.59 0.528461
2093.69 0.300385
2093.79 0.194247
2093.99 0.102084
2094.20 0.0648512
2095.02 0.0247509
2096.65 0.0160986
2098.29 0.0280460
2099.10 0.0774305
2099.31 0.123364
2099.51 0.235958
2099.61 0.366141
2099.72 0.646333
2099.77 0.922942
2099.82 1.41153
2099.87 2.35898
2099.92 4.32387
2099.96 6.89025
2100.00 8.59189
2100.04 6.89038
2100.08 4.32406
2100.11 2.96446
2100.14 2.11659
2100.20 1.19394
2100.26 0.748433
2100.32 0.513252
2100.44 0.283063
2100.56 0.180839
2100.81 0.0940592
2101.05 0.0597547
2102.01 0.0235109
2103.94 0.0151825
2105.87 0.0166046
2107.80 0.0224139
2108.77 0.0278283
2109.73 0.0363326
2110.70 0.0505401
2111.67 0.0765863
2112.15 0.0985982
2112.63 0.132234
2113.11 0.187344
2113.60 0.286668
2114.08 0.495147
2114.32 0.697373
2114.56 1.05522
2114.68 1.34907
2114.80 1.78519
2114.92 2.47222
2115.04 3.63278
2115.17 5.86875
2115.23 7.82043
2115.29 10.9125
2115.32 13.2653
2115.35 16.3248
2115.38 20.5327
2115.41 26.5083
2115.44 35.3099
2115.47 48.7974
2115.50 70.2203
2115.53 104.549
2115.56 167.548
2115.60 209.659
2115.62 196.625
2115.64 167.543
2115.67 104.544
2115.70 76.8663
2115.72 58.2375
2115.76 35.3068
2115.81 23.2444
2115.85 16.3227
2115.90 12.0406
2115.94 9.22653
2116.03 5.89376
2116.12 4.07970
2116.21 2.98771
2116.39 1.79778
2116.57 1.19888
2116.75 0.856080
2116.93 0.641852
2117.11 0.499137
2117.47 0.326818
2117.83 0.230729
2118.19 0.171741
2118.55 0.133040
2119.27 0.0867697
2119.99 0.0613013
2120.71 0.0458027
2121.43 0.0356856
2122.87 0.0236828
2124.31 0.0171187
2125.75 0.0131408
2127.19 0.0105520
2130.07 0.00751141
2132.95 0.00588786
2138.70 0.00442273
2144.46 0.00412573
2150.22 0.00500809
2153.10 0.00659369
2154.54 0.00822125
2155.98 0.0112113
2157.42 0.0176091
2158.85 0.0355023
2159.57 0.0599562
2160.29 0.127157
2160.65 0.216991
2160.83 0.303624
2161.01 0.455698
2161.19 0.760127
2161.28 1.04178
2161.37 1.51386
2161.46 2.39292
2161.51 3.14566
2161.55 4.30744
2161.60 6.22297
2161.64 9.65864
2161.69 16.4773
2161.71 22.2433
2161.73 30.7176
2161.77 49.0878
2161.80 61.4308
2161.83 49.0867
2161.87 30.7163
2161.91 18.0782
2161.94 11.4067
2161.98 7.70993
2162.02 5.51226
2162.05 4.08857
2162.09 3.16578
2162.17 2.05180
2162.24 1.42772
2162.31 1.05355
2162.46 0.638808
2162.61 0.428398
2162.76 0.307366
2163.06 0.181075
2163.36 0.119606
2163.65 0.0852718
2164.25 0.0503424
2164.85 0.0338039
2165.44 0.0247402
2166.63 0.0156964
2167.82 0.0115712
2169.01 0.00943792
2171.39 0.00770090
2176.16 0.00931369
2178.54 0.0182090
2179.73 0.0494447
2180.03 0.0790247
2180.32 0.154611
2180.47 0.247267
2180.62 0.463374
2180.70 0.699903
2180.77 1.16169
2180.85 2.23393
2180.88 3.33210
2180.92 5.19885
2180.96 8.35853
2181.00 10.3984
2181.04 8.27656
2181.08 5.19914
2181.13 3.00925
2181.17 1.89186
2181.22 1.27722
2181.26 0.913535
2181.35 0.530196
2181.44 0.345620
2181.62 0.181669
2181.80 0.113565
2182.16 0.0591924
2182.52 0.0387014
2183.96 0.0188387
2186.85 0.0195675
2188.29 0.0262457
2189.73 0.0435615
2190.45 0.0653662
2191.17 0.121842
2191.53 0.194624
2191.89 0.380910
2192.07 0.610109
2192.16 0.816139
2192.25 1.15114
2192.34 1.74742
2192.43 2.95308
2192.48 4.06391
2192.52 5.88230
2192.57 9.03956
2192.61 14.6851
2192.66 23.5119
2192.70 29.4101
2192.75 23.5127
2192.79 14.6867
2192.82 10.4643
2192.85 7.70579
2192.91 4.53576
2192.97 2.91837
2193.03 2.03418
2193.09 1.48961
2193.15 1.14312
2193.27 0.737527
2193.52 0.387773
2193.76 0.248649
2194.24 0.142954
2194.72 0.108126
2195.69 0.0974475
2196.65 0.123732
2197.14 0.152310
2197.62 0.198372
2198.10 0.275619
2198.58 0.416035
2198.83 0.533766
2199.07 0.710735
2199.31 0.996910
2199.55 1.49882
2199.67 1.90846
2199.79 2.51267
2199.91 3.45643
2200.03 5.03128
2200.09 6.27675
2200.15 8.00807
2200.21 10.5542
2200.27 14.5037
2200.30 17.4480
2200.33 21.2067
2200.36 26.2606
2200.39 33.2353
2200.42 43.1383
2200.45 57.6090
2200.48 79.2380
2200.51 111.521
2200.56 177.851
2200.60 221.830
2200.64 177.845
2200.69 111.515
2200.73 71.0219
2200.77 47.3444
2200.81 33.2314
2200.85 24.3961
2200.93 14.5841
2201.01 9.62937
2201.09 6.81082
2201.17 5.06363
2201.33 3.11575
2201.49 2.10222
2201.64 1.51596
2201.80 1.14286
2201.96 0.893744
2202.28 0.589148
2202.60 0.417791
2202.92 0.311946
2203.24 0.242021
2203.88 0.158279
2204.52 0.111941
2205.15 0.0836326
2205.79 0.0650789
2207.07 0.0430394
2208.34 0.0309546
2209.62 0.0236370
2210.90 0.0188932
2213.45 0.0133972
2216.00 0.0105882
2221.10 0.00858006
2226.21 0.00964141
2228.76 0.0117314
2231.31 0.0160423
2232.59 0.0198349
2233.86 0.0257368
2235.14 0.0355498
2236.42 0.0535465
2237.05 0.0687503
2237.69 0.0920028
2238.33 0.130158
2238.97 0.199292
2239.29 0.257142
2239.61 0.344865
2239.93 0.487202
2240.24 0.740975
2240.40 0.950708
2240.56 1.26175
2240.72 1.75878
2240.88 2.61182
2241.04 4.28763
2241.12 5.79910
2241.20 8.22316
2241.24 10.0647
2241.28 12.5863
2241.32 16.1569
2241.36 21.4216
2241.40 29.5694
2241.44 42.9108
2241.46 52.8325
2241.48 66.0560
2241.50 83.7734
2241.52 105.939
2241.56 169.076
2241.60 210.992
2241.64 169.071
2241.68 105.933
2241.71 70.8347
2241.75 49.5527
2241.78 35.7038
2241.81 26.9355
2241.88 16.5909
2241.94 11.2202
2242.00 8.02721
2242.07 6.01604
2242.20 3.74250
2242.33 2.54076
2242.46 1.84036
2242.59 1.39116
2242.72 1.09032
2242.98 0.720509
2243.23 0.511575
2243.49 0.382173
2243.75 0.296811
2244.27 0.193997
2244.79 0.137096
2245.31 0.102374
2245.82 0.0797023
2246.86 0.0528606
2247.89 0.0383659
2248.93 0.0298437
2249.96 0.0246639
2252.03 0.0203375
2254.10 0.0240197
2255.14 0.0330894
2256.18 0.0610168
2256.69 0.100095
2257.21 0.207801
2257.47 0.351396
2257.60 0.489962
2257.73 0.730027
2257.86 1.21044
2257.92 1.65191
2257.99 2.37149
2258.05 3.70869
2258.08 4.81614
2258.12 6.48754
2258.15 9.26708
2258.18 13.9363
2258.21 22.6457
2258.23 29.7862
2258.25 40.1603
2258.26 51.2814
2258.27 64.4637
2258.30 80.2638
2258.33 64.4628
2258.35 40.1592
2258.38 27.7627
2258.40 19.8977
2258.42 14.7403
2258.44 11.2651
2258.48 7.03653
2258.52 4.81544
2258.56 3.46426
2258.60 2.62389
2258.68 1.65121
2258.76 1.12825
2258.84 0.819517
2259.00 0.490396
2259.16 0.326110
2259.32 0.233530
2259.65 0.137506
2260.29 0.0658380
2260.94 0.0397943
2262.23 0.0205945
2263.52 0.0136256
2264.81 0.0103100
2266.10 0.00850207
2268.69 0.00689958
2271.27 0.00689819
2273.85 0.00928827
2276.44 0.0245464
2277.08 0.0400566
2277.73 0.0823573
2278.05 0.138028
2278.37 0.282494
2278.54 0.462018
2278.70 0.884317
2278.78 1.35328
2278.86 2.28773
2278.90 3.17031
2278.94 4.58003
2278.98 7.00965
2279.02 11.3089
2279.06 18.1435
2279.10 22.5369
2279.14 17.9665
2279.18 11.3093
2279.22 6.93082
2279.26 4.49100
2279.30 3.09085
2279.35 2.23796
2279.43 1.31499
2279.51 0.859923
2279.67 0.448308
2279.84 0.275388
2280.16 0.134720
2280.49 0.0808052
2281.15 0.0400875
2281.80 0.0258320
2283.11 0.0216898
2283.77 0.0437196
2284.09 0.116677
2284.26 0.291943
2284.34 0.582143
2284.42 1.45548
2284.46 2.32109
2284.50 2.89700
2284.54 2.32098
2284.58 1.45523
2284.62 0.868986
2284.67 0.553948
2284.75 0.274893
2284.92 0.108302
2285.26 0.0384556
2285.94 0.0149252
2287.30 0.00743594
2290.02 0.00486498
2295.46 0.00474907
2298.18 0.00609492
2300.90 0.0103810
2302.27 0.0164386
2303.63 0.0335162
2304.31 0.0569527
2304.99 0.121836
2305.33 0.209066
2305.67 0.443110
2305.84 0.745320
2305.92 1.02803
2306.01 1.50768
2306.09 2.41794
2306.13 3.22475
2306.18 4.46667
2306.22 6.63006
2306.26 10.5980
2306.28 14.1539
2306.30 19.3076
2306.32 27.3098
2306.34 33.1812
2306.35 40.0210
2306.36 51.2573
2306.37 64.3829
2306.40 80.0873
2306.43 64.3820
2306.45 40.0199
2306.48 25.9330
2306.50 17.6031
2306.53 12.3562
2306.55 9.17452
2306.60 5.51807
2306.65 3.65681
2306.70 2.59276
2306.75 1.93098
2306.85 1.19299
2306.94 0.805959
2307.04 0.582488
2307.24 0.344241
2307.63 0.161393
2308.02 0.0940512
2308.80 0.0441932
2309.58 0.0263027
2311.14 0.0133877
2312.70 0.00892257
2315.83 0.00607538
2318.95 0.00578098
2322.07 0.00705297
2323.64 0.00864084
2325.20 0.0116463
2326.76 0.0181139
2327.54 0.0245357
2328.32 0.0361978
2329.10 0.0609243
2329.49 0.0853795
2329.88 0.129414
2330.27 0.221969
2330.47 0.311857
2330.66 0.471245
2330.86 0.795548
2330.96 1.10298
2331.05 1.62315
2331.15 2.63312
2331.20 3.52976
2331.25 4.92937
2331.30 7.39998
2331.35 12.2003
2331.37 16.5418
2331.40 23.0551
2331.41 27.6641
2331.42 33.5603
2331.43 41.1152
2331.44 50.7927
2331.46 65.7674
2331.47 81.8076
2331.50 101.639
2331.51 95.8307
2331.53 81.8064
2331.56 50.7913
2331.59 30.9233
2331.62 19.6967
2331.65 13.3918
2331.68 9.71112
2331.71 7.26613
2331.74 5.62642
2331.79 3.66960
2331.85 2.56108
2331.91 1.89543
2332.03 1.15690
2332.15 0.776541
2332.27 0.558791
2332.51 0.329080
2332.74 0.217104
2332.98 0.154766
2333.45 0.0911838
2333.93 0.0611109
2334.40 0.0447078
2335.35 0.0285525
2336.30 0.0215390
2337.25 0.0183673
2339.15 0.0177228
2341.05 0.0235193
2341.99 0.0306338
2342.94 0.0441932
2343.89 0.0736264
2344.37 0.102974
2344.84 0.156059
2345.32 0.268022
2345.55 0.377169
2345.79 0.571396
2346.03 0.968755
2346.15 1.34725
2346.26 1.99303
2346.38 3.25731
2346.44 4.37954
2346.50 6.18948
2346.56 9.44385
2346.59 12.0946
2346.62 15.8267
2346.65 21.7132
2346.66 25.8730
2346.68 30.8289
2346.69 37.6961
2346.71 46.7450
2346.72 58.7155
2346.74 73.2117
2346.75 94.0666
2346.77 117.877
2346.80 146.416
2346.82 137.544
2346.83 116.388
2346.86 73.2094
2346.88 53.5226
2346.90 39.8659
2346.94 23.8026
2346.98 15.5181
2347.02 10.9168
2347.06 8.00753
2347.10 6.11061
2347.18 3.90158
2347.26 2.68925
2347.34 1.97116
2347.50 1.18496
2347.66 0.790456
2347.82 0.565110
2348.14 0.330947
2348.45 0.218192
2348.77 0.155497
2349.41 0.0921591
2350.04 0.0626669
2350.68 0.0470643
2351.95 0.0336884
2353.22 0.0331487
2354.49 0.0494004
2355.13 0.0760273
2355.76 0.151739
2356.08 0.253428
2356.40 0.521983
2356.56 0.860733
2356.64 1.17337
2356.72 1.68484
2356.80 2.63324
2356.84 3.43352
2356.87 4.61236
2356.91 6.54982
2356.95 9.79524
2356.99 16.0030
2357.01 21.1157
2357.03 28.0424
2357.07 44.7568
2357.10 56.0763
2357.13 44.7558
2357.17 28.0413
2357.20 18.8539
2357.22 13.0138
2357.25 9.36802
2357.28 7.07433
2357.33 4.32578
2357.39 2.91548
2357.45 2.07992
2357.50 1.56373
2357.61 0.974816
2357.72 0.663275
2357.83 0.480703
2358.05 0.287097
2358.28 0.191194
2358.50 0.137229
2358.94 0.0814191
2359.38 0.0546456
2359.83 0.0397243
2360.71 0.0244601
2361.60 0.0171363
2362.48 0.0130231
2364.26 0.00875085
2366.03 0.00666296
2367.80 0.00549049
2371.34 0.00437385
2374.89 0.00415774
2378.43 0.00502535
2381.98 0.0111757
2383.75 0.0350050
2384.19 0.0584080
2384.63 0.120686
2384.86 0.200511
2385.08 0.397749
2385.19 0.629565
2385.30 1.13091
2385.35 1.64435
2385.41 2.55486
2385.46 4.37031
2385.49 5.99208
2385.52 8.29828
2385.56 13.3083
2385.60 16.6621
2385.64 13.3085
2385.68 8.29855
2385.72 5.58771
2385.75 3.89134
2385.81 2.13794
2385.88 1.31755
2385.94 0.891643
2386.08 0.481119
2386.21 0.299965
2386.47 0.148989
2386.73 0.0895341
2387.25 0.0434558
2387.78 0.0263276
2389.87 0.00917299
2394.05 0.00569029
2398.24 0.0104972
2400.33 0.0317792
2400.85 0.0529540
2401.37 0.109957
2401.64 0.184032
2401.90 0.371106
2402.03 0.596711
2402.16 1.10989
2402.22 1.65542
2402.29 2.67878
2402.32 3.57609
2402.35 4.90324
2402.39 7.06572
2402.42 10.3974
2402.46 16.6864
2402.50 20.7311
2402.54 16.5234
2402.58 10.3977
2402.62 6.66856
2402.65 4.51556
2402.69 3.20678
2402.73 2.37486
2402.80 1.42793
2402.87 0.951326
2403.02 0.504246
2403.16 0.311308
2403.45 0.153016
2403.74 0.0914355
2404.32 0.0440629
2404.90 0.0265957
2407.22 0.00907833
2411.85 0.00485107
2416.49 0.00501714
2418.80 0.00740680
2419.96 0.0158650
2420.54 0.0443010
2420.83 0.127424
2420.98 0.313978
2421.05 0.597439
2421.12 1.36851
2421.20 2.72338
2421.28 1.36857
2421.34 0.691958
2421.40 0.398609
2421.51 0.175537
2421.74 0.0635251
2422.20 0.0222729
2423.12 0.00976917
2424.96 0.00670679
2428.63 0.00712072
2432.31 0.00923378
2435.98 0.0134121
2437.82 0.0169947
2439.66 0.0225067
2441.50 0.0316056
2443.34 0.0482227
2444.25 0.0622378
2445.17 0.0836585
2446.09 0.118797
2447.01 0.182466
2447.47 0.235822
2447.93 0.316575
2448.39 0.447947
2448.85 0.681792
2449.08 0.874845
2449.31 1.16327
2449.54 1.62182
2449.77 2.41083
2449.88 3.04308
2450.00 3.95913
2450.11 5.35611
2450.17 6.33648
2450.23 7.60875
2450.29 9.33355
2450.34 11.6560
2450.40 15.0069
2450.46 19.8680
2450.52 27.5414
2450.57 39.9194
2450.63 61.3743
2450.66 78.1352
2450.69 99.6192
2450.74 159.109
2450.80 198.649
2450.86 159.102
2450.91 99.6119
2450.98 59.4249
2451.04 37.7604
2451.10 25.6389
2451.16 18.4796
2451.22 13.8279
2451.28 10.7507
2451.40 6.98370
2451.52 4.88693
2451.64 3.60591
2451.88 2.19081
2452.13 1.46730
2452.37 1.05199
2452.61 0.790937
2452.85 0.616289
2453.34 0.404192
2453.82 0.285734
2454.31 0.212682
2454.79 0.164666
2455.76 0.107290
2456.73 0.0756780
2457.70 0.0564433
2458.67 0.0438983
2460.60 0.0290755
2462.54 0.0210452
2464.48 0.0162733
2466.42 0.0132826
2470.29 0.0102306
2474.17 0.00992901
2478.04 0.0163514
2479.98 0.0423457
2480.47 0.0677728
2480.95 0.135390
2481.19 0.222172
2481.43 0.439571
2481.56 0.697086
2481.68 1.27043
2481.74 1.86545
2481.80 2.94773
2481.83 3.88785
2481.86 5.24517
2481.89 7.31249
2481.92 10.4657
2481.96 16.7155
2482.00 20.8720
2482.04 16.7158
2482.08 10.4662
2482.11 7.48500
2482.14 5.47306
2482.19 3.18492
2482.25 2.04496
2482.31 1.41376
2482.42 0.786496
2482.53 0.499929
2482.75 0.255230
2482.98 0.156882
2483.43 0.0804678
2483.87 0.0525476
2484.77 0.0340203
2485.66 0.0320459
2486.56 0.0409581
2487.46 0.0741128
2487.90 0.121256
2488.35 0.250658
2488.57 0.421870
2488.69 0.585073
2488.80 0.867697
2488.91 1.42127
2488.97 1.92144
2489.02 2.73834
2489.08 4.20096
2489.11 5.40335
2489.13 7.18424
2489.16 9.95756
2489.19 14.5387
2489.22 22.5876
2489.23 28.8224
2489.25 36.7618
2489.26 47.0114
2489.27 59.0719
2489.30 73.5147
2489.33 59.0711
2489.35 36.7608
2489.38 22.2093
2489.41 14.3280
2489.44 9.71186
2489.47 7.02994
2489.50 5.25126
2489.53 4.09543
2489.58 2.66358
2489.64 1.86618
2489.70 1.37888
2489.81 0.840479
2489.92 0.565999
2490.04 0.407612
2490.27 0.241961
2490.72 0.115805
2491.18 0.0695007
2492.09 0.0354380
2493.00 0.0233587
2494.82 0.0152205
2496.64 0.0137582
2498.46 0.0161334
2500.28 0.0262580
2501.19 0.0409334
2502.10 0.0818762
2502.55 0.136796
2503.01 0.283095
2503.24 0.470726
2503.35 0.644962
2503.46 0.934776
2503.58 1.48071
2503.63 1.95061
2503.69 2.67976
2503.75 3.89121
2503.80 6.08932
2503.83 7.93428
2503.86 10.5327
2503.89 14.3820
2503.92 20.0773
2503.96 32.3703
2504.00 40.3448
2504.04 32.0579
2504.08 20.0779
2504.13 11.6076
2504.18 7.21988
2504.22 4.83457
2504.27 3.43498
2504.32 2.55562
2504.37 1.97120
2504.46 1.27672
2504.55 0.889447
2504.65 0.656856
2504.83 0.399682
2505.21 0.194315
2505.58 0.115927
2506.33 0.0567043
2507.08 0.0351558
2508.57 0.0195024
2510.07 0.0141824
2513.07 0.0112639
2516.06 0.0120389
2519.05 0.0159155
2520.55 0.0200048
2522.05 0.0273283
2523.54 0.0423845
2524.29 0.0569134
2525.04 0.0827300
2525.79 0.136475
2526.16 0.188782
2526.54 0.282272
2526.91 0.476012
2527.10 0.662751
2527.29 0.990913
2527.47 1.64984
2527.57 2.26605
2527.66 3.29263
2527.75 5.24113
2527.80 6.92919
2527.85 9.49557
2527.89 13.8655
2527.92 17.3071
2527.94 21.8851
2527.97 28.7243
2527.99 38.3873
2528.01 52.8644
2528.03 74.7793
2528.05 96.2000
2528.07 119.486
2528.10 149.533
2528.12 140.177
2528.13 119.485
2528.17 74.7777
2528.19 50.6206
2528.22 35.4865
2528.24 25.8493
2528.27 19.5048
2528.32 12.0989
2528.37 8.17768
2528.43 5.87856
2528.48 4.42363
2528.58 2.76263
2528.69 1.88976
2528.79 1.37644
2529.00 0.829377
2529.21 0.559385
2529.42 0.408711
2529.83 0.256463
2530.25 0.187860
2530.66 0.155161
2531.50 0.141927
2532.33 0.183646
2532.75 0.238117
2533.16 0.342486
2533.58 0.566699
2533.79 0.785011
2533.99 1.17041
2534.10 1.48399
2534.20 1.94620
2534.31 2.66733
2534.41 3.88170
2534.51 6.15891
2534.57 8.12325
2534.62 11.1784
2534.64 13.3777
2534.67 16.2715
2534.70 20.1696
2534.72 25.5621
2534.75 33.2433
2534.77 44.5158
2534.80 61.4641
2534.83 87.3144
2534.86 139.501
2534.90 174.685
2534.92 163.790
2534.94 139.497
2534.97 87.3104
2535.01 55.4781
2535.04 36.6487
2535.08 25.5588
2535.11 18.6775
2535.15 14.1790
2535.18 11.1012
2535.25 7.30619
2535.32 5.15826
2535.39 3.83131
2535.53 2.35022
2535.67 1.58793
2535.81 1.14534
2535.95 0.865955
2536.09 0.679545
2536.37 0.450806
2536.65 0.322593
2536.93 0.243074
2537.21 0.190708
2537.77 0.127851
2538.33 0.0931534
2538.89 0.0721601
2539.45 0.0587523
2540.57 0.0447173
2541.68 0.0436930
2542.80 0.0801011
2543.08 0.119219
2543.36 0.220593
2543.50 0.344746
2543.64 0.631678
2543.71 0.938863
2543.78 1.53639
2543.85 2.89008
2543.89 4.23818
2543.92 6.38630
2543.96 10.2726
2544.00 12.7856
2544.04 10.1713
2544.08 6.38605
2544.12 4.18897
2544.15 2.88944
2544.22 1.54757
2544.29 0.949291
2544.36 0.639658
2544.50 0.348540
2544.63 0.221564
2544.91 0.116379
2545.18 0.0749455
2546.29 0.0299765
2548.49 0.0161081
2550.70 0.0129662
2552.90 0.0122987
2557.31 0.0189718
2558.41 0.0269355
2559.51 0.0492737
2560.07 0.0794674
2560.62 0.160913
2560.89 0.267040
2561.17 0.536330
2561.31 0.862910
2561.44 1.61188
2561.51 2.40775
2561.58 3.94248
2561.62 5.30957
2561.65 7.36874
2561.68 10.6654
2561.72 15.9954
2561.76 25.5730
2561.80 31.9522
2561.84 25.5734
2561.88 15.9958
2561.92 9.74055
2561.97 6.34509
2562.01 4.38491
2562.05 3.18504
2562.13 1.88008
2562.21 1.23349
2562.38 0.644077
2562.54 0.396560
2562.87 0.195571
2563.20 0.118273
2563.85 0.0593841
2564.51 0.0378038
2565.83 0.0220557
2567.14 0.0166259
2572.40 0.0128738
2577.66 0.0152607
2582.91 0.0213615
2585.54 0.0267187
2588.17 0.0349217
2590.80 0.0482553
2593.43 0.0719388
2594.74 0.0913595
2596.06 0.120177
2597.37 0.165652
2598.69 0.243383
2600.00 0.392951
2600.66 0.525380
2601.32 0.737204
2601.97 1.10500
2602.30 1.39865
2602.63 1.81939
2602.96 2.45083
2603.29 3.43560
2603.62 5.04766
2603.94 7.70641
2604.32 12.3335
2604.70 15.4052
2605.08 12.3162
2605.46 7.70239
2605.75 5.26955
2606.04 3.71603
2606.34 2.71891
2606.63 2.06035
2607.21 1.28490
2607.80 0.871784
2608.38 0.628704
2608.97 0.474624
2610.14 0.298974
2611.31 0.208210
2612.48 0.159832
2613.06 0.149236
2613.65 0.157031
2613.94 0.180927
2614.23 0.253086
2614.38 0.346398
2614.53 0.565452
2614.60 0.802757
2614.67 1.26912
2614.75 2.34293
2614.78 3.45156
2614.82 5.32745
2614.86 8.43022
2614.90 10.5597
2614.94 8.42901
2614.98 5.32497
2615.03 3.12140
2615.07 1.99161
2615.16 0.994285
2615.25 0.605588
2615.35 0.418563
2615.53 0.251592
2615.71 0.181277
2616.44 0.0974258
2617.16 0.0746906
2617.89 0.0631103
2619.34 0.0498244
2620.80 0.0417982
2623.70 0.0325925
2626.61 0.0285386
2629.52 0.0286819
2632.42 0.0361893
2633.88 0.0480255
2634.60 0.0598478
2635.33 0.0811711
2636.06 0.126031
2636.42 0.170078
2636.78 0.248891
2637.15 0.413306
2637.33 0.572365
2637.51 0.850735
2637.69 1.41401
2637.78 1.93912
2637.87 2.81384
2637.97 4.47534
2638.01 5.93499
2638.06 8.16656
2638.10 12.0000
2638.15 18.9076
2638.17 24.7964
2638.19 33.0924
2638.22 46.2044
2638.24 65.1451
2638.25 83.6958
2638.27 104.876
2638.30 130.261
2638.32 122.370
2638.33 103.551
2638.36 65.1435
2638.39 44.1570
2638.41 30.9086
2638.44 22.4881
2638.46 17.1356
2638.51 10.6872
2638.56 7.24991
2638.61 5.19313
2638.66 3.91872
2638.76 2.45703
2638.86 1.67939
2638.95 1.22621
2639.15 0.739302
2639.35 0.499031
2639.55 0.363400
2639.94 0.224386
2640.33 0.158852
2640.73 0.123472
2641.52 0.0902816
2642.30 0.0784173
2643.09 0.0764726
2644.67 0.0920635
2645.45 0.110925
2646.24 0.141947
2647.03 0.194497
2647.82 0.290848
2648.21 0.371573
2648.61 0.493689
2649.00 0.690799
2649.39 1.03906
2649.59 1.32303
2649.79 1.74272
2649.99 2.40005
2650.18 3.51340
2650.28 4.38928
2650.38 5.62019
2650.48 7.46652
2650.58 10.3373
2650.68 15.2432
2650.72 19.0146
2650.77 24.2905
2650.82 31.9120
2650.87 43.2989
2650.92 60.8038
2650.97 87.7962
2651.04 140.895
2651.10 175.577
2651.17 140.031
2651.23 87.7890
2651.28 62.5960
2651.32 45.6547
2651.37 34.2762
2651.41 26.6079
2651.50 17.0133
2651.59 11.7631
2651.68 8.55658
2651.77 6.50897
2651.95 4.10866
2652.13 2.82331
2652.31 2.05779
2652.48 1.56600
2652.66 1.23322
2653.02 0.820376
2653.38 0.585428
2653.74 0.439154
2654.09 0.342187
2654.81 0.224999
2655.52 0.159843
2656.24 0.119797
2656.96 0.0934841
2658.39 0.0620376
2659.82 0.0446515
2661.25 0.0340111
2662.68 0.0270161
2665.54 0.0186418
2668.40 0.0140002
2674.12 0.00932948
2679.85 0.00734196
2685.57 0.00701669
2691.29 0.0112591
2694.16 0.0299981
2694.87 0.0489024
2695.59 0.100504
2695.95 0.168812
2696.30 0.346684
2696.48 0.569184
2696.66 1.10329
2696.75 1.70759
2696.84 2.94423
2696.88 4.12543
2696.93 6.06094
2696.97 9.62058
2697.02 16.2865
2697.06 26.0736
2697.10 32.5531
2697.14 26.0739
2697.18 16.2869
2697.23 9.62103
2697.27 6.11904
2697.32 4.12579
2697.36 2.96515
2697.45 1.71713
2697.54 1.11817
2697.71 0.578494
2697.89 0.352947
2698.25 0.171962
2698.60 0.102639
2699.31 0.0502374
2700.02 0.0311875
2701.43 0.0176576
2702.85 0.0138090
2705.68 0.0203060
2707.10 0.0576233
2707.45 0.0941967
2707.81 0.189557
2707.98 0.307965
2708.16 0.589535
2708.25 0.904421
2708.34 1.53891
2708.38 2.14333
2708.43 3.12224
2708.47 4.83832
2708.51 7.94373
2708.56 12.7071
2708.60 15.8828
2708.64 12.7072
2708.69 7.94388
2708.74 4.58849
2708.78 2.85182
2708.83 1.90888
2708.88 1.36500
2708.98 0.786574
2709.08 0.509094
2709.27 0.263219
2709.46 0.161189
2709.85 0.0795568
2710.24 0.0484731
2711.79 0.0162921
2714.90 0.00802421
2718.01 0.00938435
2719.56 0.0207752
2720.34 0.0622285
2720.73 0.192096
2720.92 0.517935
2721.02 1.09908
2721.07 1.79643
2721.12 3.17600
2721.16 5.08385
2721.20 6.34756
2721.24 5.08391
2721.28 3.17607
2721.33 1.85665
2721.37 1.16189
2721.47 0.561303
2721.65 0.212029
2722.01 0.0688557
2722.74 0.0224601
2724.20 0.00917353
2727.12 0.00568416
2732.95 0.00548419
2738.78 0.00837297
2741.70 0.0174945
2743.16 0.0491743
2743.53 0.0795189
2743.89 0.158478
2744.07 0.257830
2744.25 0.496007
2744.35 0.764371
2744.44 1.32258
2744.48 1.86048
2744.53 2.75102
2744.57 4.41083
2744.62 7.52786
2744.66 12.0195
2744.70 15.0422
2744.74 12.0197
2744.78 7.52818
2744.82 4.71848
2744.86 3.08868
2744.90 2.14124
2744.94 1.57049
2745.02 0.928837
2745.10 0.613611
2745.26 0.324052
2745.42 0.201241
2745.74 0.101818
2746.05 0.0636703
2747.32 0.0249607
2749.86 0.0200662
2751.13 0.0262060
2752.40 0.0454362
2753.04 0.0719193
2753.67 0.144794
2753.99 0.242440
2754.31 0.501856
2754.47 0.835327
2754.55 1.14808
2754.63 1.66896
2754.71 2.66178
2754.75 3.52428
2754.79 4.83272
2754.83 7.07461
2754.87 11.0661
2754.89 14.4521
2754.91 19.4546
2754.93 27.0321
2754.94 38.0232
2754.96 48.4858
2754.97 60.7203
2755.00 76.0793
2755.03 60.7196
2755.06 38.0224
2755.07 27.9804
2755.09 20.7251
2755.13 12.4342
2755.16 8.13431
2755.20 5.68966
2755.23 4.15281
2755.27 3.18063
2755.34 2.03238
2755.41 1.40220
2755.48 1.02999
2755.62 0.624500
2755.90 0.302482
2756.18 0.181514
2756.74 0.0909652
2757.31 0.0585468
2758.43 0.0360518
2759.56 0.0296655
2761.81 0.0302267
2764.06 0.0405514
2765.19 0.0505426
2766.31 0.0663024
2767.44 0.0925421
2768.57 0.140372
2769.13 0.180546
2769.69 0.241574
2770.25 0.340788
2770.82 0.518110
2771.10 0.664765
2771.38 0.883355
2771.66 1.23274
2771.94 1.83671
2772.08 2.32218
2772.23 3.02806
2772.37 4.10967
2772.51 5.86908
2772.58 7.22097
2772.65 9.05834
2772.72 11.6763
2772.79 15.5685
2772.86 21.7725
2772.93 31.9978
2772.96 39.7331
2773.00 50.2006
2773.03 64.4793
2773.07 83.7922
2773.13 133.861
2773.20 167.152
2773.27 133.854
2773.33 83.7857
2773.37 61.7013
2773.41 46.2378
2773.50 28.0031
2773.58 18.4253
2773.66 12.9342
2773.74 9.50582
2773.82 7.28634
2773.98 4.65690
2774.15 3.21842
2774.31 2.35877
2774.63 1.41931
2774.96 0.946943
2775.28 0.676763
2775.61 0.508017
2775.93 0.395666
2776.58 0.260134
2777.23 0.184688
2777.88 0.138492
2778.53 0.108272
2779.83 0.0725401
2781.13 0.0534027
2782.43 0.0424092
2783.73 0.0361256
2786.33 0.0328972
2787.63 0.0361745
2788.93 0.0452712
2790.23 0.0677273
2790.88 0.0910221
2791.53 0.133869
2792.18 0.225187
2792.50 0.315007
2792.83 0.475850
2793.15 0.807774
2793.31 1.12630
2793.48 1.67632
2793.64 2.76674
2793.72 3.75236
2793.80 5.37035
2793.88 8.28997
2793.92 10.7460
2793.96 14.3241
2794.00 20.1077
2794.02 24.2044
2794.04 29.5845
2794.07 37.1943
2794.09 47.1101
2794.11 60.7058
2794.13 79.9628
2794.16 128.106
2794.20 159.843
2794.22 150.040
2794.24 128.104
2794.27 79.9599
2794.31 51.3848
2794.34 34.3854
2794.38 24.2025
2794.41 17.9555
2794.48 10.7445
2794.54 7.13789
2794.61 5.04658
2794.68 3.76640
2794.81 2.32395
2794.95 1.57075
2795.08 1.13495
2795.22 0.856974
2795.35 0.671447
2795.62 0.443651
2795.89 0.315983
2796.16 0.237048
2796.43 0.184857
2796.97 0.122198
2797.51 0.0875447
2798.04 0.0663254
2798.58 0.0523780
2799.66 0.0357131
2800.74 0.0264915
2802.89 0.0171235
2805.04 0.0126966
2807.20 0.0103174
2811.50 0.00834766
2815.81 0.00874691
2817.96 0.0101165
2820.12 0.0131228
2822.27 0.0200805
2823.35 0.0271994
2824.42 0.0402994
2825.50 0.0683902
2826.04 0.0963258
2826.58 0.146865
2827.12 0.253494
2827.39 0.357540
2827.65 0.542851
2827.92 0.922457
2828.06 1.28430
2828.19 1.90322
2828.33 3.11642
2828.39 4.19699
2828.46 5.94481
2828.53 9.09274
2828.56 11.6655
2828.60 15.3179
2828.63 21.0874
2828.65 25.1838
2828.66 30.1299
2828.68 36.9662
2828.70 46.0286
2828.71 58.1009
2828.73 73.2835
2828.75 94.1703
2828.77 117.083
2828.80 146.632
2828.82 137.455
2828.84 117.080
2828.87 73.2811
2828.89 54.1842
2828.91 40.9076
2828.95 24.9117
2829.00 16.3012
2829.04 11.4853
2829.08 8.43653
2829.12 6.48203
2829.21 4.13676
2829.29 2.86183
2829.38 2.09506
2829.55 1.26024
2829.72 0.840411
2829.89 0.600245
2830.23 0.350289
2830.57 0.229673
2830.91 0.162432
2831.59 0.0940904
2832.27 0.0617217
2832.95 0.0439066
2834.31 0.0259922
2835.67 0.0176067
2837.03 0.0130387
2839.74 0.00856354
2842.46 0.00677156
2845.18 0.00670986
2847.90 0.0119714
2849.26 0.0340160
2849.94 0.111505
2850.11 0.181198
2850.28 0.347450
2850.36 0.532668
2850.45 0.912102
2850.53 1.85549
2850.58 2.88277
2850.62 4.80794
2850.66 7.65465
2850.70 9.60861
2850.74 7.65475
2850.78 4.80805
2850.84 2.47073
2850.89 1.43336
2851.01 0.630518
2851.12 0.348981
2851.23 0.220950
2851.46 0.111916
2851.68 0.0682368
2852.59 0.0210426
2854.39 0.00785674
2858.00 0.00465321
2861.61 0.00663498
2863.42 0.0171718
2864.32 0.0557878
2864.77 0.181425
2864.88 0.287035
2864.99 0.519850
2865.11 1.18683
2865.16 2.05334
2865.22 3.99154
2865.26 6.40595
2865.30 7.98469
2865.34 6.40603
2865.38 3.99164
2865.42 2.48236
2865.46 1.61683
2865.54 0.816871
2865.70 0.318151
2866.01 0.102776
2866.65 0.0308439
2867.91 0.00990370
2870.45 0.00419335
2875.52 0.00265921
2885.65 0.00249855
2895.78 0.00396253
2900.85 0.00915171
2903.38 0.0280008
2904.02 0.0466106
2904.65 0.0969099
2904.97 0.162887
2905.28 0.332398
2905.44 0.542053
2905.60 1.03064
2905.68 1.56284
2905.76 2.62221
2905.80 3.59699
2905.84 5.12495
2905.88 7.78337
2905.92 12.4140
2905.96 19.7697
2906.00 24.8152
2906.04 19.7700
2906.08 12.4143
2906.12 8.51939
2906.15 6.01601
2906.18 4.40579
2906.21 3.33760
2906.28 2.08117
2906.34 1.41893
2906.47 0.772093
2906.59 0.483455
2906.85 0.240981
2907.10 0.144655
2907.61 0.0700155
2908.12 0.0422592
2910.15 0.0147459
2912.18 0.0104598
2914.21 0.0105268
2916.25 0.0135573
2918.28 0.0230981
2919.30 0.0359070
2920.31 0.0705509
2920.82 0.116846
2921.33 0.242244
2921.58 0.407488
2921.71 0.565273
2921.84 0.839414
2921.96 1.37968
2922.03 1.87616
2922.09 2.68062
2922.15 4.16325
2922.19 5.40343
2922.22 7.20026
2922.25 10.1325
2922.28 15.1229
2922.30 18.9730
2922.31 24.2711
2922.33 31.6349
2922.34 41.0511
2922.36 53.2074
2922.37 66.1331
2922.40 82.0875
2922.42 76.7717
2922.43 65.2110
2922.46 41.0505
2922.49 25.0639
2922.51 16.4288
2922.54 11.4035
2922.57 8.30878
2922.60 6.29573
2922.63 4.92317
2922.68 3.23641
2922.74 2.28465
2922.79 1.69786
2922.91 1.04422
2923.02 0.708577
2923.13 0.514128
2923.35 0.309793
2923.80 0.155602
2924.25 0.101261
2925.15 0.0681432
2926.04 0.0699582
2926.94 0.0991140
2927.39 0.132853
2927.84 0.195960
2928.29 0.330697
2928.51 0.462145
2928.74 0.695312
2928.96 1.16889
2929.07 1.61366
2929.18 2.37136
2929.30 3.81810
2929.35 5.09025
2929.41 7.10897
2929.46 10.5734
2929.49 13.3024
2929.52 17.1811
2929.55 22.9011
2929.58 31.6821
2929.60 45.6672
2929.62 55.6221
2929.63 68.8734
2929.65 88.4226
2929.67 110.354
2929.70 137.671
2929.72 129.647
2929.73 110.352
2929.77 68.8712
2929.79 48.9505
2929.82 35.4705
2929.84 26.4924
2929.86 20.5835
2929.91 13.0738
2929.96 9.03000
2930.01 6.54490
2930.05 4.97826
2930.15 3.14957
2930.24 2.15978
2930.34 1.57191
2930.53 0.941345
2930.72 0.625351
2930.91 0.446555
2931.28 0.261028
2931.66 0.171509
2932.04 0.121685
2932.80 0.0710369
2933.56 0.0469920
2934.31 0.0337135
2935.83 0.0202348
2937.34 0.0138474
2938.86 0.0103120
2941.89 0.00673329
2944.92 0.00506414
2947.95 0.00418376
2954.01 0.00346429
2960.07 0.00352167
2966.12 0.00458963
2969.15 0.00619648
2972.18 0.0106439
2973.70 0.0166598
2975.21 0.0333042
2975.97 0.0559862
2976.73 0.118545
2977.11 0.202831
2977.49 0.428917
2977.68 0.723914
2977.77 1.00174
2977.86 1.46999
2977.96 2.37448
2978.01 3.16250
2978.05 4.41065
2978.10 6.60803
2978.15 10.7298
2978.17 14.3866
2978.20 19.7574
2978.22 28.6762
2978.23 35.0583
2978.24 42.5997
2978.26 54.7851
2978.27 68.0381
2978.30 85.2432
2978.32 79.8411
2978.33 68.0373
2978.36 42.5988
2978.38 30.6334
2978.40 22.6058
2978.43 13.3238
2978.47 8.61765
2978.51 5.98138
2978.55 4.34362
2978.59 3.31235
2978.66 2.10288
2978.74 1.44414
2978.82 1.05626
2978.97 0.633573
2979.28 0.302270
2979.58 0.177752
2980.19 0.0849241
2980.80 0.0517384
2982.03 0.0288797
2983.25 0.0235660
2984.47 0.0269294
2985.70 0.0456357
2986.31 0.0735524
2986.92 0.151809
2987.23 0.257094
2987.53 0.537686
2987.69 0.896324
2987.76 1.23143
2987.84 1.78668
2987.92 2.83801
2987.95 3.73016
2987.99 5.10761
2988.03 7.38048
2988.07 11.4641
2988.09 14.7899
2988.11 19.6027
2988.12 26.7172
2988.14 37.6926
2988.16 48.4220
2988.17 60.4115
2988.20 75.3344
2988.23 60.4108
2988.26 37.6917
2988.29 21.2098
2988.32 12.8923
2988.36 8.50086
2988.39 6.03338
2988.43 4.44848
2988.46 3.40766
2988.53 2.18913
2988.59 1.51405
2988.66 1.11325
2988.80 0.674155
2989.07 0.322958
2989.33 0.190155
2989.87 0.0898499
2990.41 0.0532066
2991.49 0.0262105
2992.57 0.0164821
2994.72 0.00934446
2996.88 0.00681107
3001.19 0.00514542
3005.50 0.00495270
3009.81 0.00563077
3014.12 0.00799237
3016.28 0.0112217
3018.43 0.0201214
3019.51 0.0322591
3020.59 0.0659649
3021.13 0.111807
3021.66 0.237283
3021.93 0.404125
3022.07 0.564215
3022.20 0.840862
3022.34 1.39201
3022.41 1.89158
3022.47 2.71501
3022.54 4.24111
3022.57 5.52596
3022.61 7.40380
3022.64 10.4908
3022.67 15.6062
3022.69 19.6842
3022.71 25.3507
3022.73 33.3211
3022.74 44.2250
3022.76 56.3417
3022.77 70.8778
3022.80 88.3935
3022.82 82.9113
3022.83 70.8769
3022.86 44.2240
3022.88 31.7083
3022.90 23.4804
3022.94 13.9112
3022.97 8.93520
3023.01 6.22583
3023.05 4.53420
3023.09 3.46499
3023.17 2.19456
3023.24 1.51141
3023.32 1.10347
3023.47 0.664136
3023.78 0.317187
3024.09 0.186411
3024.70 0.0884124
3025.32 0.0529919
3026.55 0.0272851
3027.77 0.0184044
3030.23 0.0127581
3032.69 0.0120838
3037.60 0.0213880
3038.83 0.0312892
3040.06 0.0582770
3040.67 0.0944708
3041.29 0.191910
3041.60 0.319020
3041.90 0.645451
3042.06 1.04623
3042.13 1.40435
3042.21 1.97271
3042.29 2.98131
3042.36 4.97662
3042.40 6.80028
3042.44 9.63439
3042.48 14.3491
3042.52 22.4476
3042.56 35.8411
3042.60 44.8850
3042.64 35.8416
3042.68 22.4483
3042.71 16.6316
3042.73 12.5841
3042.79 7.62124
3042.84 5.01487
3042.89 3.54418
3042.94 2.61328
3042.99 2.01259
3043.09 1.29141
3043.19 0.895332
3043.29 0.659561
3043.49 0.402281
3043.90 0.198242
3044.30 0.121361
3045.11 0.0641964
3045.92 0.0443696
3047.54 0.0328599
3049.16 0.0343691
3050.77 0.0461768
3051.58 0.0592919
3052.39 0.0835641
3053.20 0.135121
3053.61 0.185904
3054.01 0.276865
3054.42 0.466482
3054.62 0.649106
3054.82 0.969997
3055.02 1.61371
3055.12 2.21079
3055.22 3.21454
3055.32 5.09269
3055.38 6.72903
3055.43 9.21867
3055.48 13.4441
3055.50 16.6107
3055.53 20.9678
3055.55 27.4308
3055.58 36.5517
3055.60 50.1562
3055.63 71.1356
3055.66 113.962
3055.70 142.184
3055.72 133.893
3055.74 113.960
3055.77 71.1337
3055.80 47.5896
3055.83 32.8500
3055.86 23.6506
3055.89 17.6891
3055.95 10.8412
3056.01 7.31570
3056.07 5.22637
3056.13 3.91490
3056.25 2.43790
3056.37 1.65907
3056.49 1.20645
3056.73 0.724111
3056.97 0.485826
3057.20 0.352281
3057.68 0.215752
3058.16 0.152209
3058.64 0.119177
3059.59 0.0934380
3060.55 0.0993581
3061.50 0.152631
3061.98 0.232347
3062.45 0.448540
3062.69 0.725680
3062.81 0.980610
3062.93 1.40615
3063.05 2.20259
3063.11 2.88350
3063.17 3.91067
3063.23 5.62015
3063.29 8.59957
3063.32 11.0324
3063.35 14.5198
3063.38 19.6124
3063.41 26.9636
3063.45 43.1595
3063.50 53.8940
3063.55 43.1583
3063.59 26.9621
3063.63 17.3375
3063.68 11.6297
3063.72 8.20383
3063.76 6.08913
3063.84 3.68056
3063.93 2.45212
3064.01 1.74879
3064.09 1.31085
3064.26 0.818407
3064.42 0.562092
3064.59 0.413776
3064.92 0.256808
3065.26 0.179895
3065.59 0.137027
3066.25 0.0938703
3066.92 0.0747085
3067.58 0.0658546
3068.91 0.0635281
3070.24 0.0778845
3070.91 0.0954130
3071.57 0.128324
3072.24 0.198556
3072.57 0.267638
3072.90 0.390877
3073.23 0.646314
3073.40 0.890449
3073.57 1.31586
3073.73 2.15790
3073.81 2.92767
3073.90 4.20121
3073.98 6.52657
3074.02 8.50610
3074.06 11.4272
3074.11 16.2253
3074.13 19.7769
3074.15 24.2795
3074.17 30.7071
3074.19 39.6799
3074.21 52.3648
3074.23 69.1804
3074.27 111.287
3074.30 138.320
3074.32 129.968
3074.34 110.039
3074.37 69.1787
3074.40 43.9985
3074.44 29.6548
3074.47 20.9941
3074.50 15.5156
3074.56 9.36649
3074.63 6.22907
3074.69 4.43226
3074.76 3.31324
3074.88 2.05482
3075.01 1.40270
3075.14 1.02258
3075.40 0.620538
3075.65 0.423449
3075.91 0.313554
3076.42 0.202046
3076.93 0.150451
3077.45 0.123600
3078.47 0.100942
3080.52 0.102061
3082.57 0.136768
3083.59 0.170297
3084.62 0.222720
3085.64 0.308699
3086.67 0.461650
3087.18 0.587033
3087.69 0.772318
3088.21 1.06290
3088.46 1.27429
3088.72 1.55571
3088.97 1.94332
3089.23 2.49245
3089.49 3.30878
3089.74 4.59376
3090.00 6.77306
3090.13 8.46947
3090.25 10.8534
3090.38 14.3177
3090.51 19.5331
3090.64 27.6291
3090.77 40.2561
3090.93 64.4431
3091.10 80.5796
3091.27 64.4347
3091.43 40.2478
3091.62 23.3738
3091.81 14.6121
3092.00 9.79658
3092.18 6.97643
3092.37 5.19046
3092.56 4.00790
3092.93 2.58484
3093.31 1.80067
3093.68 1.32478
3094.43 0.802760
3095.18 0.537704
3095.93 0.385309
3096.68 0.289759
3097.43 0.226013
3098.93 0.148703
3100.43 0.105473
3101.93 0.0788396
3103.43 0.0612924
3106.43 0.0403050
3109.43 0.0287086
3112.43 0.0216356
3115.43 0.0170152
3121.42 0.0116078
3127.42 0.00892680
3130.42 0.00839023
3133.42 0.00894570
3136.42 0.0154326
3137.92 0.0419371
3138.29 0.0678933
3138.67 0.136193
3138.86 0.222410
3139.04 0.430180
3139.14 0.667324
3139.23 1.15872
3139.28 1.63423
3139.33 2.44873
3139.37 3.95671
3139.42 6.81871
3139.46 10.8962
3139.50 13.6323
3139.54 10.8963
3139.58 6.81885
3139.62 4.53110
3139.65 3.09704
3139.72 1.66041
3139.79 1.00960
3139.86 0.677849
3140.00 0.363257
3140.14 0.226981
3140.41 0.113463
3140.69 0.0691190
3141.80 0.0221815
3144.02 0.00916505
3148.46 0.00540222
3152.90 0.00445423
3157.34 0.00400737
3166.22 0.00363499
3175.10 0.00368328
3183.98 0.00424369
3188.42 0.00489004
3192.86 0.00607988
3197.30 0.00856548
3199.52 0.0109850
3201.74 0.0153271
3203.96 0.0244663
3205.07 0.0334869
3206.18 0.0498428
3207.29 0.0845063
3207.85 0.118735
3208.40 0.180540
3208.96 0.310115
3209.23 0.436570
3209.51 0.660196
3209.79 1.11768
3209.93 1.54985
3210.07 2.28395
3210.21 3.70664
3210.27 4.95902
3210.34 6.95937
3210.38 8.46135
3210.41 10.4930
3210.45 13.3255
3210.48 17.2767
3210.52 23.3617
3210.55 32.5970
3210.59 48.1068
3210.62 73.2727
3210.66 117.085
3210.70 146.599
3210.72 137.907
3210.74 117.083
3210.78 73.2702
3210.81 49.8440
3210.84 34.7262
3210.88 25.1696
3210.91 18.9167
3210.97 11.6657
3211.04 7.85157
3211.10 5.62507
3211.16 4.22038
3211.29 2.62133
3211.42 1.78312
3211.55 1.29078
3211.68 0.977561
3211.80 0.767539
3212.06 0.508273
3212.31 0.361889
3212.57 0.271282
3212.83 0.211553
3213.34 0.139692
3213.85 0.100068
3214.36 0.0759478
3214.87 0.0602397
3215.89 0.0418641
3216.92 0.0322187
3218.96 0.0240347
3221.01 0.0235299
3223.05 0.0321204
3224.07 0.0460401
3225.10 0.0857130
3225.61 0.139903
3226.12 0.287552
3226.37 0.482935
3226.50 0.669601
3226.63 0.990458
3226.76 1.62507
3226.82 2.20100
3226.89 3.14622
3226.95 4.85100
3226.98 6.26309
3227.01 8.37034
3227.05 11.6857
3227.08 17.2414
3227.09 21.4653
3227.11 27.2045
3227.13 35.0669
3227.14 45.2071
3227.16 57.6609
3227.17 72.2013
3227.20 90.4499
3227.22 85.0738
3227.23 72.2005
3227.26 45.2062
3227.29 28.0563
3227.32 18.1819
3227.35 12.5117
3227.38 9.14894
3227.41 6.88978
3227.44 5.36168
3227.50 3.52231
3227.56 2.47154
3227.62 1.83700
3227.74 1.12521
3227.85 0.760815
3227.97 0.550025
3228.21 0.328526
3228.69 0.160502
3229.16 0.0991815
3230.12 0.0550014
3231.07 0.0405266
3232.97 0.0344647
3234.88 0.0411463
3235.83 0.0492670
3236.78 0.0626491
3237.73 0.0853826
3238.68 0.127274
3239.16 0.162570
3239.64 0.216281
3240.11 0.303710
3240.59 0.460138
3241.06 0.782701
3241.30 1.09085
3241.54 1.62599
3241.78 2.67903
3241.90 3.63533
3242.02 5.20587
3242.08 6.40902
3242.13 8.04131
3242.19 10.4161
3242.25 13.9042
3242.31 19.4959
3242.37 28.7259
3242.40 35.8697
3242.43 45.2398
3242.46 58.5103
3242.49 75.9141
3242.55 121.237
3242.60 151.360
3242.66 121.233
3242.71 75.9100
3242.77 43.4092
3242.84 26.9649
3242.90 17.9330
3242.96 12.7415
3243.03 9.43711
3243.09 7.28106
3243.22 4.69583
3243.34 3.26295
3243.47 2.39637
3243.72 1.45059
3243.98 0.970286
3244.23 0.695668
3244.49 0.522999
3244.74 0.408263
3245.25 0.269212
3245.75 0.191587
3246.26 0.143916
3246.77 0.112577
3247.78 0.0752903
3248.79 0.0548699
3249.81 0.0425668
3250.82 0.0346647
3252.85 0.0257342
3254.88 0.0215124
3258.93 0.0198920
3262.99 0.0255405
3265.02 0.0329280
3267.04 0.0472306
3268.06 0.0595414
3269.07 0.0784937
3270.09 0.109697
3271.10 0.166277
3271.61 0.213581
3272.11 0.285201
3272.62 0.401120
3273.13 0.606969
3273.38 0.776151
3273.64 1.02660
3273.89 1.42355
3274.14 2.10080
3274.27 2.63845
3274.40 3.41067
3274.52 4.57464
3274.65 6.42325
3274.71 7.81434
3274.78 9.66358
3274.84 12.2301
3274.90 15.9174
3274.97 21.5402
3275.03 30.2293
3275.09 44.4166
3275.16 67.9045
3275.23 108.943
3275.30 135.800
3275.37 108.338
3275.45 67.8994
3275.51 42.7297
3275.58 28.2390
3275.65 19.7028
3275.72 14.4647
3275.79 10.9781
3275.86 8.59286
3276.00 5.66768
3276.13 3.99708
3276.27 2.97163
3276.54 1.82380
3276.82 1.22986
3277.09 0.885999
3277.37 0.668028
3277.64 0.522242
3278.19 0.344220
3278.74 0.244410
3279.29 0.182808
3279.84 0.142142
3280.94 0.0934634
3282.04 0.0666102
3283.13 0.0502509
3284.23 0.0395785
3286.43 0.0270962
3288.63 0.0208571
3290.82 0.0203619
3291.92 0.0323712
3292.47 0.0771509
3292.75 0.207380
3292.88 0.489751
3292.95 0.910651
3293.02 1.99921
3293.10 3.98402
3293.18 1.99911
3293.24 1.03243
3293.29 0.601429
3293.41 0.269644
3293.63 0.101481
3294.08 0.0383384
3294.98 0.0183843
3296.79 0.0119947
3300.40 0.00936659
3307.61 0.00915056
3311.22 0.0109871
3313.02 0.0129519
3314.83 0.0164295
3316.63 0.0233531
3317.53 0.0297963
3318.43 0.0408858
3319.33 0.0631731
3320.24 0.121857
3320.69 0.198915
3321.14 0.404546
3321.36 0.672670
3321.48 0.926417
3321.59 1.35801
3321.70 2.20080
3321.76 2.94658
3321.81 4.14613
3321.87 6.29734
3321.93 10.4894
3321.96 14.2521
3321.98 20.2438
3322.00 24.5879
3322.01 30.2574
3322.03 37.6824
3322.04 47.3147
3322.06 61.2703
3322.07 76.1785
3322.10 94.5953
3322.12 88.5083
3322.13 75.1862
3322.16 47.3151
3322.18 34.2560
3322.20 25.3090
3322.24 14.9440
3322.28 9.68124
3322.32 6.78786
3322.36 4.97107
3322.40 3.81664
3322.48 2.43937
3322.56 1.69578
3322.64 1.25085
3322.79 0.769436
3322.95 0.528627
3323.11 0.393840
3323.43 0.258177
3324.06 0.173719
3324.69 0.176943
3325.33 0.247859
3325.64 0.329813
3325.96 0.481543
3326.28 0.800305
3326.43 1.10501
3326.59 1.63347
3326.75 2.66895
3326.83 3.60424
3326.91 5.13091
3326.99 7.86167
3327.03 10.1385
3327.07 13.4232
3327.11 18.6684
3327.13 22.4438
3327.14 27.1036
3327.16 33.5796
3327.18 42.3053
3327.20 54.1438
3327.22 69.1471
3327.26 111.198
3327.30 138.274
3327.32 129.535
3327.34 110.046
3327.38 69.1442
3327.41 44.3900
3327.45 30.1029
3327.48 21.4022
3327.51 15.8634
3327.58 9.54515
3327.65 6.36331
3327.72 4.51089
3327.79 3.37333
3327.93 2.08148
3328.06 1.41141
3328.20 1.02039
3328.34 0.772673
3328.47 0.605961
3328.75 0.402478
3329.02 0.287697
3329.30 0.216610
3329.57 0.169521
3330.12 0.112903
3330.67 0.0813870
3331.21 0.0620166
3331.76 0.0492619
3332.86 0.0339497
3333.95 0.0254652
3336.14 0.0168778
3338.33 0.0129087
3340.52 0.0108628
3344.91 0.00937437
3349.29 0.00996927
3351.48 0.0111790
3353.67 0.0135550
3355.86 0.0185927
3356.96 0.0234940
3358.05 0.0322471
3359.15 0.0505798
3359.70 0.0685757
3360.24 0.100935
3360.79 0.168962
3361.34 0.354107
3361.61 0.598255
3361.75 0.831124
3361.89 1.23494
3362.03 2.02794
3362.09 2.75313
3362.16 3.92405
3362.23 6.06381
3362.27 7.80837
3362.30 10.3984
3362.33 14.4452
3362.37 21.1633
3362.38 26.2272
3362.40 33.0587
3362.42 42.3458
3362.44 54.8656
3362.45 71.0049
3362.47 88.3168
3362.50 109.718
3362.52 102.694
3362.53 87.2356
3362.57 54.8644
3362.60 34.9931
3362.62 23.6586
3362.65 16.6003
3362.68 12.3016
3362.74 7.39366
3362.80 4.89974
3362.86 3.47538
3362.92 2.59004
3363.04 1.59621
3363.16 1.08207
3363.27 0.782634
3363.51 0.466058
3363.75 0.311181
3363.98 0.224188
3364.45 0.135320
3364.93 0.0934282
3365.40 0.0706801
3366.34 0.0488243
3367.29 0.0401296
3368.23 0.0372403
3370.12 0.0414274
3372.00 0.0602737
3372.95 0.0805993
3373.89 0.117742
3374.84 0.194862
3375.31 0.268514
3375.78 0.396050
3376.25 0.645571
3376.49 0.870662
3376.72 1.23763
3376.96 1.89285
3377.08 2.43000
3377.20 3.22343
3377.31 4.45460
3377.43 6.47852
3377.55 10.0119
3377.67 16.2972
3377.78 26.1156
3377.90 32.5857
3378.02 26.0241
3378.13 16.2951
3378.26 9.69967
3378.38 6.15618
3378.51 4.17788
3378.63 2.99582
3378.76 2.24364
3378.88 1.73913
3379.13 1.12940
3379.38 0.790961
3379.63 0.584581
3380.13 0.356992
3380.63 0.241165
3381.13 0.174397
3381.63 0.132466
3382.13 0.104478
3383.13 0.0704873
3384.13 0.0514928
3385.13 0.0398075
3386.13 0.0321380
3388.13 0.0230432
3390.13 0.0181268
3394.13 0.0134800
3398.13 0.0117796
3402.12 0.0115195
3406.12 0.0128933
3408.12 0.0170986
3409.12 0.0309570
3409.62 0.0760631
3409.87 0.201360
3410.00 0.461732
3410.06 0.821974
3410.12 1.70076
3410.20 3.38965
3410.28 1.70087
3410.34 0.885494
3410.39 0.515435
3410.50 0.234469
3410.73 0.0902235
3411.17 0.0362549
3412.06 0.0200449
3413.84 0.0166440
3417.40 0.0199734
3420.96 0.0375777
3421.85 0.0539661
3422.74 0.0979253
3423.18 0.156051
3423.63 0.309611
3423.85 0.505321
3424.07 0.985633
3424.18 1.54217
3424.29 2.74404
3424.35 3.94924
3424.40 6.04966
3424.46 10.2342
3424.49 13.8369
3424.51 18.8561
3424.56 30.1585
3424.60 37.6937
3424.64 30.1588
3424.69 18.8566
3424.72 13.2347
3424.75 9.62633
3424.78 7.21517
3424.81 5.56553
3424.87 3.53733
3424.93 2.44351
3425.05 1.35352
3425.17 0.861854
3425.41 0.440676
3425.65 0.271576
3426.13 0.139779
3426.62 0.0907075
3427.58 0.0549344
3428.54 0.0430092
3430.47 0.0369257
3432.40 0.0385348
3434.33 0.0445946
3436.26 0.0582577
3437.22 0.0734351
3438.19 0.110159
3438.67 0.156363
3439.15 0.276133
3439.39 0.427771
3439.63 0.803812
3439.75 1.24767
3439.87 2.21649
3439.93 3.21745
3439.99 5.01738
3440.02 6.50298
3440.05 8.67999
3440.08 11.9478
3440.11 16.9950
3440.16 27.0617
3440.20 33.9188
3440.24 27.0625
3440.29 16.9963
3440.32 11.5587
3440.35 8.09419
3440.39 5.89644
3440.42 4.45430
3440.49 2.77691
3440.56 1.89207
3440.69 1.04790
3440.83 0.675805
3441.10 0.366784
3441.37 0.245995
3441.92 0.155432
3442.46 0.124883
3443.55 0.109757
3444.64 0.114123
3446.81 0.147480
3448.99 0.216174
3450.07 0.273554
3451.16 0.358887
3452.25 0.492992
3452.79 0.590622
3453.34 0.720352
3453.88 0.898510
3454.43 1.15170
3454.97 1.52799
3455.51 2.11865
3456.06 3.12100
3456.33 3.90058
3456.60 4.99520
3456.87 6.58407
3457.14 8.97252
3457.42 12.6727
3457.69 18.4022
3458.04 29.4555
3458.40 36.7930
3458.76 29.4149
3459.11 18.3949
3459.54 10.3591
3459.96 6.33255
3460.39 4.19198
3460.81 2.95505
3461.24 2.18618
3461.66 1.67918
3462.51 1.07682
3463.37 0.747749
3464.22 0.549709
3465.92 0.334157
3467.62 0.227029
3469.32 0.170187
3470.17 0.156158
3471.02 0.159572
3471.44 0.179807
3471.87 0.246313
3472.08 0.336491
3472.29 0.562012
3472.40 0.828034
3472.51 1.39923
3472.56 1.96476
3472.61 2.96642
3472.66 4.91720
3472.69 6.62096
3472.72 9.02671
3472.76 14.4369
3472.80 17.9645
3472.84 14.4361
3472.88 9.02488
3472.91 6.61848
3472.94 4.96619
3472.99 2.98760
3473.04 1.97286
3473.09 1.40864
3473.20 0.825325
3473.30 0.556807
3473.52 0.322093
3473.73 0.225479
3474.15 0.147052
3474.57 0.115286
3475.41 0.0875595
3476.26 0.0742414
3477.94 0.0596116
3479.63 0.0509586
3483.00 0.0413051
3486.38 0.0381269
3489.75 0.0422439
3491.44 0.0494341
3493.13 0.0644108
3494.81 0.0983351
3495.66 0.132657
3496.50 0.195103
3496.92 0.247449
3497.34 0.326741
3497.77 0.455049
3498.19 0.681932
3498.40 0.867977
3498.61 1.14400
3498.82 1.57860
3499.03 2.31560
3499.14 2.90134
3499.24 3.73063
3499.35 4.98478
3499.45 6.96011
3499.50 8.42579
3499.56 10.3938
3499.61 13.1124
3499.66 16.9059
3499.72 22.6150
3499.77 31.2187
3499.82 45.1956
3499.87 67.2214
3499.94 107.378
3500.00 134.077
3500.06 107.374
3500.13 67.2173
3500.20 39.1116
3500.27 24.4217
3500.34 16.3909
3500.42 11.6621
3500.49 8.68411
3500.56 6.70173
3500.70 4.33599
3500.85 3.02105
3500.99 2.22359
3501.28 1.35074
3501.57 0.906650
3501.85 0.652207
3502.14 0.492549
3502.43 0.385858
3503.00 0.256436
3503.58 0.184050
3504.15 0.139495
3504.73 0.110164
3505.88 0.0750095
3507.03 0.0555684
3509.32 0.0358669
3511.62 0.0266142
3513.92 0.0216593
3518.52 0.0175006
3523.12 0.0179861
3525.42 0.0203601
3527.71 0.0255599
3530.01 0.0372993
3531.16 0.0489859
3532.31 0.0699829
3532.89 0.0874216
3533.46 0.113712
3534.04 0.156180
3534.61 0.231637
3535.18 0.387668
3535.47 0.537569
3535.76 0.800975
3536.05 1.33382
3536.19 1.83214
3536.33 2.67057
3536.48 4.27187
3536.55 5.67320
3536.62 7.84709
3536.66 9.45109
3536.69 11.5875
3536.73 14.5093
3536.76 18.6288
3536.80 24.6404
3536.84 33.7395
3536.87 47.9587
3536.91 70.0660
3536.95 112.198
3537.00 140.032
3537.02 131.854
3537.05 112.198
3537.09 70.0676
3537.12 51.5667
3537.15 38.8929
3537.21 23.6631
3537.26 15.6269
3537.32 11.0056
3537.37 8.14257
3537.43 6.25939
3537.54 4.02810
3537.65 2.80611
3537.77 2.08012
3537.99 1.29402
3538.22 0.905376
3538.44 0.694562
3538.89 0.514805
3539.34 0.521588
3539.56 0.601223
3539.78 0.772935
3540.01 1.14062
3540.12 1.47894
3540.23 2.03226
3540.35 3.01448
3540.46 4.97560
3540.51 6.75239
3540.57 9.60630
3540.63 14.4297
3540.68 22.7590
3540.74 36.4769
3540.80 45.4179
3540.86 36.2268
3540.92 22.7475
3540.96 16.4879
3541.00 12.1982
3541.08 7.22638
3541.15 4.70013
3541.23 3.28272
3541.31 2.41879
3541.39 1.85670
3541.54 1.19683
3541.70 0.839934
3541.86 0.625431
3542.17 0.391455
3542.48 0.271912
3542.79 0.202409
3543.41 0.128099
3544.04 0.0905053
3544.66 0.0685730
3545.91 0.0447703
3547.15 0.0325445
3548.40 0.0253235
3550.89 0.0174730
3553.39 0.0135055
3555.88 0.0112769
3560.87 0.00933609
3565.86 0.00958949
3568.35 0.0107854
3570.84 0.0134563
3573.34 0.0196678
3574.59 0.0260278
3575.83 0.0377449
3577.08 0.0628486
3577.70 0.0878056
3578.33 0.132963
3578.95 0.228201
3579.26 0.321341
3579.57 0.486694
3579.89 0.826634
3580.04 1.14957
3580.20 1.70215
3580.35 2.78310
3580.43 3.75355
3580.51 5.32787
3580.59 8.11845
3580.63 10.3893
3580.66 13.7193
3580.70 18.8361
3580.72 22.5643
3580.74 27.1347
3580.76 33.4338
3580.78 41.3522
3580.80 51.8088
3580.82 66.0709
3580.84 84.7870
3580.86 105.842
3580.90 132.081
3580.92 124.371
3580.94 105.840
3580.98 66.0688
3581.01 47.6140
3581.03 34.9223
3581.09 20.5806
3581.14 13.3106
3581.19 9.23817
3581.25 6.75952
3581.30 5.14932
3581.41 3.26377
3581.51 2.24843
3581.62 1.64153
3581.83 0.984418
3582.04 0.655633
3582.25 0.468142
3582.47 0.351269
3582.68 0.273556
3583.10 0.179899
3583.53 0.127773
3583.95 0.0958170
3584.37 0.0748250
3585.22 0.0498389
3586.07 0.0361077
3586.92 0.0277689
3587.77 0.0223358
3589.46 0.0159481
3591.16 0.0125247
3594.55 0.00937439
3597.94 0.00854866
3601.33 0.00980686
3604.73 0.0196584
3606.42 0.0573735
3606.85 0.0941711
3607.27 0.191544
3607.48 0.315147
3607.69 0.619206
3607.80 0.971112
3607.91 1.72988
3607.96 2.48072
3608.01 3.81121
3608.06 6.40634
3608.09 8.67776
3608.12 11.9658
3608.16 19.1600
3608.20 23.9252
3608.24 19.1602
3608.28 11.9660
3608.31 8.67806
3608.34 6.40663
3608.39 3.81149
3608.44 2.48100
3608.50 1.73015
3608.60 0.966804
3608.71 0.617179
3608.92 0.313857
3609.13 0.190852
3609.56 0.0942073
3609.99 0.0579163
3611.69 0.0214357
3615.09 0.0155226
3618.50 0.0328705
3619.35 0.0511249
3620.20 0.100505
3620.62 0.165363
3621.05 0.333405
3621.26 0.542630
3621.47 1.04247
3621.58 1.60435
3621.69 2.74874
3621.74 3.81942
3621.79 5.60141
3621.85 8.76974
3621.90 14.7349
3621.95 23.5883
3622.00 29.4596
3622.05 23.5885
3622.10 14.7355
3622.15 9.26743
3622.20 6.11391
3622.24 4.26207
3622.29 3.11516
3622.39 1.85445
3622.48 1.22389
3622.68 0.647365
3622.87 0.402212
3623.25 0.203903
3623.64 0.128586
3624.40 0.0751967
3625.17 0.0638451
3625.94 0.0755958
3626.71 0.131033
3627.09 0.211507
3627.47 0.431740
3627.67 0.718545
3627.76 0.988052
3627.86 1.44722
3627.95 2.32377
3628.00 3.09418
3628.05 4.31590
3628.10 6.41005
3628.15 10.3947
3628.17 13.8336
3628.19 19.0931
3628.22 27.4195
3628.24 40.2101
3628.26 51.2871
3628.27 64.2201
3628.30 80.4513
3628.32 75.6695
3628.33 64.2193
3628.36 40.2091
3628.39 25.3455
3628.42 16.6142
3628.45 11.5241
3628.47 8.47562
3628.50 6.40874
3628.53 5.00251
3628.59 3.30056
3628.65 2.32194
3628.70 1.72892
3628.82 1.06492
3629.05 0.519863
3629.28 0.309828
3629.74 0.148970
3630.19 0.0895957
3631.11 0.0452949
3632.03 0.0291654
3633.86 0.0172271
3635.70 0.0129773
3639.37 0.0102696
3643.04 0.0100662
3646.71 0.0110828
3650.38 0.0134279
3654.05 0.0195043
3655.88 0.0333463
3656.80 0.0766257
3657.26 0.214053
3657.49 0.581038
3657.60 1.30759
3657.66 2.25548
3657.72 4.40396
3657.76 7.00830
3657.80 8.78412
3657.84 7.00852
3657.88 4.40435
3657.94 2.18572
3658.00 1.24356
3658.12 0.543775
3658.36 0.200245
3658.85 0.0753791
3659.81 0.0392964
3661.74 0.0346451
3663.67 0.0413436
3665.60 0.0544201
3667.53 0.0783389
3668.50 0.0985364
3669.46 0.130351
3670.43 0.187692
3670.91 0.237982
3671.39 0.321251
3671.87 0.482950
3672.12 0.632590
3672.36 0.889949
3672.60 1.40222
3672.72 1.87704
3672.84 2.67054
3672.96 4.18088
3673.02 5.48525
3673.08 7.53120
3673.14 11.0631
3673.17 13.7722
3673.20 17.5717
3673.23 23.0791
3673.26 31.3444
3673.29 44.1240
3673.32 63.9621
3673.34 82.0574
3673.36 102.721
3673.40 127.702
3673.42 120.025
3673.44 101.694
3673.48 63.9740
3673.51 42.0911
3673.55 28.8114
3673.58 20.6471
3673.61 15.5410
3673.68 9.59712
3673.75 6.51428
3673.82 4.71166
3673.88 3.60361
3674.02 2.35471
3674.15 1.70801
3674.29 1.34142
3674.56 0.974308
3674.82 0.826213
3675.09 0.778945
3675.63 0.851066
3676.17 1.11430
3676.71 1.67558
3676.98 2.16357
3677.24 2.89966
3677.51 4.03697
3677.78 5.78702
3678.14 9.22047
3678.50 11.5002
3678.86 9.20534
3679.22 5.77909
3679.59 3.51662
3679.97 2.28086
3680.34 1.58444
3680.72 1.16838
3681.09 0.907145
3681.46 0.738021
3682.21 0.561961
3682.96 0.537273
3683.33 0.592953
3683.71 0.734143
3684.08 1.06556
3684.27 1.39419
3684.45 1.96995
3684.64 3.09965
3684.74 4.12253
3684.83 5.76307
3684.92 8.69692
3685.02 14.4914
3685.06 19.8073
3685.11 28.1641
3685.16 42.6225
3685.18 53.2469
3685.20 67.5890
3685.25 108.167
3685.30 134.989
3685.35 108.161
3685.40 67.5788
3685.46 38.1229
3685.52 23.4540
3685.57 15.6099
3685.63 11.0577
3685.69 8.17997
3685.75 6.31587
3685.86 4.09240
3685.98 2.86497
3686.10 2.12951
3686.33 1.31945
3686.56 0.908415
3686.80 0.670932
3687.26 0.419651
3687.73 0.294854
3688.19 0.222870
3689.13 0.145527
3690.06 0.105707
3690.99 0.0817961
3692.85 0.0547795
3694.72 0.0401145
3696.58 0.0310415
3700.31 0.0206814
3704.04 0.0152571
3707.76 0.0125322
3711.49 0.0140982
3713.36 0.0277537
3714.29 0.0797793
3714.75 0.251140
3714.87 0.396836
3714.99 0.717294
3715.10 1.64260
3715.16 2.87345
3715.22 5.65899
3715.26 9.09181
3715.30 11.3050
3715.34 9.00267
3715.38 5.65905
3715.44 2.96780
3715.49 1.74638
3715.60 0.785362
3715.71 0.440225
3715.81 0.281338
3716.25 0.0894796
3717.11 0.0295098
3718.84 0.0124497
3722.30 0.00768311
3725.76 0.00845289
3727.49 0.0163510
3728.36 0.0460108
3728.79 0.141905
3729.00 0.395107
3729.11 0.880490
3729.17 1.50057
3729.22 2.85571
3729.26 4.57693
3729.30 5.70527
3729.34 4.57696
3729.38 2.85574
3729.44 1.43704
3729.50 0.813712
3729.62 0.354367
3729.85 0.124311
3730.32 0.0399314
3731.26 0.0141148
3733.14 0.00684046
3736.90 0.00491602
3740.66 0.00590555
3742.54 0.0117419
3743.48 0.0333476
3743.95 0.104379
3744.19 0.298236
3744.30 0.685461
3744.36 1.21115
3744.42 2.41148
3744.46 3.86275
3744.50 4.81705
3744.54 3.86279
3744.58 2.41152
3744.64 1.19826
3744.70 0.673804
3744.82 0.289647
3745.06 0.100863
3745.54 0.0322209
3746.50 0.0113215
3748.42 0.00559607
3752.25 0.00446233
3756.09 0.00621227
3758.00 0.0131831
3758.96 0.0379202
3759.44 0.118762
3759.68 0.340795
3759.80 0.791983
3759.86 1.40670
3759.92 2.80598
3759.96 4.50803
3760.00 5.60998
3760.04 4.50809
3760.08 2.80607
3760.14 1.42195
3760.20 0.812806
3760.31 0.353152
3760.55 0.124437
3761.01 0.0401739
3761.95 0.0146796
3763.81 0.00849476
3765.67 0.00875257
3767.54 0.0113203
3769.40 0.0176881
3770.33 0.0241897
3771.27 0.0360754
3772.20 0.0612476
3773.13 0.130134
3773.60 0.221229
3774.06 0.459358
3774.29 0.756715
3774.41 1.02822
3774.53 1.47033
3774.64 2.27607
3774.70 2.93920
3774.76 3.92873
3774.82 5.52001
3774.88 8.15657
3774.94 12.9015
3774.96 16.6617
3774.99 21.7888
3775.05 34.9907
3775.10 43.5745
3775.15 34.7291
3775.21 21.7878
3775.25 14.3129
3775.30 9.77370
3775.35 6.98136
3775.39 5.19122
3775.48 3.15642
3775.58 2.10609
3775.67 1.50023
3775.76 1.12108
3775.94 0.694367
3776.13 0.470710
3776.31 0.340002
3776.68 0.201597
3777.05 0.133396
3777.41 0.0950527
3778.15 0.0556267
3778.88 0.0367930
3779.62 0.0263748
3781.09 0.0158623
3782.56 0.0109408
3784.02 0.00827562
3786.96 0.00573971
3789.90 0.00491293
3792.84 0.00551449
3795.78 0.0119182
3797.25 0.0373119
3797.98 0.127051
3798.17 0.208741
3798.35 0.404669
3798.44 0.627136
3798.54 1.09244
3798.63 2.29500
3798.67 3.68732
3798.72 6.35189
3798.76 10.1215
3798.80 12.7014
3798.84 10.1216
3798.88 6.35200
3798.91 4.37771
3798.94 3.13174
3799.00 1.76906
3799.12 0.757350
3799.24 0.413473
3799.37 0.259460
3799.85 0.0782244
3800.82 0.0229826
3802.75 0.00769735
3806.62 0.00366687
3814.35 0.00307768
3822.08 0.00598545
3825.95 0.0179534
3826.92 0.0300083
3827.88 0.0632130
3828.37 0.107803
3828.85 0.226684
3829.09 0.379711
3829.33 0.760619
3829.45 1.21213
3829.58 2.21450
3829.64 3.25105
3829.70 5.12801
3829.73 6.68786
3829.76 8.98840
3829.79 12.4688
3829.82 17.8264
3829.86 28.4666
3829.90 35.6512
3829.94 28.4668
3829.98 17.8267
3830.02 11.9159
3830.05 8.28160
3830.09 5.99363
3830.12 4.50048
3830.19 2.77271
3830.26 1.86547
3830.39 0.998776
3830.53 0.621143
3830.80 0.305979
3831.08 0.181935
3831.62 0.0863633
3832.17 0.0509674
3834.35 0.0154933
3838.71 0.00803355
3840.89 0.00957851
3843.08 0.0165669
3844.17 0.0268684
3845.26 0.0560962
3845.80 0.0961152
3846.35 0.205593
3846.62 0.350984
3846.90 0.732964
3847.03 1.21554
3847.10 1.65338
3847.17 2.37569
3847.24 3.68876
3847.30 6.43588
3847.34 9.06337
3847.37 13.5430
3847.39 17.0072
3847.41 21.7879
3847.42 28.4620
3847.44 37.9092
3847.46 48.3552
3847.47 60.5514
3847.50 75.8579
3847.52 71.3486
3847.53 60.5508
3847.56 37.9085
3847.59 22.4613
3847.62 14.2633
3847.66 9.57526
3847.69 6.87690
3847.75 3.96896
3847.82 2.56613
3847.88 1.79029
3847.95 1.31835
3848.08 0.801870
3848.34 0.385579
3848.60 0.226194
3849.11 0.105543
3849.63 0.0613580
3850.67 0.0288442
3851.70 0.0171839
3853.78 0.00870439
3855.85 0.00569435
3859.99 0.00355273
3864.14 0.00288544
3872.43 0.00309876
3876.57 0.00542724
3878.65 0.0141952
3879.68 0.0459618
3880.20 0.151537
3880.46 0.447106
3880.59 1.07102
3880.65 1.95874
3880.72 4.13414
3880.76 6.58876
3880.80 8.26247
3880.84 6.58883
3880.88 4.13423
3880.95 1.87927
3881.02 1.01183
3881.15 0.416734
3881.43 0.139275
3881.97 0.0421376
3883.06 0.0133349
3885.25 0.00563207
3889.61 0.00410794
3893.98 0.00461156
3898.34 0.00606904
3902.71 0.00927128
3904.89 0.0123841
3907.08 0.0179156
3908.17 0.0224918
3909.26 0.0293879
3910.35 0.0405802
3911.44 0.0606634
3912.53 0.102848
3913.08 0.144219
3913.63 0.218326
3914.17 0.372811
3914.44 0.522237
3914.72 0.784335
3914.99 1.31394
3915.13 1.80992
3915.26 2.64212
3915.40 4.22473
3915.47 5.58985
3915.54 7.72438
3915.60 11.3101
3915.64 14.0751
3915.67 17.9266
3915.71 23.4605
3915.74 31.6713
3915.77 44.1836
3915.81 63.2851
3915.85 101.685
3915.90 126.558
3915.92 118.656
3915.95 100.812
3915.99 63.2831
3916.04 39.5324
3916.08 26.2110
3916.13 18.3355
3916.17 13.4313
3916.22 10.1561
3916.26 7.96839
3916.35 5.26077
3916.44 3.70881
3916.52 2.76049
3916.70 1.69837
3916.88 1.14773
3917.05 0.828333
3917.23 0.626973
3917.41 0.492674
3917.76 0.328690
3918.11 0.237321
3918.47 0.181275
3918.82 0.144900
3919.53 0.102816
3920.24 0.0818123
3921.65 0.0691722
3923.06 0.0839393
3923.77 0.106569
3924.48 0.151343
3925.18 0.249127
3925.54 0.345931
3925.89 0.518442
3926.25 0.873197
3926.42 1.20980
3926.60 1.78513
3926.78 2.90586
3926.86 3.90083
3926.95 5.50241
3927.04 8.35224
3927.08 10.6284
3927.13 13.9327
3927.17 18.9428
3927.22 26.9229
3927.24 32.7105
3927.26 40.2669
3927.28 50.1687
3927.30 63.2229
3927.35 101.044
3927.40 126.478
3927.42 118.989
3927.45 101.042
3927.50 63.2204
3927.54 39.4901
3927.59 25.8023
3927.64 17.8572
3927.68 12.9785
3927.73 9.81312
3927.78 7.65952
3927.87 5.03973
3927.96 3.54533
3928.06 2.62631
3928.25 1.60867
3928.43 1.08343
3928.62 0.780692
3928.81 0.589605
3928.99 0.461354
3929.37 0.304965
3929.74 0.217311
3930.12 0.163020
3930.49 0.127227
3931.24 0.0841738
3931.99 0.0602984
3932.74 0.0456370
3933.49 0.0359686
3934.99 0.0243630
3936.49 0.0179029
3939.48 0.0112915
3942.48 0.00814607
3945.48 0.00643706
3951.47 0.00489607
3957.46 0.00462272
3963.46 0.00550893
3966.45 0.00687871
3969.45 0.0103961
3970.95 0.0148988
3972.45 0.0269567
3973.20 0.0431339
3973.95 0.0875234
3974.32 0.147203
3974.69 0.307190
3974.88 0.515978
3975.07 1.04427
3975.16 1.68525
3975.26 3.12941
3975.30 4.66809
3975.35 7.62016
3975.37 10.2569
3975.40 14.1524
3975.42 20.3226
3975.44 30.1738
3975.47 48.6116
3975.50 60.3398
3975.52 56.4321
3975.53 47.9338
3975.56 30.1734
3975.58 21.7269
3975.60 15.9776
3975.63 9.48923
3975.67 6.16956
3975.71 4.29808
3975.78 2.40823
3975.85 1.53221
3976.00 0.772578
3976.15 0.466765
3976.45 0.225301
3976.75 0.134393
3977.34 0.0665747
3977.93 0.0422895
3979.12 0.0253765
3980.31 0.0204699
3982.68 0.0204466
3985.06 0.0273463
3986.25 0.0341365
3987.43 0.0448975
3988.62 0.0628668
3989.81 0.0956872
3990.40 0.123279
3991.00 0.165215
3991.59 0.233412
3992.18 0.355038
3992.78 0.605778
3993.08 0.844957
3993.37 1.25964
3993.67 2.07356
3993.82 2.81378
3993.97 4.01772
3994.04 4.94156
3994.12 6.19738
3994.19 7.98559
3994.26 10.6419
3994.34 14.7955
3994.41 21.6983
3994.45 26.9066
3994.49 33.9391
3994.52 43.5091
3994.56 56.4237
3994.63 90.5319
3994.70 112.843
3994.77 90.0165
3994.84 56.4204
3994.88 41.7477
3994.93 31.4159
3995.01 19.1380
3995.10 12.6403
3995.18 8.89595
3995.27 6.55087
3995.35 5.02773
3995.52 3.21872
3995.69 2.22687
3995.86 1.63295
3996.21 0.982997
3996.55 0.655690
3996.89 0.468284
3997.23 0.351135
3997.57 0.273077
3998.25 0.178805
3998.93 0.126221
3999.62 0.0939323
4000.30 0.0726934
4001.66 0.0473712
4003.03 0.0334217
4004.39 0.0249255
4005.75 0.0193680
4008.48 0.0127759
4011.21 0.00916038
4013.94 0.00696383
4016.67 0.00552974
4022.12 0.00383439
4027.58 0.00291391
4038.49 0.00203123
4049.40 0.00171879
4060.31 0.00179310
4065.77 0.00207883
4071.22 0.00288198
4073.95 0.00390193
4076.68 0.00653927
4078.04 0.00997662
4079.41 0.0192656
4080.09 0.0317264
4080.77 0.0657168
4081.11 0.110919
4081.45 0.230731
4081.63 0.383938
4081.80 0.760385
4081.88 1.19762
4081.97 2.14481
4082.01 3.10144
4082.05 4.76620
4082.09 8.12371
4082.11 10.9555
4082.14 15.0652
4082.17 24.2498
4082.20 30.1259
4082.23 23.9530
4082.27 15.0650
4082.29 10.1804
4082.32 7.20198
4082.37 4.00866
4082.42 2.48441
4082.47 1.68966
4082.57 0.915765
4082.67 0.572216
4082.87 0.284763
4083.07 0.171377
4083.48 0.0833546
4083.88 0.0510274
4084.69 0.0281097
4085.49 0.0220111
4087.11 0.0360703
4087.91 0.105893
4088.32 0.329477
4088.42 0.512706
4088.52 0.905107
4088.62 1.96624
4088.67 3.24655
4088.72 5.90671
4088.76 9.40897
4088.80 11.8059
4088.84 9.40904
4088.88 5.90679
4088.92 3.58879
4088.97 2.30790
4089.05 1.14171
4089.22 0.438640
4089.55 0.143275
4090.23 0.0460939
4091.57 0.0192908
4092.91 0.0163355
4094.26 0.0194669
4095.60 0.0298037
4096.27 0.0408163
4096.95 0.0611976
4097.62 0.104701
4098.29 0.224688
4098.63 0.384644
4098.96 0.807701
4099.13 1.34380
4099.21 1.83696
4099.30 2.65834
4099.38 4.17315
4099.42 5.45723
4099.47 7.41869
4099.51 10.6060
4099.55 16.2014
4099.57 20.6519
4099.59 26.9485
4099.61 35.9948
4099.63 48.4113
4099.65 61.7767
4099.67 77.3419
4099.70 96.8672
4099.72 91.1161
4099.73 77.3410
4099.77 48.4103
4099.80 31.2737
4099.83 20.9032
4099.86 14.6983
4099.89 10.9049
4099.95 6.56484
4100.01 4.35347
4100.07 3.08821
4100.13 2.30076
4100.26 1.41572
4100.38 0.954486
4100.50 0.688315
4100.75 0.406375
4100.99 0.267698
4101.23 0.189999
4101.72 0.110205
4102.21 0.0721000
4102.70 0.0510617
4103.68 0.0297633
4104.65 0.0197386
4105.63 0.0142422
4107.59 0.00872733
4109.54 0.00616515
4111.49 0.00479323
4115.40 0.00354524
4123.22 0.00398332
4125.17 0.00530871
4127.13 0.00922075
4128.11 0.0146552
4129.08 0.0298124
4129.57 0.0503829
4130.06 0.106119
4130.30 0.179574
4130.55 0.368696
4130.67 0.601194
4130.79 1.14671
4130.85 1.74262
4130.91 2.93313
4130.98 5.76366
4131.01 8.80632
4131.04 14.0811
4131.07 22.4431
4131.10 28.1599
4131.13 22.4429
4131.16 14.0809
4131.18 10.3775
4131.20 7.84899
4131.24 4.73753
4131.28 3.10973
4131.32 2.17941
4131.40 1.22922
4131.47 0.788601
4131.63 0.400783
4131.78 0.241925
4132.09 0.116174
4132.40 0.0685043
4133.03 0.0326392
4133.65 0.0196247
4134.89 0.0101336
4136.13 0.00682098
4138.61 0.00466716
4141.09 0.00437739
4146.05 0.00836400
4148.54 0.0255918
4149.78 0.0895218
4150.09 0.150664
4150.40 0.308186
4150.55 0.501321
4150.71 0.952721
4150.79 1.44780
4150.86 2.41811
4150.90 3.30564
4150.94 4.73356
4150.98 7.15300
4151.02 11.2874
4151.06 18.0936
4151.10 22.5727
4151.14 18.0937
4151.18 11.2876
4151.23 6.83928
4151.27 4.42145
4151.31 3.03875
4151.35 2.19821
4151.44 1.28281
4151.52 0.838941
4151.69 0.435646
4151.86 0.265995
4152.20 0.129257
4152.53 0.0766846
4153.89 0.0222013
4156.59 0.00771361
4161.99 0.00446773
4167.40 0.00474576
4172.80 0.00636159
4175.50 0.00788135
4178.21 0.0102626
4180.91 0.0142111
4183.61 0.0213890
4184.96 0.0273988
4186.31 0.0364938
4187.66 0.0512153
4189.02 0.0773613
4190.37 0.130677
4191.04 0.181054
4191.72 0.267264
4192.39 0.433713
4192.73 0.581652
4193.07 0.818175
4193.41 1.23164
4193.74 2.04026
4193.91 2.75880
4194.08 3.89101
4194.25 5.75621
4194.42 8.85335
4194.61 14.1793
4194.80 17.7043
4194.99 14.1480
4195.18 8.85186
4195.40 5.13617
4195.61 3.20126
4195.83 2.14598
4196.04 1.52780
4196.26 1.13668
4196.47 0.877576
4196.90 0.565960
4197.33 0.394280
4197.76 0.290110
4198.61 0.175769
4199.47 0.117789
4200.33 0.0845186
4201.19 0.0636734
4202.05 0.0497664
4203.76 0.0329604
4205.48 0.0236206
4207.20 0.0179329
4208.91 0.0142680
4212.35 0.0102512
4215.78 0.00922479
4217.50 0.0104127
4219.21 0.0154589
4220.07 0.0230548
4220.93 0.0447369
4221.36 0.0743606
4221.79 0.155097
4222.00 0.261570
4222.22 0.535850
4222.32 0.877896
4222.43 1.67833
4222.49 2.56779
4222.54 4.32135
4222.57 5.95498
4222.59 8.62355
4222.62 13.2401
4222.65 21.2454
4222.67 34.1273
4222.70 42.5123
4222.73 34.1270
4222.75 21.2451
4222.78 13.4673
4222.81 8.88302
4222.83 6.18848
4222.86 4.51895
4222.91 2.68330
4222.96 1.76499
4223.07 0.924993
4223.17 0.567287
4223.38 0.276518
4223.59 0.164309
4224.00 0.0782044
4224.42 0.0465366
4225.25 0.0230398
4226.08 0.0145313
4227.74 0.00820966
4229.40 0.00585498
4232.72 0.00399849
4236.04 0.00324388
4242.69 0.00265149
4249.33 0.00256715
4255.98 0.00289914
4259.30 0.00331939
4262.62 0.00409547
4265.94 0.00569385
4269.27 0.00993521
4270.93 0.0155521
4272.59 0.0308737
4273.42 0.0515095
4274.25 0.107608
4274.66 0.181989
4275.08 0.376651
4275.29 0.621692
4275.49 1.21111
4275.60 1.88188
4275.70 3.28968
4275.75 4.64047
4275.81 6.95049
4275.86 11.2169
4275.88 14.6770
4275.91 19.2615
4275.96 30.9508
4276.00 38.5179
4276.05 30.6794
4276.09 19.2610
4276.14 12.0368
4276.18 7.91407
4276.22 5.50241
4276.27 4.01279
4276.36 2.37936
4276.44 1.57089
4276.53 1.10772
4276.62 0.822242
4276.79 0.505589
4276.97 0.341823
4277.14 0.247405
4277.49 0.147843
4277.85 0.0992083
4278.20 0.0720510
4278.90 0.0446597
4280.30 0.0258470
4281.70 0.0217766
4283.11 0.0252652
4284.51 0.0424296
4285.21 0.0674830
4285.91 0.136607
4286.26 0.228061
4286.61 0.464933
4286.79 0.760166
4286.96 1.45654
4287.05 2.23154
4287.14 3.78311
4287.18 5.23070
4287.23 7.61142
4287.27 11.7684
4287.31 19.0180
4287.36 30.5642
4287.40 38.0286
4287.44 30.2840
4287.49 19.0175
4287.53 11.7679
4287.57 7.68139
4287.62 5.31397
4287.66 3.86187
4287.75 2.28005
4287.83 1.49534
4288.00 0.782113
4288.17 0.481182
4288.35 0.325686
4288.52 0.235674
4288.86 0.141199
4289.21 0.0950244
4289.55 0.0692293
4290.24 0.0428930
4291.61 0.0238566
4292.98 0.0176060
4298.48 0.0183099
4299.85 0.0221622
4301.23 0.0285105
4302.60 0.0393183
4303.98 0.0593020
4304.66 0.0761933
4305.35 0.101974
4306.04 0.144102
4306.72 0.219895
4307.41 0.377547
4307.75 0.529867
4308.10 0.796414
4308.44 1.33149
4308.61 1.82685
4308.78 2.65132
4308.87 3.29235
4308.96 4.19371
4309.04 5.51481
4309.13 7.55445
4309.17 9.01254
4309.21 10.9190
4309.26 13.4674
4309.30 16.9586
4309.34 21.8701
4309.39 28.9635
4309.43 39.4133
4309.47 54.3336
4309.54 87.2014
4309.60 108.663
4309.63 101.988
4309.67 86.6597
4309.73 54.3310
4309.79 35.2921
4309.84 23.8907
4309.90 16.9571
4309.96 12.5503
4310.07 7.58335
4310.18 5.05638
4310.30 3.59008
4310.41 2.68265
4310.64 1.65403
4310.87 1.11967
4311.09 0.807599
4311.32 0.609836
4311.55 0.476739
4312.00 0.314355
4312.45 0.222865
4312.91 0.166302
4313.36 0.128914
4314.27 0.0841203
4315.18 0.0593299
4316.09 0.0441863
4316.99 0.0342614
4318.81 0.0224693
4320.63 0.0159941
4322.44 0.0120588
4324.26 0.00948960
4327.89 0.00645303
4331.52 0.00480345
4338.79 0.00320955
4346.05 0.00261119
4353.32 0.00267392
4356.95 0.00317095
4360.58 0.00480448
4362.40 0.00713706
4364.21 0.0137538
4365.12 0.0228799
4366.03 0.0483261
4366.48 0.0828491
4366.94 0.176791
4367.16 0.300309
4367.39 0.620577
4367.50 1.01897
4367.62 1.95272
4367.67 2.99151
4367.73 5.10086
4367.76 7.09563
4367.79 10.2602
4367.82 15.7295
4367.84 25.7846
4367.87 41.3272
4367.90 51.5365
4367.93 41.3269
4367.96 25.7842
4367.98 18.5893
4367.99 13.6194
4368.03 7.94158
4368.07 5.10066
4368.11 3.52346
4368.18 1.95259
4368.26 1.24016
4368.41 0.622916
4368.56 0.373345
4368.86 0.177500
4369.17 0.103757
4369.77 0.0485502
4370.37 0.0285162
4371.58 0.0138791
4372.79 0.00869163
4375.21 0.00500389
4377.62 0.00379015
4387.29 0.00357859
4392.12 0.00491226
4394.54 0.00631751
4396.96 0.00888429
4399.37 0.0143191
4400.58 0.0196812
4401.79 0.0293931
4403.00 0.0499807
4403.60 0.0702984
4404.21 0.107009
4404.81 0.184109
4405.11 0.259351
4405.41 0.393276
4405.72 0.667463
4405.87 0.927475
4406.02 1.37541
4406.17 2.24594
4406.24 3.03253
4406.32 4.28932
4406.40 6.54267
4406.43 8.37844
4406.47 10.9871
4406.51 15.0832
4406.55 21.7247
4406.57 26.6206
4406.58 33.0996
4406.60 41.7157
4406.62 52.8623
4406.64 67.4268
4406.66 84.6850
4406.70 105.675
4406.72 99.2075
4406.74 84.6838
4406.78 52.8611
4406.81 36.4304
4406.84 25.7541
4406.87 18.8743
4406.90 14.3043
4406.96 8.92236
4407.02 6.08467
4407.08 4.37683
4407.14 3.30786
4407.26 2.06758
4407.37 1.41203
4407.49 1.02491
4407.73 0.610382
4407.97 0.404483
4408.21 0.288471
4408.68 0.168813
4409.16 0.111552
4409.64 0.0800024
4410.59 0.0483953
4411.54 0.0340646
4412.50 0.0268558
4414.40 0.0221322
4416.31 0.0260219
4417.26 0.0325782
4418.21 0.0457863
4419.17 0.0751141
4419.64 0.104532
4420.12 0.157758
4420.60 0.269628
4421.07 0.569819
4421.31 0.957642
4421.43 1.32050
4421.55 1.93621
4421.67 3.10481
4421.73 4.13651
4421.79 5.73559
4421.85 8.50216
4421.88 10.6699
4421.90 13.6132
4421.93 18.0404
4421.96 24.7588
4421.99 35.2915
4422.02 51.6934
4422.04 66.3455
4422.06 82.8149
4422.10 103.337
4422.12 97.3077
4422.14 82.8138
4422.18 51.6921
4422.21 35.2904
4422.24 24.7578
4422.27 18.0395
4422.30 13.7337
4422.36 8.50146
4422.41 5.76947
4422.47 4.13589
4422.53 3.11811
4422.65 1.94246
4422.77 1.32371
4422.89 0.959316
4423.13 0.571166
4423.37 0.378287
4423.60 0.269187
4424.08 0.156898
4424.55 0.103020
4425.03 0.0731772
4425.98 0.0428554
4426.93 0.0285258
4427.88 0.0206192
4429.78 0.0126172
4431.69 0.00883409
4433.59 0.00674639
4437.39 0.00465429
4441.20 0.00371728
4445.00 0.00327747
4452.61 0.00314262
4460.21 0.00376890
4464.02 0.00448988
4467.82 0.00573257
4471.63 0.00806317
4473.53 0.0101020
4475.43 0.0134170
4477.33 0.0196382
4479.23 0.0348903
4480.18 0.0541777
4481.13 0.105307
4481.61 0.173032
4482.09 0.354267
4482.32 0.590844
4482.56 1.19508
4482.68 1.93615
4482.74 2.60449
4482.80 3.66389
4482.86 5.55795
4482.92 9.23951
4482.95 12.6021
4482.98 17.7581
4483.01 26.6394
4483.02 33.2392
4483.04 41.1643
4483.05 53.2694
4483.07 66.2541
4483.10 82.3063
4483.12 77.0381
4483.13 65.4436
4483.17 41.1641
4483.20 24.1211
4483.24 15.1416
4483.27 10.2015
4483.31 7.27973
4483.38 4.20237
4483.45 2.72199
4483.53 1.90465
4483.60 1.40808
4483.74 0.862592
4484.03 0.427620
4484.32 0.263035
4484.89 0.141125
4485.47 0.100322
4486.62 0.0822191
4487.77 0.0987657
4488.92 0.153626
4489.49 0.211136
4490.07 0.315712
4490.64 0.532869
4490.93 0.741214
4491.22 1.10193
4491.51 1.81435
4491.65 2.46184
4491.79 3.51639
4491.94 5.43083
4492.01 7.01851
4492.08 9.39077
4492.15 13.1295
4492.22 19.4107
4492.26 24.1983
4492.30 30.7185
4492.33 39.6767
4492.37 51.4898
4492.43 82.6268
4492.50 102.971
4492.53 96.6540
4492.57 82.1287
4492.63 51.4871
4492.71 30.0908
4492.78 18.9598
4492.85 12.8046
4492.93 9.15001
4493.00 6.83457
4493.07 5.28633
4493.22 3.42091
4493.36 2.38846
4493.51 1.76006
4493.80 1.06826
4494.10 0.715843
4494.39 0.513744
4494.68 0.386867
4494.97 0.302055
4495.56 0.199164
4496.14 0.141716
4496.73 0.106326
4497.31 0.0830841
4498.48 0.0554221
4499.65 0.0403713
4500.82 0.0314905
4501.98 0.0260982
4506.66 0.0261209
4507.83 0.0364568
4509.00 0.0681192
4509.58 0.112333
4510.17 0.234027
4510.46 0.395529
4510.75 0.819123
4510.90 1.35001
4510.97 1.83364
4511.04 2.63062
4511.12 4.07698
4511.19 7.09407
4511.23 10.0203
4511.26 14.8538
4511.28 18.7968
4511.30 23.9548
4511.32 31.0913
4511.34 40.8911
4511.35 52.9202
4511.37 65.8234
4511.40 81.7748
4511.42 76.5395
4511.43 65.0176
4511.47 40.8903
4511.49 30.1783
4511.50 22.9749
4511.54 14.0077
4511.58 9.25612
4511.62 6.57110
4511.70 3.74382
4511.77 2.40374
4511.85 1.66300
4511.93 1.22244
4512.08 0.740140
4512.39 0.355643
4512.70 0.209543
4513.01 0.138875
4513.32 0.0993921
4513.94 0.0590879
4514.56 0.0399206
4515.17 0.0292879
4516.41 0.0184377
4517.65 0.0132262
4518.88 0.0102848
4521.35 0.00719480
4523.82 0.00564946
4526.30 0.00475582
4531.24 0.00383311
4551.01 0.00390973
4555.95 0.00459322
4560.90 0.00574430
4565.84 0.00772833
4570.78 0.0114272
4573.25 0.0145715
4575.73 0.0193914
4578.20 0.0273226
4580.67 0.0417284
4581.90 0.0538215
4583.14 0.0722142
4584.38 0.102185
4585.61 0.155904
4586.23 0.200451
4586.85 0.267368
4587.47 0.374563
4588.08 0.562157
4588.70 0.935896
4589.01 1.27990
4589.32 1.85327
4589.47 2.29629
4589.63 2.91193
4589.78 3.81403
4589.94 5.18498
4590.09 7.43236
4590.17 9.10326
4590.25 11.3645
4590.32 14.4979
4590.40 18.9403
4590.48 25.3425
4590.55 34.5281
4590.68 55.2880
4590.80 69.1451
4590.92 55.2847
4591.05 34.5248
4591.18 20.5328
4591.31 13.0227
4591.44 8.83215
4591.57 6.32908
4591.71 4.73664
4591.84 3.66870
4592.10 2.37824
4592.37 1.66207
4592.63 1.22541
4593.16 0.743973
4593.69 0.499041
4594.21 0.357917
4594.74 0.269343
4595.27 0.210173
4596.33 0.138601
4597.38 0.0987351
4598.44 0.0744358
4599.49 0.0587397
4601.61 0.0414494
4603.72 0.0367314
4604.77 0.0413331
4605.83 0.0614042
4606.36 0.0914180
4606.89 0.175804
4607.15 0.288557
4607.41 0.585210
4607.55 0.957754
4607.68 1.85830
4607.74 2.87773
4607.81 5.01027
4607.84 7.04907
4607.88 10.5222
4607.91 16.9023
4607.93 21.8703
4607.94 29.0231
4607.97 46.5071
4608.00 57.9973
4608.03 46.5066
4608.06 29.0225
4608.08 21.1578
4608.10 15.8907
4608.13 9.60946
4608.17 6.25328
4608.20 4.39748
4608.28 2.47697
4608.35 1.58177
4608.50 0.805530
4608.64 0.489068
4608.93 0.239198
4609.23 0.144505
4609.81 0.0730100
4610.39 0.0466324
4611.56 0.0267151
4612.73 0.0191480
4615.07 0.0131621
4617.40 0.0111144
4619.74 0.0112455
4622.07 0.0152979
4623.24 0.0220415
4624.41 0.0417770
4624.99 0.0690915
4625.57 0.144487
4625.87 0.245051
4626.16 0.511131
4626.30 0.848415
4626.45 1.67572
4626.52 2.62934
4626.60 4.67303
4626.63 6.71589
4626.67 10.2039
4626.71 16.8392
4626.72 22.3780
4626.74 30.2451
4626.77 48.7167
4626.80 60.4852
4626.82 56.8132
4626.83 48.0603
4626.86 30.2446
4626.88 19.9846
4626.91 13.9054
4626.93 9.94914
4626.96 7.48856
4627.01 4.58936
4627.06 3.07749
4627.15 1.64791
4627.25 1.02192
4627.45 0.503027
4627.64 0.299713
4628.03 0.142074
4628.43 0.0836807
4629.21 0.0402002
4629.99 0.0244607
4631.56 0.0128458
4633.12 0.00859498
4636.25 0.00533791
4639.38 0.00404958
4645.64 0.00297498
4651.90 0.00258185
4658.16 0.00256354
4664.42 0.00310794
4667.55 0.00396569
4670.68 0.00631567
4672.25 0.00944234
4673.81 0.0179820
4674.60 0.0295393
4675.38 0.0613239
4675.77 0.104208
4676.16 0.219608
4676.36 0.370286
4676.55 0.752919
4676.65 1.21915
4676.75 2.29452
4676.80 3.44524
4676.85 5.68404
4676.87 7.71221
4676.90 10.7611
4676.92 15.6941
4676.94 24.0827
4676.97 38.5982
4677.00 48.1328
4677.03 38.5980
4677.06 24.0825
4677.08 16.7833
4677.10 11.9573
4677.14 6.71057
4677.18 4.21178
4677.22 2.89106
4677.31 1.57178
4677.39 0.987722
4677.56 0.491486
4677.72 0.293900
4678.06 0.140541
4678.39 0.0833983
4679.06 0.0411915
4679.73 0.0264122
4681.06 0.0170825
4682.40 0.0166304
4683.73 0.0223739
4685.07 0.0427126
4685.74 0.0716059
4686.40 0.151733
4686.74 0.259148
4687.07 0.544856
4687.24 0.909396
4687.40 1.81225
4687.49 2.87435
4687.57 5.16004
4687.61 7.47411
4687.65 11.5083
4687.68 14.8500
4687.70 19.6792
4687.72 26.7954
4687.74 36.6511
4687.75 47.0914
4687.77 59.0115
4687.80 73.2987
4687.82 68.8574
4687.83 58.2664
4687.86 36.6504
4687.89 25.5996
4687.91 18.6113
4687.93 13.7702
4687.95 10.6283
4688.00 6.74084
4688.04 4.65471
4688.13 2.56501
4688.22 1.61546
4688.40 0.804494
4688.58 0.481265
4688.93 0.228030
4689.29 0.133254
4690.00 0.0621991
4690.72 0.0364549
4692.14 0.0175744
4693.57 0.0108129
4696.43 0.00590468
4699.28 0.00419288
4704.99 0.00312493
4710.69 0.00312229
4716.40 0.00389232
4719.26 0.00478652
4722.11 0.00645280
4724.96 0.0100089
4726.39 0.0135290
4727.82 0.0199111
4729.24 0.0334645
4729.96 0.0468935
4730.67 0.0711927
4731.38 0.122543
4731.74 0.172941
4732.10 0.262880
4732.45 0.449199
4732.81 0.936763
4732.99 1.55304
4733.08 2.11316
4733.17 3.03778
4733.26 4.72026
4733.30 6.14602
4733.34 8.24586
4733.39 11.6724
4733.43 17.3940
4733.46 22.0413
4733.48 28.2072
4733.50 36.7992
4733.52 48.8803
4733.54 62.7862
4733.56 78.1055
4733.60 97.7984
4733.62 91.7164
4733.64 78.1045
4733.68 48.8792
4733.71 33.7483
4733.74 23.7884
4733.77 17.3934
4733.80 13.2747
4733.86 8.30476
4733.91 5.64105
4733.97 4.04595
4734.03 3.05125
4734.15 1.90820
4734.27 1.29975
4734.39 0.943968
4734.63 0.561436
4734.86 0.372223
4735.10 0.265120
4735.57 0.154888
4736.05 0.102074
4736.52 0.0728711
4737.47 0.0435383
4738.42 0.0300083
4739.36 0.0229330
4741.26 0.0171075
4743.15 0.0174279
4745.05 0.0262812
4746.00 0.0403906
4746.94 0.0807891
4747.42 0.135962
4747.89 0.286085
4748.13 0.483034
4748.36 0.991507
4748.48 1.62016
4748.60 3.08116
4748.66 4.66975
4748.72 7.82396
4748.75 10.7329
4748.78 15.2376
4748.81 23.1030
4748.82 29.0185
4748.84 36.1822
4748.85 46.4882
4748.87 58.2549
4748.90 72.3583
4748.92 67.9742
4748.93 57.5194
4748.96 36.1816
4748.99 24.1573
4749.02 16.7068
4749.04 12.0458
4749.07 9.01923
4749.12 5.53515
4749.17 3.74107
4749.27 2.01206
4749.38 1.25087
4749.58 0.615650
4749.79 0.366772
4750.20 0.174202
4750.61 0.102787
4751.44 0.0496220
4752.27 0.0304961
4753.92 0.0166755
4755.57 0.0119920
4758.87 0.00950084
4762.17 0.0104961
4765.47 0.0148933
4767.12 0.0196723
4768.77 0.0285014
4770.43 0.0472011
4771.25 0.0654954
4772.08 0.0980090
4772.90 0.164574
4773.73 0.335717
4774.14 0.545588
4774.35 0.732525
4774.55 1.03379
4774.76 1.56612
4774.97 2.61524
4775.07 3.55877
4775.17 5.06424
4775.27 7.58699
4775.38 11.8987
4775.49 19.0698
4775.60 23.7931
4775.71 19.0005
4775.82 11.8977
4775.96 6.70704
4776.09 4.11261
4776.22 2.72817
4776.35 1.92604
4776.49 1.42345
4776.62 1.09453
4776.88 0.702964
4777.15 0.488147
4777.41 0.359011
4777.94 0.217837
4778.47 0.146487
4779.00 0.105629
4779.53 0.0801018
4780.05 0.0631392
4781.11 0.0426715
4782.17 0.0313512
4784.28 0.0200697
4786.40 0.0150936
4788.51 0.0127900
4792.74 0.0121287
4796.97 0.0157719
4799.09 0.0203094
4801.20 0.0289427
4802.26 0.0363013
4803.32 0.0475523
4804.38 0.0660042
4805.43 0.0993124
4806.49 0.169282
4807.02 0.237548
4807.55 0.358753
4808.08 0.607299
4808.34 0.842549
4808.61 1.24759
4808.87 2.03847
4809.00 2.74528
4809.13 3.88957
4809.27 5.91202
4809.33 7.55303
4809.40 9.95282
4809.46 13.6270
4809.53 19.5577
4809.60 29.6557
4809.63 37.2687
4809.66 47.3716
4809.73 75.7346
4809.80 94.7569
4809.87 75.7325
4809.94 47.3696
4809.99 33.5409
4810.03 24.3690
4810.08 18.1377
4810.13 13.9798
4810.23 8.89076
4810.32 6.12494
4810.42 4.44572
4810.52 3.36729
4810.71 2.12318
4810.91 1.45618
4811.10 1.06220
4811.29 0.809390
4811.48 0.637711
4811.87 0.426038
4812.26 0.306052
4812.65 0.231726
4813.03 0.182787
4813.81 0.124593
4814.58 0.0935730
4815.35 0.0761741
4816.13 0.0669518
4817.67 0.0662084
4818.45 0.0762975
4819.22 0.0997584
4819.99 0.154359
4820.38 0.209571
4820.77 0.309136
4821.15 0.516294
4821.35 0.714286
4821.54 1.05842
4821.73 1.74105
4821.83 2.36350
4821.93 3.37627
4822.02 5.22821
4822.07 6.75215
4822.12 9.02884
4822.17 12.7126
4822.22 18.8162
4822.24 23.4797
4822.26 29.8467
4822.29 38.6240
4822.31 50.8086
4822.33 64.8777
4822.36 81.1921
4822.40 101.640
4822.42 95.6190
4822.44 81.1907
4822.49 50.8070
4822.53 30.4734
4822.58 19.4977
4822.63 13.2033
4822.67 9.51325
4822.72 7.10803
4822.77 5.52733
4822.86 3.60484
4822.95 2.52197
4823.04 1.86174
4823.23 1.13646
4823.42 0.764824
4823.60 0.551595
4823.97 0.327135
4824.34 0.217936
4824.71 0.156678
4825.45 0.0939357
4826.20 0.0639129
4826.94 0.0472218
4828.42 0.0302364
4829.91 0.0222360
4831.39 0.0179839
4834.35 0.0146009
4837.32 0.0155565
4838.81 0.0181485
4840.29 0.0236540
4841.77 0.0361181
4842.51 0.0487023
4843.26 0.0716215
4844.00 0.120213
4844.37 0.167964
4844.74 0.253245
4845.11 0.430028
4845.48 0.895409
4845.67 1.48415
4845.76 2.02420
4845.85 2.90823
4845.94 4.54165
4845.99 5.89912
4846.04 7.94787
4846.08 11.3141
4846.13 17.0017
4846.15 21.4319
4846.18 27.5842
4846.20 36.2342
4846.22 48.3166
4846.24 62.0312
4846.26 77.6929
4846.30 96.6252
4846.32 90.8054
4846.34 76.9092
4846.38 48.3156
4846.41 34.0933
4846.43 24.9268
4846.46 18.7553
4846.49 14.5070
4846.54 9.24244
4846.60 6.39114
4846.65 4.64016
4846.71 3.53165
4846.82 2.22827
4846.92 1.53127
4847.03 1.11654
4847.25 0.669395
4847.47 0.446575
4847.69 0.319865
4848.12 0.188759
4848.56 0.125925
4849.00 0.0911420
4849.87 0.0562829
4850.74 0.0404110
4851.61 0.0324166
4853.35 0.0271266
4855.10 0.0312416
4855.97 0.0382057
4856.84 0.0521285
4857.71 0.0827700
4858.15 0.113275
4858.58 0.168174
4859.02 0.282944
4859.45 0.589773
4859.67 0.984172
4859.78 1.35166
4859.89 1.97246
4860.00 3.14261
4860.05 4.16897
4860.11 5.74489
4860.16 8.44437
4860.22 13.3340
4860.24 17.4039
4860.27 23.4146
4860.30 32.5207
4860.33 46.3304
4860.34 59.4894
4860.36 74.5160
4860.40 92.6481
4860.42 87.0612
4860.44 73.7247
4860.48 46.3296
4860.51 29.7773
4860.54 19.9963
4860.58 14.1125
4860.61 10.4031
4860.68 6.25503
4860.75 4.14657
4860.82 2.94214
4860.88 2.19340
4861.02 1.35287
4861.16 0.918032
4861.29 0.664825
4861.56 0.397915
4861.83 0.266908
4862.11 0.193780
4862.65 0.119536
4863.19 0.0855249
4863.74 0.0684728
4864.82 0.0578513
4865.91 0.0688562
4866.99 0.119852
4867.54 0.192423
4868.08 0.384080
4868.35 0.623449
4868.62 1.19046
4868.76 1.82119
4868.90 3.10623
4868.96 4.29927
4869.03 6.26735
4869.10 9.71929
4869.17 15.8426
4869.23 25.4183
4869.30 31.6749
4869.37 25.2650
4869.43 15.8414
4869.49 10.3489
4869.55 7.08153
4869.61 5.06774
4869.66 3.77443
4869.78 2.30141
4869.89 1.53944
4870.01 1.09624
4870.12 0.821477
4870.35 0.510458
4870.58 0.347675
4870.80 0.252815
4871.26 0.151665
4871.72 0.101796
4872.18 0.0735540
4873.09 0.0442999
4874.00 0.0301433
4874.92 0.0221720
4876.74 0.0138929
4878.57 0.00982840
4880.40 0.00750003
4884.05 0.00502178
4887.71 0.00377602
4891.37 0.00306008
4898.68 0.00234957
4905.99 0.00215351
4913.30 0.00247242
4920.61 0.00476594
4924.26 0.0131109
4926.09 0.0438067
4927.00 0.153540
4927.23 0.255863
4927.46 0.509288
4927.58 0.806164
4927.69 1.45690
4927.75 2.11299
4927.80 3.30087
4927.86 5.69546
4927.89 7.85621
4927.92 10.9864
4927.96 17.6444
4928.00 21.9701
4928.04 17.6445
4928.08 10.9866
4928.13 6.13889
4928.18 3.70233
4928.24 2.42902
4928.29 1.71294
4928.39 0.969465
4928.49 0.620332
4928.69 0.315061
4928.89 0.190947
4929.30 0.0925781
4929.70 0.0554269
4931.32 0.0179694
4934.56 0.0112963
4936.18 0.0146972
4937.80 0.0268362
4938.61 0.0440660
4939.42 0.0920353
4939.82 0.156804
4940.23 0.331334
4940.43 0.558724
4940.63 1.13401
4940.74 1.82625
4940.84 3.40144
4940.89 5.08233
4940.94 8.22586
4940.96 11.0671
4940.99 15.2800
4941.01 21.9631
4941.04 32.8193
4941.07 52.4232
4941.10 65.6698
4941.12 61.5279
4941.13 52.4227
4941.16 32.8188
4941.20 19.4702
4941.23 12.2183
4941.26 8.22562
4941.30 5.86396
4941.37 3.37704
4941.43 2.18109
4941.57 1.11985
4941.70 0.681343
4941.98 0.328520
4942.25 0.193628
4942.79 0.0915909
4943.33 0.0544605
4944.42 0.0274270
4945.50 0.0181527
4947.67 0.0127126
4949.84 0.0133597
4952.01 0.0190360
4953.09 0.0255061
4954.18 0.0376566
4955.26 0.0638445
4955.81 0.0897973
4956.35 0.136675
4956.89 0.235057
4957.43 0.499415
4957.70 0.841902
4957.84 1.16474
4957.97 1.71021
4958.11 2.75895
4958.18 3.68244
4958.25 5.12243
4958.31 7.62328
4958.35 9.59359
4958.38 12.3939
4958.42 16.5226
4958.45 22.8552
4958.48 32.9198
4958.52 48.6271
4958.54 62.0880
4958.56 77.7081
4958.60 97.2889
4958.62 91.5228
4958.64 77.7070
4958.68 48.6259
4958.72 31.8253
4958.76 21.5201
4958.79 15.2596
4958.83 11.3718
4958.90 6.89492
4958.98 4.59254
4959.05 3.25347
4959.12 2.43046
4959.27 1.50110
4959.42 1.01511
4959.56 0.733397
4959.85 0.434316
4960.15 0.287022
4960.44 0.204387
4961.02 0.119544
4961.61 0.0793919
4962.19 0.0575368
4963.36 0.0368523
4965.70 0.0371670
4966.29 0.0522303
4966.87 0.0976074
4967.17 0.159774
4967.46 0.325289
4967.61 0.538176
4967.75 1.06142
4967.83 1.66929
4967.90 2.98611
4967.94 4.31931
4967.97 6.63050
4968.01 11.3133
4968.03 15.2526
4968.04 21.0871
4968.07 33.6735
4968.10 42.1907
4968.13 33.6732
4968.16 21.0867
4968.19 12.2612
4968.22 7.68682
4968.25 5.17464
4968.28 3.69021
4968.34 2.12775
4968.40 1.37637
4968.53 0.706164
4968.65 0.430664
4968.90 0.209442
4969.15 0.124895
4969.65 0.0607481
4970.15 0.0370609
4971.14 0.0191850
4972.14 0.0124408
4974.13 0.00708180
4976.12 0.00487294
4980.10 0.00293771
4984.08 0.00206701
4988.06 0.00157787
4992.04 0.00126820
5000.00 0.000903362
5000.00 1.48446
5500.00 1.43772
6000.00 1.39677
7000.00 1.32731
8000.00 1.26937
9000.00 1.21933
10000.0 1.17507
12500.0 1.08197
15000.0 1.00609
17000.0 0.954110
20000.0 0.887016
25000.0 0.796464
30000.0 0.724882
35000.0 0.666737
40000.0 0.618592
50000.0 0.543504
60000.0 0.487787
70000.0 0.444961
80000.0 0.411154
90000.0 0.383907
99999.9 0.361577
100000 0.383712
200000 0.278350
265950 0.263150
265955 0.263150
301170 0.261170
319020 0.225900
319025 0.225897
462500 0.126560
526970 0.110420
534730 0.108120
534735 0.108119
589320 0.0955890
643800 0.0853120
643801 0.0853119
686680 0.0806880
686681 0.0806879
714730 0.0756450
740000 0.0716450
766790 0.0687060
827330 0.0616530
862940 0.0592070
862942 0.0592069
891490 0.0571170
891494 0.0571165
908040 0.0553090
908041 0.0553089
967570 0.0502060
997230 0.0482590
997231 0.0482590
1.01620E+06 0.0469210
1.05690E+06 0.0446270
1.05930E+06 0.0444990
1.13620E+06 0.0411420
1.23780E+06 0.0390100
1.50000E+06 0.0398640
1.75000E+06 0.0435430
2.00000E+06 0.0486280
2.25000E+06 0.0549650
2.50000E+06 0.0627460
2.75000E+06 0.0689120
3.00000E+06 0.0634250
3.25000E+06 0.0535700
3.50000E+06 0.0435400
3.75000E+06 0.0345340
3.90420E+06 0.0295770
4.25000E+06 0.0204830
4.50000E+06 0.0157630
4.75000E+06 0.0122300
5.00000E+06 0.00938850
5.25000E+06 0.00717840
5.50000E+06 0.00546320
5.75000E+06 0.00418440
6.05000E+06 0.00304830
6.25000E+06 0.00247860
6.59820E+06 0.00172860
6.59823E+06 0.00172855
6.75000E+06 0.00148200
7.00000E+06 0.00115670
7.25000E+06 0.000907430
7.55680E+06 0.000679350
7.78000E+06 0.000553040
8.00000E+06 0.000454440
8.25000E+06 0.000365650
8.50000E+06 0.000300000
8.75000E+06 0.000270000
9.00000E+06 0.000255000
9.30510E+06 0.000244000
9.50000E+06 0.000241000
9.80120E+06 0.000246000
9.96790E+06 0.000252000
1.02500E+07 0.000270000
1.05000E+07 0.000290000
1.10000E+07 0.000360000
1.12500E+07 0.000420000
1.15000E+07 0.000480000
1.17500E+07 0.000550000
1.20100E+07 0.000630000
1.22500E+07 0.000710000
1.25000E+07 0.000790000
1.27500E+07 0.000835000
1.30000E+07 0.000875000
1.32500E+07 0.000925000
1.35000E+07 0.000965000
1.37500E+07 0.000988000
1.40000E+07 0.00100000
1.42500E+07 0.00100000
1.45000E+07 0.00100000
1.47500E+07 0.00100000
1.50000E+07 0.00100000
1.52500E+07 0.00100000
1.55000E+07 0.00100000
1.57500E+07 0.00100000
1.60810E+07 0.00100000
1.65000E+07 0.00100000
1.70000E+07 0.00100000
1.75000E+07 0.00100000
1.80000E+07 0.00100000
1.85000E+07 0.00100000
1.90000E+07 0.00100000
1.95000E+07 0.00100000
2.00000E+07 0.00100000