Cd-112(n,g) ENDF/B-VII.1
Energy(eV) XS(b)
1.00000E-05 110.993
1.25000E-05 99.2750
1.50000E-05 90.6252
2.00000E-05 78.4837
2.75000E-05 66.9310
3.50000E-05 59.3280
4.25000E-05 53.8392
5.00000E-05 49.6372
6.25000E-05 44.3968
7.50000E-05 40.5285
0.000100000 35.0985
0.000125000 31.3930
0.000150000 28.6576
0.000200000 24.8180
0.000275000 21.1646
0.000350000 18.7602
0.000425000 17.0244
0.000500000 15.6956
0.000625000 14.0383
0.000750000 12.8149
0.00100000 11.0976
0.00125000 9.92558
0.00150000 9.06042
0.00200000 7.84594
0.00275000 6.69026
0.00350000 5.92958
0.00425000 5.38038
0.00500000 4.95988
0.00625000 4.43539
0.00750000 4.04814
0.0100000 3.50443
0.0125000 3.13323
0.0150000 2.85912
0.0200000 2.47414
0.0253000 2.19796
0.0314750 1.96870
0.0376500 1.79830
0.0500000 1.55748
0.0625000 1.39035
0.0750000 1.26675
0.100000 1.09279
0.125000 0.973645
0.150000 0.885388
0.200000 0.760892
0.237500 0.694240
0.275000 0.641487
0.350000 0.562173
0.500000 0.459852
0.750000 0.361848
1.00000 0.302246
1.50000 0.230103
2.00000 0.186348
2.75000 0.144437
3.50000 0.117017
5.00000 0.0830250
7.50000 0.0535107
10.0000 0.0380665
12.5000 0.0289218
15.0000 0.0230942
20.0000 0.0165336
27.5000 0.0125980
35.0000 0.0121697
42.5000 0.0149345
46.2500 0.0183650
50.0000 0.0246944
52.0931 0.0306166
54.1861 0.0397668
56.2792 0.0549079
58.3722 0.0826112
59.4187 0.106023
60.4653 0.141896
61.5118 0.201003
62.5583 0.308933
63.0816 0.400065
63.6048 0.539597
64.1281 0.769192
64.6514 1.18739
64.9130 1.53945
65.1746 2.07669
65.4363 2.95634
65.6979 4.54635
65.8287 5.87418
65.9595 7.88390
66.0903 11.1375
66.2211 16.9197
66.2866 21.6663
66.3193 24.8264
66.3520 28.7298
66.3683 31.0372
66.3847 33.6320
66.3929 35.0539
66.4010 36.5658
66.4092 38.1795
66.4174 39.9000
66.4337 43.7106
66.4501 48.0928
66.4664 53.1661
66.4828 59.0833
66.4991 66.0460
66.5155 74.3033
66.5318 84.2012
66.5482 96.2010
66.5645 110.947
66.5809 129.311
66.5972 152.577
66.6136 182.629
66.6300 222.354
66.6463 276.198
66.6627 351.527
66.6790 460.869
66.6954 626.621
66.7117 890.537
66.7281 1331.52
66.7444 2082.40
66.7622 3329.30
66.7800 4159.47
66.7978 3328.69
66.8156 2081.51
66.8308 1370.00
66.8461 936.805
66.8613 669.770
66.8766 498.323
66.9070 303.171
66.9375 202.310
66.9680 144.086
66.9985 107.633
67.0594 66.4399
67.1204 44.9889
67.1814 32.4452
67.2423 24.4897
67.3033 19.1336
67.4252 12.5950
67.5471 8.91059
67.6690 6.63263
67.7909 5.12735
68.0348 3.32482
68.2786 2.32827
68.5224 1.72029
68.7662 1.32242
69.2539 0.850797
69.7416 0.592761
70.2292 0.436533
70.7169 0.334914
71.6922 0.215344
72.6675 0.150598
73.6428 0.111913
74.6182 0.0872863
76.5688 0.0604161
78.5194 0.0520110
79.4948 0.0561326
80.4701 0.0746374
80.9577 0.0990233
81.2016 0.120907
81.4454 0.156509
81.6892 0.221570
81.8111 0.277993
81.9331 0.369178
82.0550 0.536996
82.1159 0.683777
82.1769 0.921030
82.2378 1.34937
82.2683 1.70964
82.2988 2.25998
82.3293 3.16096
82.3598 4.77024
82.3902 7.96481
82.4055 10.7509
82.4207 14.8530
82.4434 23.5816
82.4660 29.4143
82.4887 23.6274
82.5113 14.9402
82.5350 9.19693
82.5587 6.07940
82.5824 4.33396
82.6061 3.29795
82.6535 2.23081
82.7009 1.76852
82.7957 1.54589
82.8905 1.82049
82.9853 2.66526
83.0327 3.49209
83.0801 4.87448
83.1275 7.38238
83.1512 9.45759
83.1749 12.5440
83.1986 17.3719
83.2223 25.3923
83.2460 39.5971
83.2697 65.6341
83.2924 104.897
83.3150 131.057
83.3377 104.916
83.3603 65.6518
83.3766 46.1769
83.3928 33.3079
83.4091 24.7981
83.4253 19.0277
83.4578 12.0839
83.4903 8.29627
83.5228 6.03125
83.5553 4.57762
83.6203 2.89453
83.6853 1.99710
83.7503 1.46352
83.8803 0.887557
84.0103 0.599383
84.1403 0.434566
84.2703 0.331356
84.4003 0.262353
84.6603 0.178449
84.9203 0.131115
85.4403 0.0820451
85.9603 0.0581462
86.4803 0.0445515
87.5202 0.0301514
88.5602 0.0228276
89.6002 0.0184394
91.6802 0.0134187
95.8401 0.00875230
100.000 0.00648317
106.250 0.00464882
112.500 0.00363340
125.000 0.00260887
137.500 0.00217145
150.000 0.00202383
162.500 0.00209585
175.000 0.00244436
187.500 0.00334815
193.750 0.00427684
200.000 0.00595680
203.309 0.00744802
206.618 0.00974323
209.927 0.0135405
213.235 0.0205041
214.890 0.0264053
216.544 0.0354699
218.199 0.0504482
219.853 0.0778942
220.680 0.101139
221.508 0.136813
222.335 0.195689
223.162 0.303343
223.576 0.394291
223.989 0.533540
224.403 0.762532
224.816 1.17898
225.023 1.52884
225.230 2.06149
225.437 2.93059
225.644 4.49298
225.747 5.79021
225.850 7.74238
225.902 9.11101
225.928 9.93718
225.954 10.8770
225.980 11.9611
226.006 13.2102
226.031 14.6715
226.057 16.3816
226.070 17.3587
226.083 18.4170
226.109 20.8452
226.135 23.7982
226.161 27.4080
226.187 31.9214
226.212 37.6172
226.238 45.0064
226.264 54.7433
226.290 68.0408
226.316 86.6799
226.342 114.135
226.367 156.419
226.393 226.600
226.406 279.680
226.419 352.508
226.432 456.119
226.445 605.248
226.458 825.834
226.471 1151.46
226.490 1841.37
226.509 2301.43
226.528 1842.27
226.547 1152.08
226.561 817.971
226.574 595.799
226.587 446.843
226.600 344.703
226.627 220.011
226.653 151.548
226.680 110.171
226.706 83.6040
226.759 52.7025
226.812 36.1461
226.864 26.3144
226.917 19.9905
226.970 15.7022
227.076 10.4136
227.182 7.40550
227.287 5.53380
227.393 4.29092
227.604 2.79469
227.816 1.96366
228.027 1.45473
228.239 1.12068
228.662 0.723315
229.084 0.505131
229.507 0.372594
229.930 0.286117
230.776 0.183889
231.621 0.128092
232.467 0.0943492
233.313 0.0724090
235.004 0.0465639
236.695 0.0325118
238.387 0.0240376
240.078 0.0185404
243.461 0.0120837
246.843 0.00858517
250.226 0.00648247
253.609 0.00512304
260.374 0.00353529
267.139 0.00268425
280.670 0.00186432
294.201 0.00151880
307.732 0.00137039
334.793 0.00136790
361.854 0.00170678
375.385 0.00210254
388.916 0.00284591
402.446 0.00444603
409.212 0.00603978
415.977 0.00894496
419.360 0.0113952
422.743 0.0151454
426.125 0.0213183
429.508 0.0325827
431.199 0.0420941
432.891 0.0566632
434.582 0.0806658
436.273 0.124492
437.119 0.161499
437.965 0.218165
438.810 0.311412
439.656 0.481232
440.079 0.624208
440.502 0.842308
440.924 1.19928
441.347 1.84405
441.559 2.38233
441.770 3.19604
441.876 3.76912
441.929 4.11566
441.982 4.51151
442.034 4.96829
442.087 5.49705
442.140 6.11619
442.193 6.84460
442.246 7.71302
442.299 8.75549
442.352 10.0269
442.404 11.5928
442.457 13.5596
442.510 16.0658
442.563 19.3409
442.616 23.7144
442.669 29.7601
442.721 38.4064
442.774 51.4242
442.827 72.1833
442.880 108.236
442.906 136.867
442.933 177.929
442.959 239.483
442.986 335.164
443.012 490.624
443.039 746.549
443.069 1196.00
443.100 1495.74
443.131 1196.49
443.162 748.103
443.180 553.024
443.199 416.419
443.236 252.569
443.274 166.317
443.311 116.804
443.349 86.1663
443.386 66.0281
443.461 42.1753
443.536 29.1905
443.610 21.3739
443.760 12.8560
443.910 8.56696
444.059 6.11424
444.209 4.58151
444.359 3.56056
444.658 2.32782
444.957 1.64107
445.256 1.21983
445.555 0.943157
446.154 0.614342
446.752 0.434711
447.351 0.327026
447.949 0.258847
449.146 0.188191
449.745 0.176439
450.343 0.183113
450.942 0.224526
451.241 0.274431
451.540 0.370534
451.839 0.578900
451.989 0.784019
452.139 1.14913
452.288 1.89231
452.363 2.59090
452.438 3.78135
452.513 6.05437
452.550 8.05256
452.587 11.2220
452.625 16.6571
452.662 27.0079
452.681 35.9516
452.700 49.6518
452.718 71.3982
452.737 106.205
452.760 170.040
452.783 212.352
452.806 169.752
452.829 106.214
452.852 65.3225
452.875 42.5240
452.898 29.3240
452.921 21.2923
452.944 16.0750
452.967 12.5492
453.013 8.23207
453.060 5.80084
453.106 4.30675
453.198 2.64828
453.290 1.79709
453.382 1.30451
453.474 0.993847
453.566 0.785381
453.751 0.531407
453.935 0.388350
454.303 0.240593
454.672 0.169065
455.040 0.128593
455.777 0.0858983
456.514 0.0642272
457.251 0.0512416
458.726 0.0363701
460.200 0.0280015
461.674 0.0225845
464.622 0.0159578
467.570 0.0120761
470.518 0.00955860
476.415 0.00656083
482.311 0.00490056
488.207 0.00388712
500.000 0.00278145
516.475 0.00213195
532.949 0.00197260
541.186 0.00208645
549.424 0.00257175
553.542 0.00329149
557.661 0.00536018
559.720 0.00824587
561.780 0.0164246
562.809 0.0277537
563.324 0.0390363
563.839 0.0595762
564.354 0.103171
564.611 0.146150
564.869 0.223504
564.997 0.287798
565.126 0.384650
565.255 0.540370
565.383 0.814321
565.448 1.03707
565.512 1.36462
565.576 1.87616
565.641 2.73571
565.705 4.34922
565.737 5.74094
565.769 7.89679
565.802 11.4979
565.834 18.0618
565.850 23.4834
565.866 31.4311
565.882 43.3606
565.898 61.1266
565.921 97.9439
565.944 122.371
565.967 97.7769
565.990 61.1314
566.011 39.1203
566.032 26.2301
566.053 18.4626
566.074 13.6004
566.116 8.15917
566.158 5.39903
566.199 3.82427
566.241 2.84609
566.325 1.74963
566.409 1.18177
566.493 0.851455
566.576 0.642279
566.660 0.501870
566.828 0.330618
566.995 0.234347
567.163 0.174886
567.330 0.135613
567.665 0.0885927
568.000 0.0626067
568.670 0.0363633
569.340 0.0240410
570.010 0.0172887
571.351 0.0105245
574.031 0.00565805
576.711 0.00395375
582.072 0.00275896
587.432 0.00237564
598.153 0.00219896
608.874 0.00227430
630.317 0.00277768
651.759 0.00384204
662.480 0.00475978
673.201 0.00616988
683.922 0.00849257
694.643 0.0127299
700.004 0.0163068
705.364 0.0217864
710.725 0.0308153
716.085 0.0473066
718.766 0.0612338
721.446 0.0825598
724.126 0.117647
726.806 0.181524
728.147 0.235261
729.487 0.317190
730.827 0.451151
731.497 0.552625
731.832 0.616747
732.167 0.692749
732.502 0.783785
732.837 0.894031
733.172 1.02938
733.507 1.19796
733.675 1.29830
733.842 1.41174
734.177 1.68827
734.512 2.05480
734.847 2.55504
735.182 3.26297
735.517 4.31065
735.852 5.95546
736.020 7.15375
736.187 8.75132
736.355 10.9473
736.522 14.0747
736.690 18.7393
736.857 26.1157
737.025 38.7110
737.109 48.5889
737.192 62.5432
737.276 83.0150
737.360 114.135
737.444 163.189
737.527 240.885
737.633 385.598
737.738 483.013
737.843 387.226
737.949 242.131
738.020 173.435
738.091 126.959
738.163 95.5821
738.234 73.9742
738.376 47.4758
738.519 32.7848
738.661 23.8963
738.804 18.1539
739.089 11.4604
739.374 7.87129
739.659 5.73327
739.944 4.35879
740.229 3.42454
740.799 2.27239
741.369 1.61672
741.940 1.20853
742.510 0.937392
743.650 0.610972
744.790 0.429543
745.930 0.318426
747.071 0.245493
749.351 0.158762
751.631 0.111147
753.912 0.0822384
756.192 0.0633928
760.753 0.0411525
765.314 0.0290570
769.875 0.0217861
774.436 0.0171057
783.558 0.0117613
792.680 0.00927020
797.240 0.00888581
801.801 0.00971570
804.082 0.0115596
806.362 0.0173401
807.503 0.0255825
808.643 0.0489759
809.213 0.0811717
809.498 0.113007
809.783 0.170425
810.068 0.290526
810.211 0.406998
810.353 0.612774
810.424 0.780785
810.496 1.02934
810.567 1.41924
810.638 2.07988
810.709 3.33558
810.745 4.43130
810.781 6.15780
810.816 9.10123
810.852 14.6155
810.870 19.3098
810.888 26.3954
810.905 37.4305
810.923 54.7022
810.946 87.4835
810.969 109.323
810.992 87.4860
811.015 54.7053
811.033 37.2028
811.051 26.1542
811.069 19.0900
811.087 14.4250
811.123 8.96261
811.159 6.06178
811.195 4.35394
811.231 3.27530
811.303 2.04188
811.375 1.39185
811.447 1.00962
811.520 0.765645
811.592 0.600988
811.736 0.399070
811.880 0.284823
812.168 0.167066
812.456 0.110736
812.744 0.0794993
813.321 0.0478609
814.474 0.0247652
815.626 0.0165194
817.932 0.0105161
820.237 0.00836207
824.849 0.00679814
829.460 0.00629870
838.682 0.00627708
847.904 0.00702136
857.126 0.00872379
866.348 0.0124768
870.960 0.0163472
875.571 0.0245730
877.876 0.0338851
879.029 0.0423511
880.182 0.0569676
881.335 0.0868323
881.911 0.115855
882.487 0.168029
882.776 0.211613
883.064 0.277803
883.352 0.385672
883.640 0.579646
883.784 0.740913
883.928 0.984035
884.072 1.37551
884.217 2.06595
884.289 2.62879
884.361 3.45887
884.433 4.75984
884.505 6.95815
884.577 11.1188
884.613 14.7331
884.649 20.4015
884.685 29.9647
884.721 47.7267
884.739 62.6821
884.757 85.0155
884.775 119.327
884.793 172.198
884.817 275.502
884.841 344.375
884.865 275.512
884.889 172.210
884.909 115.189
884.929 79.9186
884.948 57.7623
884.968 43.3289
885.008 26.6293
885.047 17.9054
885.087 12.8126
885.126 9.61340
885.205 5.97488
885.284 4.06732
885.362 2.94919
885.441 2.23730
885.520 1.75766
885.678 1.17070
885.836 0.839377
885.993 0.634395
886.151 0.498927
886.466 0.336918
886.782 0.247737
887.413 0.158933
888.043 0.118966
888.674 0.0989621
889.936 0.0850567
891.198 0.0907919
891.828 0.101859
892.459 0.123434
893.090 0.169312
893.405 0.214105
893.721 0.294206
894.036 0.460662
894.194 0.621867
894.352 0.906973
894.509 1.48575
894.588 2.03044
894.667 2.95919
894.746 4.74189
894.785 6.31443
894.825 8.82068
894.864 13.1638
894.904 21.5156
894.923 28.8206
894.943 40.1486
894.963 58.4214
894.982 88.2354
895.006 141.281
895.029 176.456
895.052 141.041
895.076 88.2389
895.103 50.2934
895.130 30.9784
895.158 20.6181
895.185 14.5954
895.212 10.8362
895.240 8.34994
895.294 5.38696
895.349 3.76460
895.403 2.78430
895.512 1.71331
895.622 1.17234
895.731 0.862761
895.949 0.540705
896.167 0.386255
896.386 0.301248
896.822 0.217669
897.259 0.181801
897.695 0.165713
898.569 0.159586
900.315 0.194493
902.062 0.283713
902.935 0.362305
903.808 0.483322
904.681 0.681750
905.118 0.831922
905.554 1.03892
905.773 1.17308
905.991 1.33529
906.209 1.53393
906.428 1.78074
906.646 2.09261
906.864 2.49454
907.083 3.02473
907.301 3.74398
907.519 4.75375
907.737 6.23353
907.956 8.52520
908.174 12.3450
908.283 15.2871
908.392 19.3987
908.502 25.3901
908.611 34.5481
908.720 49.4792
908.829 75.7670
908.884 96.7799
908.938 126.638
908.993 169.782
909.047 231.729
909.134 370.844
909.220 464.293
909.307 371.942
909.393 232.570
909.481 141.518
909.570 91.2225
909.658 62.5477
909.747 45.1610
909.835 33.9814
909.924 26.4255
910.101 17.2276
910.278 12.0806
910.455 8.92663
910.809 5.43380
911.163 3.64837
911.517 2.61689
911.871 1.96795
912.224 1.53354
912.932 1.00636
913.640 0.710971
914.348 0.529038
915.056 0.409127
916.472 0.265850
917.887 0.186784
919.303 0.138581
920.719 0.107037
923.550 0.0696199
926.382 0.0491118
929.213 0.0366664
932.045 0.0285503
937.708 0.0189616
943.371 0.0137371
949.034 0.0105917
954.697 0.00856486
966.022 0.00624188
977.348 0.00508373
1000.00 0.00434694
1013.22 0.00455745
1026.44 0.00539234
1033.05 0.00633089
1039.67 0.00842782
1042.97 0.0109355
1046.28 0.0174806
1047.93 0.0262466
1048.76 0.0348936
1049.58 0.0505952
1050.41 0.0840231
1050.82 0.117106
1051.23 0.177032
1051.44 0.227333
1051.65 0.303272
1051.85 0.427200
1052.06 0.647322
1052.16 0.830683
1052.27 1.10231
1052.37 1.53388
1052.47 2.28020
1052.58 3.75977
1052.63 5.10369
1052.68 7.25597
1052.73 11.1902
1052.76 14.4436
1052.78 19.0620
1052.81 26.5256
1052.84 38.9442
1052.86 60.9886
1052.89 99.4272
1052.91 159.897
1052.94 200.557
1052.96 159.900
1052.99 99.4314
1053.01 62.1379
1053.03 40.8751
1053.06 28.4326
1053.08 20.7425
1053.11 15.7278
1053.13 12.3027
1053.18 8.08613
1053.23 5.70294
1053.27 4.23192
1053.37 2.60309
1053.47 1.75407
1053.56 1.26592
1053.66 0.954271
1053.75 0.747254
1053.94 0.492793
1054.13 0.350741
1054.33 0.263055
1054.52 0.205168
1054.90 0.135797
1055.28 0.0976179
1056.05 0.0591104
1056.81 0.0411384
1057.58 0.0313773
1059.11 0.0217992
1062.17 0.0154884
1065.23 0.0139910
1071.35 0.0149351
1077.46 0.0185226
1083.58 0.0251776
1089.70 0.0377988
1092.76 0.0489018
1095.82 0.0676759
1097.35 0.0839908
1098.88 0.115003
1099.65 0.148169
1100.03 0.177816
1100.41 0.228330
1100.80 0.330469
1100.99 0.428051
1101.18 0.600252
1101.37 0.951330
1101.46 1.28649
1101.56 1.85904
1101.66 2.99002
1101.70 4.01340
1101.75 5.64293
1101.80 8.60951
1101.82 11.0497
1101.85 14.6662
1101.87 20.3022
1101.89 29.6212
1101.92 46.0120
1101.94 74.1195
1101.97 119.929
1101.99 148.938
1102.01 117.893
1102.04 74.1242
1102.06 42.5667
1102.09 26.3754
1102.12 17.6343
1102.14 12.5297
1102.17 9.33307
1102.20 7.21381
1102.25 4.71604
1102.30 3.31270
1102.36 2.46490
1102.47 1.54443
1102.57 1.07501
1102.68 0.808866
1102.89 0.532229
1103.11 0.399926
1103.32 0.328535
1103.75 0.260897
1104.61 0.227617
1105.47 0.237078
1107.19 0.309908
1108.05 0.372899
1108.47 0.413427
1108.90 0.461775
1109.33 0.520019
1109.76 0.590517
1110.19 0.677014
1110.62 0.784601
1111.05 0.920959
1111.48 1.09631
1111.91 1.32747
1112.34 1.64074
1112.77 2.08108
1113.20 2.72378
1113.63 3.71618
1114.05 5.36320
1114.27 6.62906
1114.48 8.38427
1114.70 10.9379
1114.91 14.7981
1115.13 21.0507
1115.34 31.8479
1115.45 40.4213
1115.56 52.3211
1115.66 69.1884
1115.77 92.9261
1115.95 146.878
1116.12 183.668
1116.30 148.286
1116.48 92.7362
1116.66 57.0823
1116.84 37.0853
1117.02 25.5608
1117.20 18.5215
1117.38 13.9719
1117.55 10.8856
1117.91 7.12088
1118.27 5.00086
1118.63 3.69902
1119.34 2.25562
1120.06 1.51547
1120.77 1.08782
1121.49 0.818487
1122.20 0.638046
1123.63 0.418816
1125.07 0.295920
1126.50 0.220207
1127.93 0.170322
1130.79 0.110678
1133.65 0.0777809
1136.51 0.0577291
1139.37 0.0446235
1145.10 0.0291052
1150.82 0.0206394
1156.54 0.0155464
1162.26 0.0122803
1173.71 0.00866784
1185.16 0.00750636
1190.88 0.00816395
1193.74 0.00924548
1196.60 0.0115147
1199.46 0.0167393
1200.90 0.0221053
1202.33 0.0320323
1203.76 0.0534741
1204.47 0.0749130
1205.19 0.114071
1205.54 0.147143
1205.90 0.197691
1206.26 0.280592
1206.62 0.430122
1206.80 0.555367
1206.98 0.745087
1207.15 1.05246
1207.33 1.59507
1207.42 2.04533
1207.51 2.70786
1207.60 3.76763
1207.69 5.56686
1207.78 9.08708
1207.83 12.2353
1207.87 17.1749
1207.91 26.0007
1207.96 42.8840
1207.98 58.6500
1208.00 82.5604
1208.03 121.818
1208.05 187.261
1208.07 299.759
1208.10 374.819
1208.12 299.766
1208.15 187.269
1208.16 136.546
1208.18 101.479
1208.21 60.3971
1208.24 39.2960
1208.27 27.6649
1208.31 20.2660
1208.34 15.4496
1208.40 9.86218
1208.47 6.78814
1208.53 4.97420
1208.65 2.99581
1208.78 1.99328
1208.91 1.42116
1209.04 1.06435
1209.16 0.828552
1209.42 0.541680
1209.67 0.382508
1209.92 0.284765
1210.17 0.220476
1210.68 0.143731
1211.19 0.101575
1212.20 0.0590999
1213.21 0.0391942
1214.23 0.0283032
1216.25 0.0173670
1220.31 0.00940497
1224.36 0.00652142
1228.41 0.00512803
1232.47 0.00433268
1240.57 0.00348365
1256.78 0.00282689
1272.99 0.00268799
1289.21 0.00291694
1305.42 0.00385513
1313.52 0.00514650
1321.63 0.00867222
1325.68 0.0134699
1327.71 0.0182371
1329.73 0.0269366
1331.76 0.0455779
1332.77 0.0641796
1333.79 0.0981691
1334.29 0.126901
1334.80 0.170779
1335.31 0.243022
1335.81 0.373961
1336.07 0.484268
1336.32 0.651364
1336.57 0.923305
1336.83 1.41029
1336.95 1.81495
1337.08 2.42262
1337.21 3.39547
1337.33 5.07822
1337.46 8.43958
1337.52 11.4919
1337.59 16.5341
1337.65 25.9219
1337.68 33.8563
1337.71 45.4683
1337.74 64.6781
1337.78 96.6323
1337.81 158.089
1337.84 274.442
1337.87 438.088
1337.89 546.763
1337.92 438.089
1337.95 274.447
1337.97 187.632
1337.99 132.200
1338.01 96.6390
1338.03 73.0991
1338.07 45.4739
1338.11 30.7734
1338.16 22.1266
1338.20 16.6427
1338.28 10.4208
1338.37 7.09315
1338.45 5.15298
1338.53 3.89901
1338.62 3.06070
1338.78 2.02492
1338.95 1.43820
1339.12 1.07414
1339.28 0.832870
1339.62 0.543084
1339.95 0.382339
1340.29 0.284020
1340.62 0.219543
1341.29 0.142925
1341.96 0.100880
1343.29 0.0587218
1344.63 0.0390744
1345.96 0.0283951
1348.64 0.0178247
1353.98 0.0105415
1359.33 0.00839217
1364.67 0.00786700
1370.02 0.00815325
1380.71 0.0106306
1386.05 0.0131302
1391.40 0.0171198
1396.74 0.0238191
1402.09 0.0361467
1404.76 0.0465689
1407.43 0.0624970
1410.10 0.0886219
1412.78 0.135871
1414.11 0.175380
1415.45 0.235159
1416.12 0.277302
1416.79 0.331944
1417.12 0.365553
1417.45 0.404555
1417.79 0.450165
1418.12 0.503964
1418.46 0.568032
1418.79 0.645155
1419.12 0.739130
1419.46 0.855236
1419.79 1.00099
1420.13 1.18738
1420.46 1.43097
1420.79 1.75767
1421.13 2.20981
1421.46 2.86026
1421.80 3.84287
1422.13 5.42445
1422.46 8.19578
1422.63 10.4249
1422.80 13.6571
1422.96 18.5502
1423.13 26.3275
1423.30 39.2950
1423.47 61.3309
1423.65 98.2293
1423.83 123.012
1424.01 98.4933
1424.20 61.5309
1424.41 35.1944
1424.62 21.7626
1424.83 14.5123
1425.04 10.2791
1425.25 7.62871
1425.46 5.87186
1425.89 3.77347
1426.31 2.62195
1426.73 1.92506
1427.57 1.16197
1428.42 0.776178
1429.26 0.554751
1430.11 0.416114
1430.95 0.323634
1432.64 0.211828
1434.33 0.149408
1436.01 0.111063
1437.70 0.0858368
1441.08 0.0557592
1444.46 0.0392066
1447.83 0.0291348
1451.21 0.0225550
1457.96 0.0147663
1464.71 0.0105106
1471.46 0.00793584
1478.22 0.00626264
1491.72 0.00429934
1505.23 0.00324679
1532.23 0.00226085
1559.24 0.00193284
1586.25 0.00202605
1599.76 0.00231891
1613.26 0.00310365
1620.02 0.00409352
1626.77 0.00670702
1630.14 0.0102112
1633.52 0.0199736
1635.21 0.0334243
1636.05 0.0468201
1636.90 0.0712466
1637.74 0.123273
1638.16 0.174810
1638.58 0.268089
1638.79 0.346066
1639.01 0.464204
1639.22 0.655651
1639.43 0.996366
1639.53 1.27797
1639.64 1.69351
1639.74 2.35806
1639.85 3.49082
1639.96 5.71110
1640.01 7.70352
1640.06 10.8552
1640.11 16.5054
1640.17 27.7805
1640.19 38.2538
1640.22 54.4791
1640.25 81.6801
1640.27 128.156
1640.30 204.395
1640.33 254.952
1640.36 204.399
1640.38 128.161
1640.42 72.8688
1640.45 45.3768
1640.48 30.0616
1640.51 21.4021
1640.55 15.8088
1640.58 12.2164
1640.64 7.84746
1640.71 5.45159
1640.77 4.00233
1640.90 2.41603
1641.03 1.61434
1641.16 1.15430
1641.29 0.866284
1641.42 0.675393
1641.68 0.442553
1641.94 0.312613
1642.46 0.180482
1642.98 0.117840
1643.50 0.0834237
1644.54 0.0487778
1646.62 0.0237938
1648.70 0.0150716
1652.85 0.00907882
1657.01 0.00733858
1665.32 0.00724814
1673.63 0.00948518
1677.78 0.0117102
1681.94 0.0152533
1686.10 0.0212040
1690.25 0.0321742
1692.33 0.0414745
1694.41 0.0557365
1696.49 0.0792198
1698.56 0.121950
1699.60 0.157890
1700.64 0.212648
1701.68 0.302079
1702.72 0.463054
1703.24 0.597033
1703.76 0.798508
1704.02 0.940177
1704.28 1.12320
1704.54 1.36536
1704.80 1.69362
1704.93 1.90484
1705.06 2.15810
1705.19 2.46532
1705.32 2.84290
1705.45 3.31399
1705.58 3.91205
1705.71 4.68684
1705.84 5.70572
1705.97 7.10586
1706.10 9.08487
1706.23 12.0053
1706.35 16.5119
1706.48 24.0855
1706.55 29.8928
1706.61 37.9395
1706.68 49.4232
1706.74 66.3127
1706.81 91.7617
1706.87 129.388
1706.97 207.355
1707.06 258.903
1707.15 207.164
1707.24 129.941
1707.35 74.4146
1707.45 46.1385
1707.56 30.7129
1707.66 21.7911
1707.77 16.1500
1707.87 12.4463
1708.08 7.99755
1708.29 5.55653
1708.51 4.07940
1708.93 2.46470
1709.35 1.64593
1709.77 1.17698
1710.19 0.882578
1710.61 0.686627
1711.46 0.449339
1712.30 0.316833
1713.14 0.235418
1713.98 0.181850
1715.67 0.117953
1717.36 0.0827950
1719.04 0.0613989
1720.73 0.0474194
1724.10 0.0308681
1727.47 0.0218252
1730.85 0.0163526
1734.22 0.0127941
1740.96 0.00860987
1747.71 0.00635133
1761.20 0.00417518
1774.69 0.00332814
1788.18 0.00329070
1794.92 0.00380318
1801.67 0.00560125
1805.04 0.00822695
1808.41 0.0157756
1810.10 0.0263037
1811.78 0.0560773
1812.63 0.0971689
1813.05 0.138021
1813.47 0.211931
1813.89 0.368208
1814.10 0.521415
1814.31 0.793604
1814.42 1.02031
1814.52 1.35622
1814.63 1.89647
1814.73 2.82487
1814.84 4.66801
1814.89 6.34484
1814.94 9.03611
1815.00 13.9665
1815.02 17.9614
1815.05 23.8755
1815.08 33.5334
1815.10 49.0679
1815.13 76.4924
1815.15 126.568
1815.18 202.407
1815.20 252.926
1815.23 202.412
1815.25 126.573
1815.27 92.3302
1815.29 68.6387
1815.32 41.4732
1815.35 26.9219
1815.38 18.9209
1815.41 13.8416
1815.44 10.6253
1815.51 6.80538
1815.57 4.69415
1815.63 3.44505
1815.76 2.07148
1815.88 1.38074
1816.01 0.985580
1816.13 0.738709
1816.26 0.574287
1816.51 0.375804
1816.76 0.265150
1817.26 0.152580
1817.76 0.0992989
1818.26 0.0700500
1819.26 0.0406236
1821.26 0.0193185
1823.26 0.0117850
1827.26 0.00636793
1831.26 0.00446646
1847.27 0.00269820
1863.27 0.00254200
1879.28 0.00275558
1895.29 0.00329111
1911.29 0.00450837
1919.29 0.00589188
1927.30 0.00932674
1931.30 0.0138006
1935.30 0.0261068
1937.30 0.0429974
1938.30 0.0598228
1939.30 0.0904893
1940.30 0.155985
1940.80 0.220946
1941.30 0.338790
1941.55 0.437537
1941.80 0.587495
1942.05 0.831306
1942.30 1.26730
1942.43 1.62735
1942.55 2.16630
1942.68 3.02536
1942.80 4.51781
1942.93 7.45684
1942.99 10.1550
1943.05 14.5200
1943.12 22.5498
1943.15 29.1238
1943.18 38.9359
1943.21 55.0198
1943.24 81.4213
1943.27 129.091
1943.30 220.004
1943.33 353.704
1943.36 439.932
1943.39 353.710
1943.42 220.011
1943.44 137.743
1943.47 89.7801
1943.50 62.0170
1943.53 45.4921
1943.56 34.3128
1943.58 26.7289
1943.64 17.5817
1943.69 12.3333
1943.75 9.16117
1943.86 5.61531
1943.97 3.77534
1944.08 2.71797
1944.19 2.04484
1944.30 1.59751
1944.52 1.05078
1944.74 0.743880
1944.96 0.554630
1945.19 0.429781
1945.63 0.280528
1946.07 0.198129
1946.95 0.115049
1947.84 0.0761321
1948.72 0.0548614
1950.49 0.0336609
1954.03 0.0186874
1957.56 0.0137624
1961.10 0.0118173
1964.64 0.0111093
1971.71 0.0114134
1978.78 0.0131018
1985.85 0.0161146
1992.93 0.0210176
2000.00 0.0292188
2004.49 0.0375154
2008.98 0.0501957
2013.47 0.0709367
2017.96 0.108285
2020.20 0.139352
2022.44 0.186141
2023.57 0.219011
2024.69 0.261429
2025.25 0.287434
2025.81 0.317532
2026.37 0.352629
2026.93 0.393893
2027.50 0.442951
2028.06 0.501667
2028.62 0.572876
2029.18 0.660376
2029.74 0.769520
2030.30 0.908043
2030.86 1.08744
2031.42 1.32540
2031.98 1.65018
2032.54 2.10918
2033.11 2.78641
2033.67 3.84163
2034.23 5.60544
2034.51 6.96175
2034.79 8.83590
2035.07 11.5234
2035.35 15.4684
2035.63 21.4498
2035.91 30.4617
2036.31 48.8946
2036.70 61.1000
2037.09 48.8546
2037.48 30.6207
2037.85 19.3201
2038.22 12.8039
2038.59 8.94249
2038.96 6.54653
2039.70 3.89684
2040.44 2.56608
2041.19 1.81161
2041.93 1.34499
2043.41 0.823907
2044.89 0.555278
2046.37 0.399356
2047.85 0.300858
2049.33 0.234805
2052.30 0.154409
2055.26 0.109276
2058.22 0.0814381
2061.19 0.0630719
2067.11 0.0411153
2073.04 0.0290015
2078.97 0.0216220
2084.89 0.0168021
2096.75 0.0111081
2108.60 0.00801842
2120.45 0.00617716
2132.30 0.00501523
2156.01 0.00378938
2179.72 0.00350231
2191.57 0.00382340
2203.42 0.00510640
2209.35 0.00699035
2215.28 0.0123811
2218.24 0.0198900
2221.20 0.0411585
2222.68 0.0706496
2223.43 0.100057
2224.17 0.153576
2224.91 0.267509
2225.28 0.380338
2225.65 0.583467
2225.83 0.753816
2226.02 1.00998
2226.20 1.42338
2226.39 2.15462
2226.48 2.75577
2226.57 3.63630
2226.67 5.03489
2226.76 7.38761
2226.85 11.9211
2226.90 15.8585
2226.94 22.0753
2226.99 32.9749
2227.04 53.2619
2227.06 70.6650
2227.08 97.1327
2227.11 138.755
2227.13 204.643
2227.16 327.293
2227.19 409.007
2227.22 327.300
2227.24 204.649
2227.27 130.064
2227.30 86.5898
2227.33 60.7281
2227.35 44.5577
2227.41 26.6185
2227.46 17.5677
2227.51 12.4215
2227.57 9.23238
2227.68 5.66243
2227.78 3.82020
2227.89 2.74891
2228.00 2.07205
2228.11 1.62101
2228.32 1.06608
2228.54 0.754305
2228.76 0.561931
2228.97 0.435447
2229.40 0.283351
2229.83 0.199503
2230.70 0.114807
2231.56 0.0750072
2232.42 0.0532297
2234.15 0.0314079
2237.60 0.0157307
2241.05 0.0102667
2247.95 0.00649693
2254.85 0.00538265
2268.65 0.00527722
2282.45 0.00663359
2289.35 0.00800306
2296.25 0.0101917
2303.15 0.0138711
2310.05 0.0206503
2313.51 0.0263904
2316.96 0.0351770
2320.41 0.0496193
2323.86 0.0758296
2325.58 0.0978175
2327.31 0.131207
2329.03 0.185523
2330.76 0.282740
2331.62 0.363153
2332.48 0.483493
2332.91 0.567722
2333.35 0.675791
2333.78 0.817946
2333.99 0.906677
2334.21 1.01013
2334.42 1.13294
2334.64 1.27952
2334.86 1.45641
2335.07 1.67141
2335.29 1.93889
2335.50 2.27388
2335.72 2.70529
2335.93 3.26775
2336.15 4.02716
2336.36 5.08025
2336.58 6.59615
2336.80 8.86741
2337.01 12.5017
2337.23 18.6707
2337.33 23.4636
2337.44 30.0835
2337.55 39.3316
2337.66 52.0230
2337.85 83.2337
2338.04 104.237
2338.22 83.6089
2338.41 52.3132
2338.53 38.5435
2338.65 28.9628
2338.88 17.4776
2339.11 11.4702
2339.35 8.03692
2339.58 5.91912
2339.81 4.53030
2340.28 2.89159
2340.74 1.99910
2341.21 1.46274
2342.14 0.879600
2343.07 0.586132
2344.00 0.418484
2344.93 0.313663
2345.87 0.243944
2347.73 0.159756
2349.59 0.112844
2351.45 0.0840632
2353.32 0.0651495
2357.04 0.0426314
2360.77 0.0302558
2364.50 0.0227406
2368.22 0.0178446
2375.67 0.0120785
2383.12 0.00896651
2398.03 0.00597321
2412.93 0.00478102
2427.83 0.00449763
2435.28 0.00475163
2442.74 0.00575232
2450.19 0.0112773
2452.05 0.0169290
2453.91 0.0328714
2454.85 0.0548952
2455.78 0.116458
2456.24 0.200494
2456.48 0.283077
2456.71 0.430289
2456.94 0.735862
2457.06 1.03060
2457.17 1.54044
2457.29 2.56078
2457.35 3.48788
2457.41 5.02118
2457.46 7.81933
2457.49 10.1658
2457.52 13.7117
2457.55 19.3891
2457.58 29.1500
2457.61 47.3439
2457.64 83.9910
2457.66 133.900
2457.69 168.106
2457.71 133.902
2457.74 83.9933
2457.77 48.2170
2457.79 30.0632
2457.82 19.9004
2457.85 14.1789
2457.88 10.4668
2457.91 8.09306
2457.97 5.19890
2458.02 3.61198
2458.08 2.65214
2458.19 1.60794
2458.31 1.07427
2458.42 0.770401
2458.65 0.451165
2458.87 0.296100
2459.10 0.209951
2459.56 0.122117
2460.46 0.0575726
2461.37 0.0345367
2463.19 0.0178771
2465.01 0.0120244
2472.28 0.00657566
2479.54 0.00591233
2486.81 0.00608065
2501.35 0.00750192
2515.89 0.0105710
2523.16 0.0132261
2530.43 0.0173035
2537.70 0.0239987
2544.96 0.0361244
2548.60 0.0462717
2552.23 0.0616624
2555.87 0.0866742
2559.50 0.131374
2561.32 0.168316
2562.23 0.193013
2563.14 0.223606
2563.59 0.241773
2564.05 0.262219
2564.95 0.311798
2565.41 0.342140
2565.86 0.377075
2566.32 0.417669
2566.77 0.465209
2567.23 0.521506
2567.68 0.588524
2568.13 0.669339
2568.59 0.767995
2569.04 0.890417
2569.50 1.04410
2569.95 1.24102
2570.41 1.49883
2570.86 1.84596
2571.31 2.32576
2571.77 3.01516
2572.22 4.05164
2572.68 5.70409
2573.13 8.51165
2573.36 10.6791
2573.59 13.6657
2573.81 17.8274
2574.04 23.5881
2574.44 37.7852
2574.84 47.3856
2575.24 38.0448
2575.64 23.8179
2576.07 14.1815
2576.50 8.99763
2576.93 6.10281
2577.36 4.37325
2577.79 3.27286
2578.22 2.53494
2579.07 1.64337
2579.93 1.14867
2580.79 0.847102
2582.51 0.514698
2584.22 0.345644
2585.94 0.248269
2587.65 0.187170
2589.37 0.146364
2592.80 0.0970105
2596.23 0.0695025
2599.67 0.0526818
2603.10 0.0417120
2609.96 0.0289252
2616.82 0.0223400
2623.69 0.0189157
2630.55 0.0174659
2644.28 0.0194312
2651.14 0.0237409
2658.00 0.0326656
2661.44 0.0404747
2664.87 0.0525226
2668.30 0.0722826
2671.73 0.107733
2673.45 0.137022
2674.31 0.156584
2675.16 0.180818
2676.02 0.211329
2676.88 0.250481
2677.31 0.274349
2677.74 0.301855
2678.17 0.333774
2678.60 0.371099
2679.02 0.415116
2679.45 0.467518
2679.88 0.530566
2680.31 0.607330
2680.74 0.702064
2681.17 0.820792
2681.60 0.972259
2682.03 1.16953
2682.46 1.43277
2682.89 1.79430
2683.31 2.30830
2683.74 3.07023
2684.17 4.25822
2684.60 6.22422
2685.03 9.68820
2685.24 12.3717
2685.46 15.9702
2685.87 25.5278
2686.29 31.7082
2686.71 25.2007
2687.12 15.7328
2687.42 11.0612
2687.72 7.98637
2688.01 5.94540
2688.31 4.56530
2688.91 2.90027
2689.50 1.99200
2690.10 1.44955
2690.69 1.10257
2691.88 0.705706
2693.07 0.506198
2694.26 0.422674
2694.86 0.438127
2695.15 0.478722
2695.45 0.568834
2695.75 0.778116
2695.90 0.988929
2696.05 1.36356
2696.19 2.13036
2696.27 2.85474
2696.34 4.06559
2696.42 6.38780
2696.46 8.38227
2696.49 11.4997
2696.53 16.7332
2696.57 26.3807
2696.59 34.7064
2696.60 46.3971
2696.62 65.2164
2696.64 93.1545
2696.67 149.629
2696.69 186.108
2696.72 149.633
2696.74 93.1558
2696.77 54.2822
2696.80 33.6624
2696.83 22.5144
2696.86 16.0021
2696.89 11.9241
2696.92 9.22068
2696.97 6.03159
2697.03 4.24230
2697.09 3.17526
2697.20 1.98994
2697.32 1.38774
2697.43 1.04018
2697.66 0.673808
2697.89 0.492595
2698.12 0.389367
2698.58 0.279055
2699.50 0.187021
2700.42 0.145390
2702.27 0.102918
2704.11 0.0795443
2707.79 0.0532239
2711.47 0.0387065
2715.16 0.0296609
2718.84 0.0236010
2726.21 0.0162035
2733.57 0.0120237
2740.94 0.00944445
2755.67 0.00664616
2770.40 0.00550881
2785.13 0.00578513
2792.50 0.00701024
2796.18 0.00831443
2799.87 0.0106305
2803.55 0.0151728
2807.23 0.0259423
2809.07 0.0382298
2810.91 0.0661373
2811.84 0.0981604
2812.76 0.174979
2813.22 0.270213
2813.45 0.359676
2813.68 0.515897
2813.91 0.832308
2814.02 1.13216
2814.14 1.65151
2814.25 2.67416
2814.31 3.61600
2814.37 5.14312
2814.42 7.97459
2814.45 10.3556
2814.48 13.8096
2814.51 19.5027
2814.54 29.2947
2814.57 47.5243
2814.60 81.4863
2814.62 130.267
2814.65 162.774
2814.67 130.275
2814.70 81.4972
2814.71 59.4796
2814.73 45.0423
2814.76 27.1869
2814.79 17.8718
2814.82 12.5571
2814.85 9.28276
2814.88 7.13770
2814.94 4.60632
2815.01 3.23449
2815.07 2.41235
2815.19 1.52825
2815.32 1.08597
2815.44 0.839929
2815.69 0.602983
2815.93 0.513871
2816.18 0.495106
2816.68 0.591727
2816.92 0.713369
2817.17 0.911509
2817.42 1.24174
2817.66 1.83111
2817.91 3.02467
2818.04 4.13219
2818.16 5.97064
2818.28 9.41262
2818.35 12.3564
2818.41 16.8016
2818.47 24.1999
2818.53 37.4002
2818.59 63.3895
2818.62 85.7979
2818.65 117.194
2818.70 188.414
2818.75 234.650
2818.80 186.869
2818.84 117.223
2818.87 84.9525
2818.90 63.4024
2818.97 37.6942
2819.03 24.5117
2819.09 17.0740
2819.15 12.5254
2819.21 9.56064
2819.33 6.07750
2819.45 4.19591
2819.58 3.06874
2819.82 1.84560
2820.06 1.23205
2820.31 0.881421
2820.55 0.662404
2820.79 0.516966
2821.28 0.340338
2821.77 0.241628
2822.75 0.140818
2823.72 0.0927475
2824.70 0.0661108
2826.65 0.0390160
2830.55 0.0190467
2834.45 0.0118245
2842.25 0.00650810
2850.06 0.00459816
2865.66 0.00327942
2881.27 0.00304031
2896.88 0.00345285
2904.68 0.00401847
2912.49 0.00506212
2920.29 0.00712865
2924.19 0.00898578
2928.09 0.0120187
2931.99 0.0175818
2933.95 0.0224122
2935.90 0.0302391
2937.85 0.0448438
2939.80 0.0803751
2940.77 0.125093
2941.26 0.167787
2941.75 0.243307
2942.24 0.400163
2942.48 0.552594
2942.72 0.822527
2942.97 1.37905
2943.09 1.91016
2943.21 2.83255
2943.33 4.64924
2943.40 6.30128
2943.46 9.01899
2943.52 13.9387
2943.55 18.1106
2943.58 24.1580
2943.61 34.0551
2943.64 50.2252
2943.67 79.2700
2943.70 135.084
2943.73 215.110
2943.76 270.009
2943.78 215.132
2943.81 135.103
2943.83 98.7754
2943.85 74.2900
2943.88 44.4133
2943.92 28.9820
2943.95 20.4303
2943.98 14.9975
2944.02 11.5386
2944.09 7.37948
2944.16 5.12120
2944.23 3.76417
2944.36 2.28829
2944.50 1.54348
2944.64 1.12228
2944.92 0.686104
2945.19 0.477926
2945.47 0.365271
2946.02 0.258505
2946.57 0.219100
2947.13 0.210797
2948.23 0.252907
2948.78 0.305900
2949.34 0.392774
2949.89 0.539009
2950.44 0.802813
2950.72 1.02138
2950.99 1.34606
2951.27 1.85933
2951.41 2.23543
2951.55 2.73926
2951.69 3.44135
2951.82 4.44323
2951.89 5.11589
2951.96 5.95239
2952.03 7.00970
2952.10 8.37141
2952.17 10.1637
2952.24 12.5836
2952.31 15.9497
2952.38 20.7997
2952.44 28.0796
2952.51 39.5166
2952.58 58.2823
2952.65 89.5200
2952.73 143.466
2952.81 178.433
2952.89 142.082
2952.97 89.0045
2953.02 63.8405
2953.07 46.7987
2953.12 35.2768
2953.18 27.3217
2953.28 17.5656
2953.39 12.1826
2953.49 8.88583
2953.60 6.75363
2953.81 4.27596
2954.02 2.93936
2954.23 2.14587
2954.45 1.63302
2954.66 1.28572
2955.08 0.855940
2955.50 0.610996
2955.93 0.458317
2956.35 0.356962
2957.19 0.234373
2958.04 0.166092
2958.89 0.124081
2959.73 0.0964430
2961.42 0.0633891
2963.11 0.0451131
2964.80 0.0339433
2966.49 0.0266168
2969.88 0.0179079
2973.26 0.0131460
2976.64 0.0102920
2980.02 0.00849141
2986.79 0.00667131
2993.55 0.00671444
2996.94 0.00806528
3000.32 0.0127155
3002.01 0.0194717
3003.70 0.0387914
3004.55 0.0655611
3005.39 0.140283
3005.81 0.241961
3006.03 0.341862
3006.24 0.519473
3006.45 0.886963
3006.55 1.23809
3006.66 1.84028
3006.77 3.03212
3006.82 4.11296
3006.87 5.84203
3006.92 8.99499
3006.95 11.6562
3006.98 15.4656
3007.00 21.6668
3007.03 31.6001
3007.06 49.0479
3007.08 81.5626
3007.11 131.079
3007.13 163.256
3007.16 131.083
3007.18 81.5670
3007.21 51.8204
3007.23 34.2158
3007.25 23.8521
3007.28 17.4238
3007.30 13.2225
3007.33 10.3485
3007.37 6.85993
3007.42 4.83328
3007.47 3.58343
3007.56 2.20088
3007.66 1.48102
3007.76 1.06745
3007.95 0.628368
3008.14 0.413917
3008.33 0.293465
3008.71 0.170329
3009.47 0.0791282
3010.24 0.0464135
3011.76 0.0226100
3013.29 0.0141537
3019.40 0.00586587
3031.61 0.00391676
3043.82 0.00407551
3056.04 0.00517977
3062.14 0.00625529
3068.25 0.00796750
3074.36 0.0108441
3080.46 0.0161433
3083.52 0.0206307
3086.57 0.0275018
3089.62 0.0387990
3092.67 0.0593338
3094.20 0.0765831
3095.73 0.102839
3097.26 0.145668
3098.78 0.222571
3099.55 0.286483
3100.31 0.382510
3101.07 0.536594
3101.45 0.651382
3101.83 0.806906
3102.22 1.02622
3102.60 1.34855
3102.79 1.56966
3102.98 1.84969
3103.17 2.21140
3103.36 2.68674
3103.55 3.33575
3103.74 4.24802
3103.93 5.58449
3104.12 7.63302
3104.32 11.0218
3104.41 13.6007
3104.51 17.0928
3104.60 22.0507
3104.70 29.1229
3104.79 39.4969
3104.89 54.6623
3105.03 87.3367
3105.18 108.823
3105.32 86.8631
3105.46 54.2899
3105.60 34.5246
3105.73 22.9993
3105.87 16.1386
3106.00 11.8462
3106.27 7.08098
3106.54 4.67516
3106.80 3.30661
3107.07 2.45824
3107.61 1.50829
3108.14 1.01796
3108.68 0.732786
3109.22 0.552598
3109.75 0.431784
3110.82 0.284418
3111.89 0.201613
3112.97 0.150533
3114.04 0.116866
3116.18 0.0766224
3118.32 0.0545028
3120.47 0.0411327
3122.61 0.0325349
3126.90 0.0229678
3131.18 0.0195013
3133.33 0.0203500
3135.47 0.0260343
3136.54 0.0349321
3137.61 0.0605103
3138.15 0.0957209
3138.69 0.192954
3138.95 0.323118
3139.22 0.669989
3139.36 1.11398
3139.42 1.52608
3139.49 2.21927
3139.56 3.51724
3139.59 4.65571
3139.62 6.37132
3139.66 9.31556
3139.69 14.5077
3139.71 18.9078
3139.72 24.9222
3139.74 34.4278
3139.76 48.5131
3139.78 77.7440
3139.81 97.0251
3139.83 77.7586
3139.85 48.5249
3139.87 35.1277
3139.89 25.8532
3139.92 15.4055
3139.95 9.91174
3139.98 6.92801
3140.01 5.04960
3140.04 3.86730
3140.11 2.45528
3140.17 1.69483
3140.23 1.24027
3140.36 0.750776
3140.61 0.362403
3140.86 0.216675
3141.36 0.107337
3141.86 0.0678864
3142.87 0.0395337
3143.88 0.0302742
3145.89 0.0264863
3147.90 0.0312208
3149.91 0.0464962
3151.92 0.0932809
3152.92 0.158966
3153.43 0.224429
3153.93 0.343077
3154.43 0.594087
3154.68 0.839634
3154.93 1.27820
3155.06 1.64165
3155.19 2.18597
3155.31 3.05416
3155.44 4.54773
3155.56 7.50608
3155.63 10.1944
3155.69 14.5213
3155.75 22.4211
3155.78 29.0894
3155.81 38.7266
3155.85 54.3920
3155.88 79.8023
3155.91 124.904
3155.94 208.221
3155.97 335.084
3156.00 416.243
3156.03 335.104
3156.06 208.238
3156.09 119.258
3156.12 73.7512
3156.16 49.1841
3156.19 34.8398
3156.23 25.6481
3156.26 19.7618
3156.33 12.7195
3156.40 8.80502
3156.47 6.47507
3156.60 3.91752
3156.74 2.61438
3156.88 1.86776
3157.01 1.40085
3157.15 1.09153
3157.42 0.714709
3157.70 0.505151
3158.24 0.291206
3158.79 0.189955
3159.34 0.134166
3160.43 0.0779508
3162.62 0.0370847
3164.81 0.0224921
3169.18 0.0117826
3173.56 0.00787289
3177.93 0.00599211
3182.31 0.00495140
3191.06 0.00400290
3199.81 0.00395192
3208.56 0.00520310
3212.94 0.00730632
3217.31 0.0134855
3219.50 0.0221311
3221.69 0.0465476
3222.78 0.0802156
3223.87 0.174111
3224.42 0.301540
3224.69 0.426464
3224.97 0.648438
3225.24 1.10600
3225.38 1.54177
3225.51 2.28861
3225.65 3.75659
3225.72 5.06825
3225.79 7.19687
3225.86 11.0485
3225.89 14.1572
3225.92 18.7269
3225.96 25.7722
3225.99 37.2538
3226.03 57.0649
3226.06 92.4793
3226.10 148.661
3226.13 185.002
3226.16 148.718
3226.20 92.5249
3226.23 57.0916
3226.27 37.2695
3226.30 25.5243
3226.34 18.5702
3226.37 13.9454
3226.40 10.9012
3226.47 7.15868
3226.54 5.02194
3226.61 3.71191
3226.75 2.26744
3226.89 1.52217
3227.02 1.09418
3227.30 0.642176
3227.57 0.422078
3227.85 0.298692
3228.40 0.172716
3229.50 0.0797371
3230.60 0.0464919
3232.79 0.0225451
3234.99 0.0144296
3239.39 0.0119296
3241.59 0.0247842
3242.69 0.0781220
3242.96 0.131083
3243.24 0.273040
3243.37 0.456856
3243.51 0.915078
3243.58 1.46294
3243.65 2.66285
3243.68 3.93411
3243.72 6.22550
3243.75 10.9753
3243.77 15.2935
3243.79 22.1234
3243.81 35.5261
3243.83 44.2002
3243.86 35.5267
3243.88 22.1240
3243.90 13.5544
3243.93 8.85769
3243.95 6.13372
3243.97 4.46087
3244.02 2.63596
3244.06 1.72924
3244.16 0.898544
3244.25 0.551308
3244.43 0.268324
3244.62 0.159215
3244.99 0.0762140
3245.36 0.0456725
3246.84 0.0149044
3249.80 0.00661040
3255.71 0.00429981
3261.63 0.00403633
3267.55 0.00439817
3273.46 0.00541757
3279.38 0.00788700
3282.34 0.0107149
3285.30 0.0175468
3286.78 0.0261806
3288.26 0.0493090
3289.00 0.0804982
3289.74 0.166573
3290.11 0.283292
3290.29 0.397572
3290.48 0.601816
3290.66 1.02281
3290.75 1.42783
3290.85 2.12380
3290.94 3.51051
3290.98 4.75875
3291.03 6.80581
3291.08 10.4942
3291.10 13.5468
3291.12 18.0993
3291.15 25.2575
3291.17 37.2499
3291.19 58.7761
3291.21 99.9636
3291.24 160.942
3291.26 200.146
3291.28 160.966
3291.30 99.9831
3291.32 68.5056
3291.33 47.7864
3291.35 34.6641
3291.37 26.4843
3291.40 16.5060
3291.43 11.1865
3291.47 8.05319
3291.50 6.06389
3291.56 3.78539
3291.63 2.57041
3291.70 1.86719
3291.83 1.11423
3291.96 0.739301
3292.09 0.528909
3292.36 0.311244
3292.89 0.149981
3293.42 0.0924139
3294.48 0.0517547
3295.54 0.0390598
3297.66 0.0353155
3299.77 0.0443465
3300.83 0.0540434
3301.89 0.0695649
3302.95 0.0955035
3304.01 0.142801
3304.54 0.182488
3305.07 0.242748
3305.60 0.340702
3306.13 0.515454
3306.39 0.660025
3306.66 0.876571
3306.92 1.22212
3307.19 1.82051
3307.32 2.30477
3307.45 3.00510
3307.59 4.08988
3307.72 5.86501
3307.79 7.23882
3307.85 9.11540
3307.92 11.8089
3307.98 15.8523
3308.05 22.2661
3308.08 26.9448
3308.12 33.1421
3308.15 41.5065
3308.18 52.9895
3308.21 68.9149
3308.25 90.8277
3308.31 145.023
3308.37 180.753
3308.42 144.486
3308.48 90.4052
3308.54 58.3915
3308.59 39.6322
3308.64 28.0187
3308.69 20.7881
3308.80 12.5531
3308.90 8.34167
3309.01 5.92669
3309.11 4.42151
3309.32 2.73324
3309.53 1.85246
3309.74 1.34096
3309.95 1.01549
3310.16 0.797719
3310.58 0.531341
3311.00 0.382344
3311.42 0.290838
3311.84 0.230988
3312.68 0.161113
3313.51 0.125335
3314.35 0.107080
3315.19 0.100018
3316.03 0.102170
3316.87 0.114610
3317.71 0.142436
3318.55 0.199416
3319.38 0.326738
3319.80 0.454267
3320.22 0.685273
3320.43 0.878436
3320.64 1.17025
3320.85 1.64088
3321.06 2.46669
3321.17 3.14190
3321.27 4.13920
3321.38 5.69998
3321.48 8.30731
3321.59 13.2614
3321.64 17.6124
3321.69 24.2943
3321.74 35.7639
3321.80 56.5687
3321.82 73.9227
3321.85 99.6091
3321.87 138.646
3321.90 199.211
3321.94 318.096
3321.97 398.574
3322.01 318.095
3322.04 199.211
3322.08 114.123
3322.13 70.0575
3322.17 46.4865
3322.21 32.8145
3322.25 24.2950
3322.29 18.6674
3322.38 12.0266
3322.46 8.33965
3322.54 6.13663
3322.71 3.70739
3322.88 2.47435
3323.05 1.77193
3323.21 1.33190
3323.38 1.03822
3323.72 0.682088
3324.05 0.483738
3324.72 0.280999
3325.39 0.184750
3326.06 0.131503
3327.39 0.0774666
3328.73 0.0517959
3330.07 0.0375047
3332.75 0.0228123
3335.42 0.0156758
3338.10 0.0116191
3343.45 0.00734585
3348.80 0.00521872
3354.15 0.00399349
3364.85 0.00269996
3375.56 0.00207353
3386.26 0.00174130
3407.66 0.00151143
3429.07 0.00171092
3439.77 0.00205602
3450.47 0.00276346
3461.18 0.00436121
3466.53 0.00598764
3471.88 0.00898761
3477.23 0.0154521
3479.91 0.0219192
3482.58 0.0337357
3483.92 0.0437125
3485.26 0.0589702
3486.60 0.0840140
3487.93 0.129373
3488.60 0.167371
3489.27 0.225023
3489.94 0.318634
3490.61 0.485705
3490.94 0.623647
3491.28 0.829096
3491.61 1.15669
3491.95 1.72183
3492.28 2.83130
3492.45 3.83012
3492.62 5.45890
3492.78 8.36865
3492.87 10.7727
3492.95 14.2837
3493.03 19.8051
3493.12 28.7871
3493.20 44.7068
3493.28 73.1149
3493.37 117.119
3493.45 146.502
3493.53 117.101
3493.61 73.1015
3493.67 52.8112
3493.72 39.1566
3493.82 23.2353
3493.93 15.0359
3494.04 10.4703
3494.14 7.65782
3494.25 5.84509
3494.46 3.70703
3494.68 2.55415
3494.89 1.86442
3495.32 1.11704
3495.74 0.742819
3496.17 0.529321
3496.59 0.396193
3497.02 0.307650
3497.87 0.200915
3498.72 0.141494
3499.58 0.105057
3500.43 0.0811398
3502.13 0.0526232
3503.83 0.0369407
3507.24 0.0211787
3510.65 0.0138054
3514.06 0.00977482
3520.87 0.00574189
3527.69 0.00386438
3534.50 0.00284124
3548.13 0.00182433
3575.39 0.00112081
3602.65 0.000935157
3629.91 0.000973901
3657.17 0.00131205
3684.43 0.00302513
3698.06 0.00873958
3701.46 0.0140073
3704.87 0.0274385
3706.58 0.0441318
3708.28 0.0855557
3709.13 0.136343
3709.98 0.263219
3710.41 0.421957
3710.62 0.570866
3710.83 0.828936
3711.05 1.34452
3711.15 1.82881
3711.26 2.64672
3711.37 4.23564
3711.42 5.63596
3711.47 7.88240
3711.53 11.8042
3711.58 19.4959
3711.61 26.5166
3711.63 37.2109
3711.66 55.6428
3711.69 85.8541
3711.72 137.993
3711.74 171.488
3711.77 137.952
3711.80 85.8377
3711.84 50.6712
3711.87 31.6853
3711.90 21.3262
3711.93 15.3840
3711.97 11.5086
3712.00 9.00345
3712.06 5.94197
3712.13 4.24210
3712.19 3.23928
3712.32 2.16739
3712.46 1.66608
3712.59 1.43570
3712.85 1.40522
3713.11 1.88810
3713.24 2.45843
3713.37 3.49001
3713.50 5.57818
3713.56 7.47021
3713.63 10.5702
3713.69 16.1317
3713.73 20.7935
3713.76 27.4933
3713.79 38.2755
3713.82 55.5702
3713.86 87.0521
3713.89 143.368
3713.92 230.378
3713.95 286.755
3713.98 230.482
3714.01 143.442
3714.05 88.3690
3714.08 57.7231
3714.11 39.5270
3714.14 28.7888
3714.17 21.6291
3714.20 16.9302
3714.27 11.1495
3714.33 7.84256
3714.39 5.81424
3714.52 3.57662
3714.64 2.41869
3714.77 1.75229
3715.02 1.04660
3715.27 0.698266
3715.52 0.501815
3716.02 0.297474
3716.52 0.198355
3717.02 0.142513
3718.02 0.0847125
3720.03 0.0409640
3722.03 0.0247715
3726.04 0.0127648
3730.05 0.00857583
3738.07 0.00615728
3746.09 0.00662371
3754.10 0.00964534
3762.12 0.0195144
3766.13 0.0335534
3768.13 0.0476453
3770.14 0.0734241
3772.14 0.128541
3773.15 0.183253
3774.15 0.282496
3774.65 0.365633
3775.15 0.491839
3775.65 0.696913
3776.15 1.06330
3776.40 1.36632
3776.65 1.81766
3776.90 2.53915
3777.15 3.78524
3777.40 6.24259
3777.53 8.46123
3777.65 12.0932
3777.78 18.6918
3777.84 24.1638
3777.91 32.1793
3777.97 44.9601
3778.03 65.9505
3778.09 104.054
3778.16 174.927
3778.21 278.957
3778.27 349.734
3778.33 278.993
3778.39 174.808
3778.43 123.067
3778.47 88.6880
3778.52 65.9620
3778.56 50.8611
3778.64 32.3444
3778.72 22.2011
3778.81 16.0617
3778.89 12.1716
3779.06 7.65925
3779.22 5.24027
3779.39 3.81332
3779.56 2.89763
3779.72 2.27565
3780.05 1.50791
3780.39 1.07190
3780.72 0.800888
3781.05 0.621496
3781.72 0.405007
3782.38 0.284923
3783.71 0.163019
3785.05 0.105565
3786.38 0.0740003
3789.04 0.0423066
3794.36 0.0194026
3799.68 0.0113260
3810.33 0.00557826
3820.98 0.00368729
3842.27 0.00345948
3852.92 0.00739133
3855.58 0.0114749
3858.24 0.0229287
3859.57 0.0387197
3860.91 0.0830992
3861.57 0.144189
3862.24 0.313933
3862.57 0.544144
3862.74 0.768146
3862.90 1.16624
3863.07 1.98626
3863.15 2.75921
3863.23 4.08764
3863.32 6.65964
3863.36 8.98960
3863.40 12.6556
3863.44 19.2605
3863.48 32.0073
3863.50 43.7399
3863.53 62.5807
3863.55 94.3935
3863.57 146.152
3863.59 235.846
3863.61 292.588
3863.63 235.878
3863.66 146.178
3863.68 88.7336
3863.70 57.2094
3863.73 39.2374
3863.75 28.3381
3863.77 21.0832
3863.80 16.4198
3863.84 10.7263
3863.89 7.48125
3863.93 5.54039
3864.03 3.38269
3864.12 2.26729
3864.21 1.62978
3864.40 0.955690
3864.58 0.626477
3864.77 0.443274
3865.14 0.256006
3865.88 0.118027
3866.62 0.0687594
3868.10 0.0332468
3869.58 0.0210323
3872.54 0.0133450
3875.51 0.0128145
3878.47 0.0171043
3881.43 0.0326454
3882.92 0.0550015
3884.40 0.118292
3885.14 0.205297
3885.51 0.291086
3885.88 0.445610
3886.25 0.769208
3886.43 1.08192
3886.62 1.63322
3886.71 2.08490
3886.80 2.74433
3886.90 3.78704
3886.99 5.52996
3887.08 8.85553
3887.13 11.7140
3887.17 16.1792
3887.22 23.8868
3887.27 37.8981
3887.29 49.6339
3887.31 67.0763
3887.34 93.7269
3887.36 135.886
3887.39 217.986
3887.42 271.762
3887.45 217.922
3887.48 135.836
3887.50 99.6253
3887.52 73.9831
3887.56 43.9699
3887.60 28.5772
3887.64 19.8940
3887.68 14.5853
3887.72 11.1260
3887.80 7.06337
3887.88 4.86990
3887.96 3.55657
3888.12 2.13247
3888.28 1.41897
3888.44 1.01175
3888.76 0.588822
3889.08 0.385134
3889.40 0.271727
3890.04 0.156621
3891.32 0.0723239
3892.60 0.0423597
3895.16 0.0211006
3897.72 0.0144872
3902.83 0.0185357
3904.11 0.0278283
3905.39 0.0553446
3906.03 0.0936767
3906.67 0.200133
3906.99 0.343771
3907.31 0.730130
3907.47 1.23034
3907.55 1.69928
3907.63 2.49676
3907.71 4.01530
3907.75 5.34661
3907.79 7.45226
3907.83 11.0477
3907.87 17.8472
3907.89 23.6771
3907.91 32.5339
3907.93 46.4285
3907.95 67.1124
3907.98 108.113
3908.00 134.162
3908.03 108.087
3908.05 67.0924
3908.08 43.9021
3908.10 29.9365
3908.12 21.3622
3908.14 15.8730
3908.19 9.54469
3908.23 6.37559
3908.28 4.51286
3908.32 3.37722
3908.41 2.08059
3908.50 1.40790
3908.59 1.01539
3908.76 0.601177
3909.12 0.281389
3909.47 0.163455
3910.19 0.0759264
3910.90 0.0443903
3912.32 0.0212868
3913.74 0.0129792
3919.42 0.00451319
3930.80 0.00195847
3953.54 0.00105517
3999.03 0.000809802
4044.51 0.00123013
4067.26 0.00238587
4078.63 0.00471644
4084.32 0.00984016
4087.16 0.0250795
4088.58 0.0795886
4088.94 0.133433
4089.29 0.278736
4089.47 0.469447
4089.65 0.957207
4089.74 1.55765
4089.82 2.96235
4089.87 4.51413
4089.91 7.52730
4089.94 10.2316
4089.96 14.5374
4089.98 21.7332
4090.00 34.0647
4090.03 54.4443
4090.05 68.1094
4090.07 54.4572
4090.10 34.0750
4090.12 23.5168
4090.13 16.7295
4090.15 12.3213
4090.17 9.37423
4090.21 5.87992
4090.24 4.00152
4090.31 2.16469
4090.39 1.35816
4090.53 0.675203
4090.68 0.404312
4090.97 0.194598
4091.26 0.116779
4091.83 0.0590987
4092.41 0.0387132
4094.73 0.0215336
4099.36 0.0332733
4101.68 0.0562779
4102.84 0.0796481
4103.99 0.122444
4105.15 0.213603
4105.73 0.303719
4106.31 0.466309
4106.60 0.602052
4106.89 0.806288
4107.18 1.13687
4107.47 1.71906
4107.61 2.19572
4107.76 2.90144
4107.90 4.00960
4108.05 5.87634
4108.19 9.44450
4108.27 12.5950
4108.34 17.5025
4108.41 25.9889
4108.48 41.7747
4108.52 55.2306
4108.55 75.5709
4108.59 107.318
4108.63 158.028
4108.67 253.398
4108.72 316.034
4108.77 253.327
4108.81 157.973
4108.86 98.9294
4108.90 64.8580
4108.95 44.9919
4108.99 32.9695
4109.04 24.9370
4109.08 19.5687
4109.17 12.8650
4109.26 9.04059
4109.35 6.71067
4109.53 4.10878
4109.70 2.76343
4109.88 1.98753
4110.06 1.49534
4110.24 1.16710
4110.60 0.766739
4110.95 0.541986
4111.31 0.403385
4111.67 0.311942
4112.38 0.202608
4113.10 0.142229
4114.52 0.0813149
4115.95 0.0527431
4117.38 0.0370960
4120.24 0.0214369
4125.95 0.0102324
4131.66 0.00643801
4143.08 0.00496377
4148.79 0.00928745
4151.65 0.0279669
4152.36 0.0471384
4153.08 0.100886
4153.43 0.174274
4153.79 0.375906
4153.97 0.645412
4154.15 1.35328
4154.24 2.24695
4154.28 3.07808
4154.33 4.42689
4154.37 6.96267
4154.39 9.05872
4154.41 12.2322
4154.44 17.6294
4154.46 26.6774
4154.48 43.7735
4154.49 57.9725
4154.50 79.3976
4154.52 127.636
4154.54 158.928
4154.56 127.726
4154.58 79.4679
4154.59 56.5111
4154.60 40.7311
4154.62 30.2913
4154.63 23.2126
4154.65 14.6993
4154.68 10.0604
4154.71 7.28950
4154.73 5.51331
4154.78 3.48829
4154.84 2.38456
4154.89 1.73137
4154.99 1.03517
4155.20 0.488795
4155.40 0.284838
4155.82 0.131947
4156.23 0.0765491
4157.06 0.0360740
4157.88 0.0217042
4161.19 0.00782190
4167.80 0.00541261
4174.41 0.0106924
4177.72 0.0325317
4178.54 0.0546004
4179.37 0.115919
4179.78 0.199048
4180.20 0.425314
4180.40 0.724118
4180.51 1.00720
4180.61 1.49609
4180.71 2.46329
4180.76 3.33980
4180.82 4.74010
4180.87 7.29021
4180.89 9.39067
4180.92 12.3610
4180.94 17.1356
4180.97 25.0185
4181.00 38.8529
4181.02 62.7271
4181.05 101.049
4181.07 125.402
4181.10 101.035
4181.12 62.7159
4181.14 42.5867
4181.16 29.8985
4181.18 21.8005
4181.20 16.4601
4181.24 10.1069
4181.28 6.84266
4181.33 4.88523
4181.37 3.67999
4181.45 2.29821
4181.53 1.56205
4181.61 1.13005
4181.77 0.672054
4182.09 0.316934
4182.41 0.185254
4183.06 0.0873226
4183.70 0.0521467
4184.99 0.0269241
4186.28 0.0185192
4191.45 0.0161332
4194.03 0.0242523
4196.61 0.0496714
4197.90 0.0853025
4198.54 0.120674
4199.19 0.184704
4199.83 0.319163
4200.16 0.450437
4200.48 0.682788
4200.80 1.15799
4200.96 1.60511
4201.12 2.37040
4201.29 3.85564
4201.37 5.17790
4201.45 7.26980
4201.53 10.9581
4201.61 18.0567
4201.65 24.5156
4201.69 34.4416
4201.73 50.6892
4201.77 78.2080
4201.82 124.804
4201.86 156.399
4201.91 124.772
4201.95 78.1842
4201.98 56.2141
4202.01 41.1272
4202.05 30.9490
4202.08 23.9358
4202.14 15.3553
4202.20 10.6573
4202.26 7.76138
4202.32 5.89170
4202.45 3.72817
4202.57 2.55817
4202.69 1.86654
4202.94 1.11793
4203.19 0.742341
4203.43 0.528588
4203.93 0.307434
4204.42 0.200873
4204.91 0.141722
4205.90 0.0815778
4207.87 0.0375725
4209.85 0.0218590
4213.80 0.0104671
4217.74 0.00643143
4233.54 0.00273002
4249.33 0.00385002
4257.22 0.0112556
4259.20 0.0190005
4261.17 0.0408985
4262.16 0.0710625
4263.15 0.155003
4263.64 0.268734
4264.13 0.576130
4264.38 0.978657
4264.50 1.35756
4264.63 2.00684
4264.75 3.27284
4264.81 4.40381
4264.87 6.19080
4264.94 9.36654
4265.00 15.4931
4265.03 21.0414
4265.06 29.8552
4265.09 44.5351
4265.12 69.3268
4265.15 110.974
4265.19 138.588
4265.22 110.904
4265.26 69.2724
4265.29 43.8979
4265.32 29.1280
4265.35 20.3800
4265.38 15.0646
4265.45 9.02740
4265.51 5.96991
4265.57 4.20574
4265.64 3.13122
4265.76 1.92488
4265.89 1.29690
4266.02 0.934586
4266.27 0.550988
4266.77 0.256768
4267.28 0.148179
4268.29 0.0678742
4269.30 0.0390465
4271.32 0.0180807
4273.34 0.0106372
4281.42 0.00335895
4297.59 0.00150543
4313.76 0.00119957
4329.92 0.00118153
4346.09 0.00134686
4362.26 0.00188348
4378.42 0.00459895
4386.51 0.0150456
4388.53 0.0257399
4390.55 0.0559409
4391.56 0.0976690
4392.57 0.214270
4393.08 0.373054
4393.33 0.529227
4393.58 0.807606
4393.83 1.38485
4393.96 1.93527
4394.09 2.89206
4394.21 4.79971
4394.28 6.52834
4394.34 9.37735
4394.40 14.5489
4394.43 18.9442
4394.46 25.3406
4394.50 35.8403
4394.53 53.1150
4394.56 85.8112
4394.59 146.428
4394.62 234.212
4394.65 292.715
4394.67 234.233
4394.70 146.445
4394.72 101.341
4394.74 73.2367
4394.76 53.8584
4394.78 41.4279
4394.83 26.1232
4394.87 17.9851
4394.91 12.9924
4394.95 9.80477
4395.03 6.16636
4395.11 4.20845
4395.19 3.06294
4395.35 1.82327
4395.52 1.20772
4395.68 0.858376
4396.01 0.498091
4396.33 0.324663
4396.66 0.228409
4397.31 0.130975
4398.61 0.0597989
4399.91 0.0344800
4402.52 0.0162254
4405.13 0.00981090
4415.55 0.00375242
4425.97 0.00288140
4436.40 0.00292068
4446.82 0.00349334
4457.24 0.00501108
4467.67 0.0109521
4472.88 0.0291661
4474.18 0.0463338
4475.49 0.0930361
4476.14 0.156118
4476.79 0.328879
4477.12 0.560205
4477.28 0.783954
4477.44 1.17499
4477.60 1.96574
4477.69 2.70770
4477.77 3.94467
4477.85 6.30445
4477.89 8.35699
4477.93 11.4774
4477.97 16.8323
4478.01 26.4063
4478.03 34.7946
4478.05 46.6392
4478.07 64.4942
4478.09 92.7784
4478.12 148.676
4478.15 185.646
4478.18 148.766
4478.20 92.8495
4478.23 64.5417
4478.25 46.6709
4478.27 34.3375
4478.29 26.4215
4478.33 16.6702
4478.37 11.4830
4478.41 8.29996
4478.45 6.26754
4478.53 3.94751
4478.61 2.69905
4478.69 1.96868
4478.86 1.18172
4479.02 0.788059
4479.18 0.565014
4479.51 0.335649
4480.16 0.165862
4480.81 0.106559
4482.11 0.0699611
4483.41 0.0699329
4484.71 0.0967966
4486.02 0.188852
4486.67 0.318559
4486.99 0.447003
4487.32 0.677034
4487.64 1.15538
4487.81 1.61519
4487.97 2.41238
4488.13 4.00295
4488.21 5.45060
4488.29 7.84492
4488.38 12.2895
4488.42 16.0453
4488.46 21.5900
4488.50 30.7168
4488.54 46.0621
4488.58 75.5267
4488.62 132.829
4488.65 213.377
4488.69 265.556
4488.72 213.234
4488.76 132.718
4488.79 86.2788
4488.82 57.9536
4488.85 40.8957
4488.88 30.4173
4488.94 18.3739
4489.00 12.2107
4489.06 8.63006
4489.12 6.44103
4489.25 3.97348
4489.37 2.68387
4489.49 1.93826
4489.74 1.14493
4489.98 0.756138
4490.23 0.537270
4490.72 0.312644
4491.21 0.205576
4491.70 0.146313
4492.68 0.0863570
4494.64 0.0426412
4496.60 0.0271260
4500.52 0.0161893
4504.43 0.0128618
4508.35 0.0120827
4512.27 0.0129930
4516.19 0.0184042
4518.15 0.0370144
4519.13 0.105327
4519.38 0.171919
4519.62 0.348359
4519.75 0.574054
4519.87 1.12601
4519.93 1.76461
4519.99 3.14114
4520.02 4.53215
4520.05 6.91681
4520.08 11.7378
4520.10 15.7465
4520.11 21.9563
4520.14 34.8600
4520.16 43.9128
4520.18 34.8580
4520.21 21.9548
4520.23 14.5257
4520.25 9.95826
4520.29 5.39251
4520.33 3.28246
4520.36 2.21350
4520.44 1.18818
4520.52 0.744194
4520.68 0.370964
4520.84 0.225373
4521.47 0.0713669
4522.72 0.0298887
4525.24 0.0206041
4530.28 0.0228253
4535.31 0.0307576
4540.35 0.0459649
4542.86 0.0587580
4545.38 0.0780859
4547.90 0.109223
4550.41 0.164101
4551.67 0.208782
4552.30 0.238382
4552.93 0.274731
4553.56 0.320197
4554.19 0.377892
4554.82 0.452732
4555.14 0.498854
4555.45 0.552204
4556.08 0.688594
4556.71 0.881785
4557.34 1.16825
4557.97 1.61769
4558.28 1.94458
4558.60 2.37816
4558.91 2.96808
4559.23 3.79135
4559.54 4.98586
4559.85 6.76756
4560.17 9.52132
4560.48 13.7656
4560.90 22.0329
4561.32 27.5866
4561.74 22.1040
4562.16 13.8218
4562.47 9.58116
4562.78 6.83581
4563.09 5.04682
4563.40 3.84796
4564.02 2.42364
4564.64 1.65747
4565.27 1.20477
4565.89 0.918157
4567.13 0.597142
4568.38 0.448990
4569.62 0.425487
4570.24 0.499411
4570.55 0.592598
4570.86 0.773717
4571.18 1.16548
4571.33 1.54969
4571.49 2.22136
4571.64 3.57116
4571.72 4.81520
4571.80 6.85404
4571.88 10.6463
4571.91 13.8557
4571.95 18.7492
4571.99 26.6796
4572.03 40.5464
4572.07 67.0168
4572.09 88.4922
4572.11 119.325
4572.14 190.517
4572.17 238.568
4572.20 190.455
4572.24 119.275
4572.26 78.4903
4572.29 53.2039
4572.32 37.8089
4572.35 28.0200
4572.40 16.9856
4572.46 11.4102
4572.51 8.13796
4572.57 6.09980
4572.68 3.82123
4572.79 2.62576
4572.90 1.93322
4573.13 1.19509
4573.35 0.828517
4573.57 0.620255
4574.02 0.403023
4574.91 0.233459
4575.80 0.165511
4576.69 0.129127
4577.58 0.106176
4579.36 0.0782217
4582.93 0.0500427
4586.49 0.0355736
4590.05 0.0268182
4593.62 0.0210371
4600.75 0.0140496
4607.87 0.0101201
4615.00 0.00768656
4629.26 0.00495358
4643.51 0.00354211
4657.77 0.00273121
4686.28 0.00193180
4714.79 0.00167695
4743.29 0.00186371
4771.80 0.00354051
4786.06 0.00991873
4789.62 0.0163613
4793.19 0.0344422
4794.97 0.0593125
4796.75 0.128600
4797.64 0.222578
4798.09 0.314592
4798.53 0.478264
4798.98 0.814946
4799.20 1.13525
4799.42 1.68562
4799.65 2.76372
4799.76 3.72910
4799.87 5.29612
4799.98 8.11087
4800.04 10.4160
4800.09 13.7431
4800.15 18.9681
4800.20 27.3284
4800.26 42.0284
4800.31 68.1338
4800.37 109.117
4800.43 136.341
4800.48 109.158
4800.54 68.1669
4800.59 42.3958
4800.65 27.7340
4800.70 19.2115
4800.76 14.0477
4800.81 10.6196
4800.87 8.32255
4800.98 5.46575
4801.08 3.85236
4801.19 2.85703
4801.41 1.74752
4801.63 1.17718
4801.85 0.846333
4802.28 0.497691
4802.72 0.327535
4803.16 0.232010
4804.03 0.134241
4805.77 0.0621251
4807.52 0.0363060
4811.01 0.0176590
4814.49 0.0111784
4828.45 0.00598577
4835.43 0.00672662
4842.40 0.0101576
4845.89 0.0150571
4849.38 0.0287585
4851.12 0.0475510
4852.87 0.0998942
4853.74 0.171093
4854.61 0.365968
4855.05 0.624270
4855.27 0.871635
4855.48 1.30246
4855.70 2.15424
4855.81 2.93177
4855.92 4.21599
4856.03 6.55470
4856.08 8.53324
4856.14 11.4616
4856.19 16.2246
4856.25 24.2220
4856.30 39.2979
4856.36 68.1775
4856.40 109.406
4856.45 136.199
4856.50 109.286
4856.55 68.0839
4856.60 40.3952
4856.65 25.6175
4856.70 17.2522
4856.75 12.3750
4856.80 9.21975
4856.85 7.15003
4856.96 4.62625
4857.06 3.22933
4857.16 2.37913
4857.37 1.44639
4857.57 0.969584
4857.78 0.696247
4858.19 0.409108
4858.60 0.269539
4859.01 0.191721
4859.84 0.112357
4861.48 0.0541525
4863.12 0.0335422
4866.41 0.0191140
4869.70 0.0146940
4872.99 0.0134209
4876.28 0.0136755
4882.86 0.0175405
4886.15 0.0215770
4889.44 0.0280263
4892.73 0.0388020
4896.02 0.0584104
4897.66 0.0747988
4899.31 0.0995722
4900.95 0.139571
4902.60 0.210305
4904.24 0.353869
4905.07 0.488801
4905.48 0.587173
4905.89 0.718531
4906.30 0.899856
4906.51 1.01729
4906.71 1.15840
4906.92 1.33172
4907.12 1.54546
4907.33 1.81586
4907.53 2.16075
4907.74 2.61432
4907.94 3.21940
4908.15 4.05782
4908.36 5.24641
4908.56 7.01312
4908.77 9.72157
4908.97 14.0744
4909.18 21.0672
4909.43 33.7104
4909.67 42.0830
4909.92 33.6509
4910.17 21.0629
4910.45 12.1723
4910.74 7.57811
4911.02 5.07099
4911.30 3.60559
4911.58 2.68192
4911.87 2.07062
4912.43 1.33888
4913.00 0.936617
4913.56 0.694207
4914.69 0.433975
4915.82 0.315443
4916.95 0.286334
4917.51 0.326209
4918.08 0.488324
4918.36 0.725286
4918.50 0.957526
4918.64 1.36781
4918.78 2.19068
4918.85 2.95776
4918.92 4.22145
4919.00 6.59790
4919.03 8.59499
4919.07 11.6501
4919.10 16.8108
4919.14 25.7352
4919.17 43.0533
4919.19 58.2944
4919.21 79.0364
4919.23 127.238
4919.26 157.832
4919.29 125.427
4919.32 78.9093
4919.34 54.3925
4919.36 39.1447
4919.38 28.7015
4919.40 22.0385
4919.44 13.8796
4919.48 9.48331
4919.52 6.87590
4919.56 5.21252
4919.64 3.29832
4919.73 2.28411
4919.81 1.68389
4919.97 1.03911
4920.30 0.534809
4920.63 0.343615
4921.28 0.195198
4921.94 0.137042
4923.25 0.0877386
4924.56 0.0652419
4927.18 0.0428594
4929.80 0.0313094
4935.05 0.0194853
4940.29 0.0136896
4945.53 0.0104360
4950.77 0.00849095
4961.26 0.00670575
4971.75 0.00689091
4976.99 0.00796359
4982.23 0.0103918
4987.47 0.0160813
4992.72 0.0327538
4995.34 0.0560679
4996.65 0.0793448
4997.96 0.121729
4999.27 0.211804
4999.92 0.300598
5000.58 0.460443
5001.24 0.794297
5001.56 1.11742
5001.89 1.68453
5002.05 2.14691
5002.22 2.82887
5002.38 3.89418
5002.55 5.67743
5002.71 9.04573
5002.79 11.9596
5002.87 16.5052
5002.96 24.1153
5003.04 38.0852
5003.08 49.7077
5003.12 66.8640
5003.16 92.8391
5003.20 132.082
5003.26 211.407
5003.32 264.175
5003.37 211.422
5003.43 132.095
5003.49 81.3889
5003.54 53.2864
5003.60 36.9419
5003.65 26.8849
5003.71 20.3482
5003.77 15.8943
5003.88 10.4248
5003.99 7.31999
5004.10 5.42727
5004.33 3.31818
5004.55 2.23076
5004.78 1.60353
5005.00 1.20781
5005.22 0.942361
5005.67 0.619046
5006.12 0.437991
5007.02 0.252437
5007.92 0.164258
5008.81 0.115562
5010.61 0.0664256
5014.20 0.0307178
5017.78 0.0180360
5024.96 0.00885796
5032.14 0.00560037
5046.49 0.00327598
5060.84 0.00256702
5075.20 0.00249309
5089.55 0.00306920
5103.91 0.00576636
5111.08 0.0131720
5114.67 0.0374992
5115.57 0.0613224
5116.46 0.127069
5116.91 0.216129
5117.36 0.457950
5117.59 0.778251
5117.81 1.60909
5117.92 2.64066
5117.98 3.57291
5118.03 5.09607
5118.09 7.82504
5118.12 10.0703
5118.15 13.3989
5118.17 18.5897
5118.20 27.1842
5118.23 42.3454
5118.26 70.0106
5118.29 112.075
5118.31 140.172
5118.34 112.129
5118.37 70.0532
5118.39 48.6731
5118.41 34.7530
5118.43 25.6662
5118.45 19.5672
5118.49 12.3063
5118.53 8.46189
5118.57 6.10738
5118.61 4.60686
5118.68 2.89743
5118.76 1.97870
5118.84 1.44191
5119.00 0.863926
5119.32 0.411904
5119.64 0.242891
5120.27 0.117244
5120.90 0.0722393
5122.17 0.0405280
5123.44 0.0307586
5125.98 0.0284155
5128.51 0.0367976
5131.05 0.0598293
5133.59 0.127703
5134.86 0.221482
5135.49 0.314005
5136.12 0.480553
5136.76 0.827388
5137.08 1.16234
5137.39 1.75118
5137.55 2.23095
5137.71 2.93258
5137.87 4.03261
5138.03 5.86954
5138.19 9.32774
5138.26 12.2853
5138.34 16.8658
5138.42 24.5828
5138.50 38.4230
5138.54 49.9510
5138.58 66.3229
5138.62 91.3487
5138.66 127.869
5138.72 205.141
5138.78 255.622
5138.83 204.995
5138.89 127.756
5138.94 84.7218
5138.99 57.9415
5139.04 41.4261
5139.09 30.8215
5139.18 18.7511
5139.28 12.5607
5139.38 8.94178
5139.48 6.69640
5139.67 4.13926
5139.87 2.80619
5140.06 2.02590
5140.26 1.53067
5140.45 1.19699
5140.84 0.788655
5141.23 0.559073
5142.01 0.323027
5142.79 0.210266
5143.57 0.147927
5145.13 0.0848361
5148.26 0.0388832
5151.38 0.0225319
5157.62 0.0107116
5163.87 0.00654387
5176.35 0.00363067
5188.84 0.00281773
5213.82 0.00434579
5220.06 0.00661766
5226.31 0.0132080
5229.43 0.0223833
5232.55 0.0482085
5234.11 0.0836417
5234.89 0.118664
5235.67 0.181735
5236.45 0.313724
5236.84 0.441567
5237.23 0.667292
5237.43 0.852460
5237.62 1.12508
5237.82 1.55236
5238.01 2.27691
5238.21 3.65059
5238.31 4.85705
5238.40 6.73695
5238.50 9.96071
5238.60 15.9367
5238.65 21.0626
5238.70 28.8000
5238.75 40.8455
5238.79 59.2038
5238.86 95.0219
5238.92 118.367
5238.98 94.3569
5239.05 59.1509
5239.10 40.8113
5239.14 28.9738
5239.19 21.3045
5239.24 16.1875
5239.34 10.1327
5239.43 6.88453
5239.53 4.96373
5239.62 3.74097
5239.81 2.34207
5240.01 1.59780
5240.20 1.16030
5240.39 0.879260
5240.58 0.689973
5240.96 0.456890
5241.35 0.324775
5242.11 0.188394
5242.88 0.123077
5243.64 0.0868386
5245.18 0.0501410
5248.24 0.0234270
5251.30 0.0139963
5257.43 0.00743262
5263.56 0.00561558
5275.82 0.00911109
5278.88 0.0143355
5281.95 0.0295726
5283.48 0.0508338
5285.01 0.110674
5285.78 0.192656
5286.54 0.418910
5286.92 0.721757
5287.12 1.01526
5287.31 1.52864
5287.50 2.56503
5287.60 3.52861
5287.69 5.13000
5287.79 8.15586
5287.83 10.7653
5287.88 14.8221
5287.93 21.5803
5287.98 33.8903
5288.00 44.0477
5288.03 58.9180
5288.05 81.1867
5288.07 112.979
5288.11 181.732
5288.14 225.967
5288.18 181.661
5288.21 112.924
5288.25 68.8842
5288.28 44.0314
5288.32 30.0100
5288.35 21.7600
5288.39 16.3043
5288.43 12.6378
5288.50 8.24387
5288.57 5.75824
5288.64 4.25978
5288.78 2.59685
5288.92 1.74108
5289.07 1.24752
5289.35 0.731323
5289.64 0.479445
5289.92 0.338893
5290.49 0.195018
5291.64 0.0891229
5292.78 0.0511942
5295.06 0.0236315
5297.34 0.0138463
5306.48 0.00421859
5324.75 0.00166074
5343.01 0.00114028
5361.28 0.000958862
5397.81 0.000919762
5416.08 0.00111172
5425.21 0.00176042
5429.78 0.00420540
5432.06 0.0136768
5433.21 0.0497808
5433.78 0.181145
5434.06 0.614611
5434.13 0.989377
5434.20 1.82049
5434.28 4.28150
5434.31 7.73844
5434.33 10.9726
5434.35 15.7446
5434.37 25.3585
5434.39 31.4795
5434.42 25.3581
5434.44 15.7443
5434.47 8.65900
5434.50 5.22043
5434.56 2.37256
5434.62 1.32963
5434.67 0.851045
5434.79 0.428428
5434.91 0.257974
5435.38 0.0719434
5436.32 0.0196313
5438.20 0.00578988
5441.95 0.00225283
5449.46 0.00141239
5464.48 0.00136004
5479.50 0.00158805
5494.52 0.00201151
5509.54 0.00278456
5517.05 0.00343135
5524.56 0.00442636
5532.07 0.00612697
5535.83 0.00752337
5539.58 0.00969451
5543.34 0.0135918
5547.09 0.0228134
5548.97 0.0343447
5550.85 0.0650706
5551.79 0.106365
5552.72 0.220242
5553.19 0.374367
5553.66 0.792376
5553.90 1.34326
5554.02 1.86482
5554.13 2.76460
5554.25 4.53890
5554.31 6.14278
5554.37 8.70603
5554.43 13.3489
5554.46 17.0819
5554.48 22.5597
5554.51 31.3539
5554.54 45.3011
5554.57 69.3552
5554.60 112.586
5554.63 180.939
5554.66 225.058
5554.69 180.935
5554.72 112.583
5554.74 77.5488
5554.76 54.4216
5554.79 39.6570
5554.81 30.2729
5554.86 18.7287
5554.90 12.7286
5554.95 9.12028
5554.99 6.88354
5555.08 4.31134
5555.17 2.93840
5555.26 2.13772
5555.44 1.27542
5555.62 0.848918
5555.81 0.607534
5556.17 0.358847
5556.89 0.174440
5557.62 0.108803
5559.07 0.0629630
5560.51 0.0493186
5561.96 0.0459407
5563.41 0.0476619
5566.31 0.0627597
5567.76 0.0777751
5569.21 0.101346
5570.66 0.140029
5572.11 0.208890
5572.83 0.265239
5573.56 0.348511
5574.28 0.479281
5574.64 0.574297
5575.00 0.700783
5575.37 0.874763
5575.73 1.12150
5575.91 1.28568
5576.09 1.48835
5576.27 1.74231
5576.45 2.06603
5576.64 2.48952
5576.82 3.05003
5577.00 3.81521
5577.18 4.89164
5577.36 6.45812
5577.54 8.82131
5577.72 12.5007
5577.90 18.2634
5578.14 29.2613
5578.37 36.7684
5578.60 29.5637
5578.84 18.4994
5578.99 13.4819
5579.14 10.0319
5579.44 5.98129
5579.73 3.89692
5580.03 2.71855
5580.33 1.99713
5580.63 1.52668
5581.22 0.974093
5581.82 0.675840
5582.42 0.498495
5583.61 0.309976
5584.80 0.225164
5585.99 0.205324
5586.59 0.235181
5587.19 0.355007
5587.48 0.529287
5587.78 1.00450
5587.93 1.61621
5588.01 2.18890
5588.08 3.13809
5588.16 4.93645
5588.19 6.46211
5588.23 8.81757
5588.27 12.8421
5588.30 19.9500
5588.32 25.9444
5588.34 34.1828
5588.36 47.0955
5588.38 66.0689
5588.41 105.873
5588.43 132.000
5588.46 105.848
5588.49 66.0484
5588.51 45.4582
5588.53 32.0644
5588.55 23.4662
5588.57 17.7721
5588.61 11.0869
5588.66 7.52809
5588.70 5.43419
5588.74 4.10584
5588.82 2.58542
5588.99 1.31133
5589.16 0.805221
5589.50 0.411018
5589.83 0.262225
5590.50 0.147465
5591.17 0.102805
5592.52 0.0654281
5593.86 0.0486422
5596.54 0.0321704
5599.23 0.0237516
5604.60 0.0151973
5609.97 0.0110570
5615.34 0.00879046
5620.71 0.00750340
5631.45 0.00655527
5642.19 0.00715122
5652.93 0.00980230
5658.30 0.0127014
5663.67 0.0180659
5666.35 0.0226992
5669.04 0.0304540
5671.72 0.0502721
5673.07 0.0995140
5673.74 0.261958
5673.90 0.414337
5674.07 0.803392
5674.16 1.27651
5674.24 2.37070
5674.28 3.54556
5674.32 5.84082
5674.37 11.0796
5674.39 16.3354
5674.41 24.6009
5674.43 39.2917
5674.46 49.1369
5674.48 39.2917
5674.50 24.6014
5674.53 14.5509
5674.56 9.21581
5674.58 6.16708
5674.61 4.43492
5674.66 2.57038
5674.71 1.68795
5674.82 0.888160
5674.92 0.559904
5675.14 0.296977
5675.35 0.198013
5676.19 0.101332
5677.87 0.0946964
5679.56 0.123642
5681.25 0.182321
5682.93 0.304185
5683.77 0.418950
5684.20 0.502545
5684.62 0.614015
5685.04 0.767557
5685.46 0.985855
5685.67 1.13178
5685.88 1.31228
5686.09 1.53901
5686.30 1.82726
5686.51 2.20476
5686.72 2.70866
5686.94 3.39970
5687.15 4.37180
5687.36 5.80186
5687.57 7.96528
5687.78 11.3819
5687.99 16.7611
5688.25 26.8188
5688.52 33.5254
5688.79 26.8191
5689.05 16.7608
5689.24 11.8592
5689.43 8.59466
5689.61 6.42065
5689.80 4.93807
5690.17 3.14358
5690.55 2.16127
5690.92 1.56988
5691.29 1.18962
5692.04 0.749170
5692.79 0.513860
5693.54 0.374249
5694.28 0.284591
5695.03 0.223803
5696.53 0.148917
5698.02 0.106358
5699.52 0.0798980
5701.01 0.0623443
5704.00 0.0412659
5706.99 0.0296223
5709.98 0.0225850
5712.97 0.0180954
5718.95 0.0133574
5724.93 0.0127335
5727.92 0.0150280
5730.91 0.0234581
5732.41 0.0357906
5733.90 0.0709822
5734.65 0.119606
5735.40 0.254839
5735.77 0.438189
5736.14 0.933612
5736.33 1.58315
5736.42 2.20243
5736.52 3.25596
5736.61 5.32131
5736.66 7.17306
5736.70 10.0900
5736.75 15.3194
5736.80 25.4027
5736.82 34.8703
5736.84 49.3653
5736.87 73.4171
5736.89 114.260
5736.92 184.019
5736.94 228.363
5736.97 184.057
5736.99 114.290
5737.02 67.0779
5737.05 42.2049
5737.08 28.4709
5737.10 20.3270
5737.13 15.0254
5737.16 11.6279
5737.22 7.53014
5737.27 5.22894
5737.33 3.85723
5737.44 2.34389
5737.55 1.56829
5737.67 1.12291
5737.89 0.659212
5738.34 0.307983
5738.79 0.179723
5739.70 0.0857745
5740.60 0.0525185
5742.40 0.0296095
5744.21 0.0239595
5747.81 0.0436431
5748.71 0.0695755
5749.62 0.143419
5750.07 0.244323
5750.52 0.519565
5750.74 0.883085
5750.97 1.82227
5751.08 2.98936
5751.14 4.03067
5751.19 5.71994
5751.25 8.78802
5751.28 11.2584
5751.31 14.8893
5751.33 20.4869
5751.36 29.6090
5751.39 45.3523
5751.42 73.8265
5751.45 118.635
5751.48 147.640
5751.50 118.559
5751.53 73.7674
5751.56 48.4007
5751.58 32.7313
5751.61 23.2099
5751.63 17.3605
5751.68 10.5493
5751.73 7.03672
5751.78 4.97960
5751.83 3.72374
5751.93 2.30318
5752.02 1.55722
5752.12 1.12608
5752.32 0.666077
5752.71 0.313148
5753.11 0.182729
5753.89 0.0857342
5754.68 0.0507415
5757.83 0.0157478
5764.13 0.00611603
5770.43 0.00395711
5776.73 0.00303320
5789.32 0.00218639
5801.92 0.00179259
5827.12 0.00146953
5852.31 0.00145526
5877.51 0.00174697
5890.10 0.00210611
5902.70 0.00278993
5915.30 0.00426832
5921.60 0.00574093
5927.90 0.00842174
5931.05 0.0106798
5934.20 0.0141275
5937.35 0.0197844
5940.49 0.0300379
5942.07 0.0386320
5943.64 0.0516867
5945.22 0.0729241
5946.79 0.110908
5947.58 0.142349
5948.37 0.189405
5949.16 0.264505
5949.94 0.395227
5950.34 0.500451
5950.53 0.569532
5950.73 0.653920
5951.12 0.890063
5951.32 1.05885
5951.52 1.27880
5951.71 1.57588
5951.91 1.98786
5952.11 2.58093
5952.30 3.46910
5952.50 4.89101
5952.60 5.93948
5952.70 7.32030
5952.80 9.21370
5952.90 11.8042
5952.99 15.4205
5953.09 20.4359
5953.26 32.7262
5953.44 41.0575
5953.61 32.9673
5953.78 20.6238
5953.91 14.1095
5954.05 9.94625
5954.18 7.27351
5954.31 5.51427
5954.58 3.43600
5954.84 2.32782
5955.11 1.67511
5955.37 1.26077
5955.90 0.786281
5956.43 0.535799
5956.96 0.388478
5957.49 0.294501
5958.02 0.230947
5959.08 0.152978
5960.14 0.108893
5961.20 0.0815515
5962.26 0.0634407
5964.38 0.0416973
5966.50 0.0296548
5968.63 0.0223033
5970.75 0.0174963
5974.99 0.0118109
5979.23 0.00872809
5987.71 0.00573422
5996.19 0.00447767
6004.68 0.00396108
6021.64 0.00408966
6030.13 0.00465790
6038.61 0.00570036
6047.09 0.00754479
6055.58 0.0109975
6059.82 0.0139206
6064.06 0.0183751
6068.30 0.0256394
6072.54 0.0386679
6074.66 0.0494665
6076.78 0.0656935
6078.90 0.0917107
6081.02 0.137303
6082.09 0.174267
6083.15 0.228525
6083.68 0.265813
6084.21 0.312948
6084.74 0.373829
6085.27 0.454319
6085.80 0.563984
6086.33 0.717951
6086.86 0.943660
6087.39 1.29227
6087.65 1.54159
6087.92 1.86772
6088.18 2.30393
6088.45 2.90204
6088.71 3.74447
6088.98 4.96326
6089.24 6.76325
6089.51 9.41597
6089.90 15.0730
6090.30 18.8282
6090.69 15.0496
6091.09 9.40931
6091.46 5.92489
6091.83 3.92199
6092.21 2.74013
6092.58 2.00546
6093.33 1.19498
6094.08 0.788249
6094.83 0.557591
6095.58 0.415303
6097.07 0.256671
6098.57 0.175416
6100.06 0.128871
6101.56 0.100275
6103.06 0.0821587
6106.05 0.0652420
6107.55 0.0650985
6109.04 0.0730745
6110.54 0.0982453
6112.03 0.178064
6112.78 0.290342
6113.16 0.401363
6113.53 0.600748
6113.90 1.01341
6114.09 1.40882
6114.28 2.09752
6114.47 3.45876
6114.56 4.70909
6114.65 6.75091
6114.75 10.5087
6114.79 13.6600
6114.84 18.2960
6114.89 25.8327
6114.93 38.7449
6114.98 62.6596
6115.03 108.211
6115.07 172.860
6115.11 216.378
6115.15 172.862
6115.19 108.213
6115.22 79.7159
6115.24 59.9576
6115.29 35.9842
6115.34 23.5337
6115.39 16.4530
6115.44 12.1002
6115.50 9.25272
6115.60 5.89599
6115.70 4.07706
6115.80 2.98537
6116.01 1.79896
6116.21 1.20325
6116.41 0.862735
6116.82 0.509027
6117.23 0.337710
6117.64 0.242272
6118.45 0.144651
6120.08 0.0722071
6121.71 0.0456026
6123.34 0.0326371
6124.97 0.0251944
6128.23 0.0171342
6131.49 0.0128954
6134.76 0.0102873
6141.28 0.00724827
6147.80 0.00554377
6154.32 0.00447082
6167.36 0.00325430
6180.41 0.00270116
6193.45 0.00270999
6199.97 0.00316536
6206.49 0.00476489
6213.01 0.0138586
6216.28 0.0498161
6217.09 0.0863349
6217.91 0.187806
6218.31 0.325083
6218.72 0.694938
6218.92 1.17776
6219.03 1.63324
6219.13 2.41324
6219.23 3.91479
6219.28 5.24658
6219.33 7.37905
6219.38 11.0863
6219.43 18.2973
6219.46 24.8197
6219.49 34.6311
6219.51 50.4808
6219.54 76.3826
6219.57 122.980
6219.59 152.639
6219.62 121.315
6219.65 76.3744
6219.69 43.1848
6219.72 26.4394
6219.76 17.5160
6219.79 12.4665
6219.83 9.21196
6219.86 7.06747
6219.93 4.54761
6220.00 3.14780
6220.07 2.31459
6220.21 1.40015
6220.49 0.667420
6220.76 0.389936
6221.32 0.180341
6221.87 0.103976
6222.98 0.0478561
6224.09 0.0277918
6228.53 0.00810244
6237.40 0.00306542
6255.15 0.00178983
6272.89 0.00164293
6290.64 0.00180478
6308.39 0.00234661
6317.26 0.00292092
6326.13 0.00397811
6335.01 0.00623347
6339.44 0.00847215
6343.88 0.0125415
6346.10 0.0159658
6348.32 0.0211881
6350.53 0.0297391
6352.75 0.0452019
6353.86 0.0581358
6354.97 0.0777116
6356.08 0.109429
6357.19 0.165871
6358.30 0.281357
6358.85 0.390918
6359.41 0.579152
6359.68 0.729329
6359.96 0.945167
6360.24 1.27213
6360.38 1.50337
6360.52 1.80043
6360.65 2.19660
6360.79 2.73600
6360.93 3.49438
6361.07 4.59258
6361.21 6.28065
6361.35 8.97261
6361.49 13.5597
6361.62 21.4325
6361.77 34.3189
6361.92 42.8897
6362.06 34.3515
6362.21 21.5308
6362.36 13.3191
6362.50 8.71245
6362.64 6.02093
6362.79 4.38029
6362.93 3.30840
6363.08 2.58426
6363.37 1.69289
6363.66 1.19123
6363.94 0.882491
6364.52 0.539540
6365.10 0.363249
6365.68 0.261153
6366.26 0.196832
6366.83 0.153794
6367.99 0.101420
6369.14 0.0720740
6370.30 0.0539905
6371.45 0.0420707
6373.76 0.0278390
6376.08 0.0200097
6378.39 0.0152627
6380.70 0.0121843
6385.32 0.00860751
6389.94 0.00675700
6399.18 0.00529394
6408.43 0.00551366
6413.05 0.00635147
6417.67 0.00816291
6422.29 0.0123010
6426.91 0.0242594
6429.22 0.0408996
6431.53 0.0876946
6432.69 0.151935
6433.27 0.215378
6433.84 0.329505
6434.42 0.568205
6434.71 0.799560
6435.00 1.20605
6435.29 2.02860
6435.43 2.79987
6435.58 4.09638
6435.72 6.56626
6435.79 8.70240
6435.87 12.0508
6435.94 17.6962
6436.01 28.1727
6436.05 36.9879
6436.08 50.1464
6436.12 70.3594
6436.15 102.271
6436.20 163.815
6436.25 204.540
6436.30 163.898
6436.35 102.336
6436.39 63.8661
6436.44 41.8387
6436.49 29.0092
6436.53 21.2449
6436.58 16.0659
6436.63 12.5404
6436.72 8.24955
6436.81 5.80098
6436.91 4.30766
6437.09 2.63924
6437.28 1.77629
6437.47 1.27829
6437.84 0.751589
6438.21 0.494480
6438.59 0.350116
6439.33 0.202331
6440.82 0.0932979
6442.32 0.0541740
6445.30 0.0257982
6448.28 0.0157862
6460.22 0.00633817
6472.16 0.00513553
6484.10 0.00558820
6496.03 0.00739864
6502.00 0.00922213
6507.97 0.0124099
6513.94 0.0188622
6519.91 0.0360974
6522.89 0.0592341
6525.88 0.123110
6527.37 0.209809
6528.12 0.294926
6528.86 0.447581
6529.61 0.764130
6529.98 1.06862
6530.35 1.60166
6530.73 2.66425
6530.91 3.64627
6531.10 5.27541
6531.29 8.30432
6531.38 10.8660
6531.47 14.7856
6531.57 21.2604
6531.66 32.5941
6531.75 54.5551
6531.80 73.4591
6531.85 100.464
6531.92 160.916
6531.99 200.798
6532.07 160.848
6532.14 100.344
6532.18 73.9076
6532.23 55.5358
6532.32 33.4171
6532.41 21.8927
6532.50 15.3233
6532.59 11.2779
6532.68 8.62834
6532.87 5.51319
6533.05 3.81130
6533.23 2.78956
6533.59 1.68104
6533.96 1.12248
6534.32 0.804080
6535.05 0.472446
6535.77 0.312674
6536.50 0.223801
6537.95 0.133867
6540.86 0.0691820
6543.77 0.0477218
6546.68 0.0395087
6549.58 0.0371964
6555.40 0.0430231
6558.31 0.0512164
6561.21 0.0647771
6564.12 0.0874451
6567.03 0.127771
6568.48 0.160477
6569.94 0.208350
6570.66 0.241024
6571.39 0.282204
6572.12 0.335073
6572.84 0.404329
6573.57 0.497672
6574.30 0.627267
6575.02 0.814077
6575.75 1.09560
6576.48 1.54607
6576.84 1.87757
6577.20 2.31828
6577.57 2.91945
6577.93 3.75036
6578.29 4.91529
6578.66 6.53750
6579.29 10.4579
6579.91 13.0663
6580.54 10.4476
6581.17 6.52893
6581.77 4.10214
6582.37 2.70824
6582.98 1.88856
6583.58 1.38033
6584.18 1.04819
6584.78 0.820976
6585.98 0.541017
6587.18 0.382404
6588.38 0.284431
6590.79 0.175158
6593.19 0.118974
6595.59 0.0864876
6598.00 0.0661416
6600.40 0.0527318
6605.21 0.0375897
6610.01 0.0331446
6612.42 0.0369532
6614.82 0.0543376
6616.02 0.0808470
6617.22 0.156959
6617.83 0.261468
6618.43 0.547901
6618.73 0.927849
6618.88 1.28981
6619.03 1.91797
6619.18 3.15269
6619.25 4.27274
6619.33 6.11016
6619.40 9.42248
6619.44 12.2094
6619.48 16.2577
6619.52 22.8065
6619.55 33.4982
6619.59 53.2693
6619.63 90.5061
6619.66 144.066
6619.70 180.990
6619.73 143.970
6619.77 90.4321
6619.79 64.3314
6619.81 47.3710
6619.86 27.8470
6619.91 17.8314
6619.95 12.3833
6620.00 9.00955
6620.05 6.87289
6620.14 4.36632
6620.23 3.00287
6620.32 2.19057
6620.51 1.31695
6620.69 0.878010
6620.88 0.629304
6621.25 0.370456
6621.99 0.176495
6622.73 0.105859
6624.22 0.0537623
6625.70 0.0347810
6628.67 0.0203710
6631.64 0.0147112
6637.57 0.00980898
6643.51 0.00749205
6655.38 0.00512210
6667.25 0.00388223
6690.99 0.00263365
6714.73 0.00207436
6738.47 0.00184657
6762.21 0.00188576
6785.95 0.00261237
6797.82 0.00528398
6803.75 0.0154745
6806.72 0.0550494
6807.46 0.0951054
6808.20 0.206109
6808.58 0.355543
6808.95 0.757282
6809.13 1.27934
6809.32 2.59362
6809.41 4.17784
6809.46 5.55070
6809.50 7.71334
6809.55 11.4922
6809.60 18.4889
6809.62 24.4589
6809.64 33.4904
6809.66 47.5964
6809.69 69.7492
6809.72 112.304
6809.75 139.411
6809.78 110.820
6809.81 69.7704
6809.84 40.0581
6809.87 25.1067
6809.91 16.8989
6809.94 12.0483
6810.00 6.94085
6810.07 4.48344
6810.14 3.12611
6810.20 2.30106
6810.33 1.39387
6810.60 0.666918
6810.86 0.390572
6811.39 0.181274
6811.92 0.104878
6812.98 0.0486774
6814.03 0.0285851
6818.26 0.00895778
6826.72 0.00421526
6835.18 0.00367758
6843.64 0.00397945
6852.09 0.00497987
6860.55 0.00769137
6869.01 0.0208514
6871.12 0.0339599
6873.24 0.0705450
6874.29 0.120631
6875.35 0.259361
6875.88 0.446461
6876.14 0.627943
6876.41 0.949076
6876.67 1.60385
6876.80 2.21705
6876.94 3.26169
6877.07 5.25663
6877.13 7.01125
6877.20 9.79632
6877.27 14.5778
6877.33 23.7026
6877.37 31.6056
6877.40 43.7431
6877.43 63.0823
6877.46 94.7937
6877.51 152.079
6877.55 189.755
6877.59 152.269
6877.63 94.9426
6877.67 55.6611
6877.71 35.1103
6877.76 23.7278
6877.80 16.9625
6877.85 12.5949
6877.89 9.74998
6877.98 6.31645
6878.07 4.39644
6878.16 3.24250
6878.33 1.96471
6878.51 1.31624
6878.69 0.943149
6879.04 0.552875
6879.75 0.257953
6880.46 0.150265
6881.87 0.0711479
6883.29 0.0430249
6886.12 0.0230183
6888.95 0.0164130
6894.61 0.0130496
6900.27 0.0143687
6905.93 0.0197793
6911.60 0.0357921
6914.43 0.0575440
6915.84 0.0789410
6917.26 0.117521
6918.67 0.198740
6919.38 0.278343
6920.09 0.420632
6920.44 0.538500
6920.80 0.715355
6921.15 0.998253
6921.50 1.49051
6921.86 2.46998
6922.03 3.36833
6922.21 4.85986
6922.39 7.59771
6922.48 9.92324
6922.57 13.4186
6922.65 19.1276
6922.74 28.9428
6922.83 47.4701
6922.87 62.8278
6922.92 84.8795
6922.99 135.982
6923.07 169.913
6923.14 136.169
6923.21 85.0261
6923.28 54.5595
6923.35 36.5079
6923.41 25.6968
6923.48 18.9855
6923.61 11.3727
6923.75 7.54090
6923.88 5.33766
6924.01 3.97963
6924.28 2.44934
6924.55 1.65829
6924.81 1.19784
6925.08 0.906788
6925.35 0.711928
6925.88 0.473820
6926.41 0.340437
6927.48 0.204350
6928.55 0.140743
6929.61 0.106960
6931.75 0.0779108
6933.88 0.0761066
6936.02 0.108435
6937.08 0.161663
6938.15 0.314227
6938.68 0.521254
6938.95 0.722403
6939.22 1.07615
6939.48 1.79304
6939.62 2.46620
6939.75 3.59829
6939.89 5.75955
6939.95 7.64803
6940.02 10.5681
6940.09 15.5799
6940.15 24.7686
6940.19 32.7793
6940.22 44.4553
6940.25 62.4037
6940.28 90.9168
6940.33 145.478
6940.37 181.052
6940.42 144.449
6940.46 90.1127
6940.50 59.2881
6940.54 40.4711
6940.58 28.9051
6940.61 21.6523
6940.69 13.1505
6940.76 8.81377
6940.84 6.27424
6940.91 4.70490
6941.07 2.91603
6941.22 1.98428
6941.37 1.43921
6941.67 0.860418
6941.97 0.575944
6942.27 0.415525
6942.88 0.250862
6943.48 0.172192
6944.08 0.128788
6945.29 0.0851376
6947.70 0.0546005
6950.12 0.0457672
6954.95 0.0465480
6959.78 0.0611538
6964.60 0.0965131
6967.02 0.130863
6968.23 0.156110
6969.43 0.189913
6970.64 0.236548
6971.24 0.266746
6971.85 0.303140
6972.45 0.347674
6973.05 0.402726
6973.66 0.472061
6974.26 0.560642
6974.87 0.676515
6975.47 0.831176
6976.07 1.04403
6976.68 1.34537
6977.28 1.78910
6977.88 2.46601
6978.49 3.53861
6979.09 5.24462
6979.84 8.38375
6980.59 10.4440
6981.34 8.33005
6982.09 5.20555
6982.83 3.23209
6983.56 2.11658
6984.30 1.46769
6985.04 1.06844
6985.77 0.808965
6986.51 0.632181
6987.98 0.415106
6989.45 0.292653
6990.93 0.217249
6993.87 0.133249
6996.81 0.0900651
6999.76 0.0650128
7002.70 0.0491918
7005.65 0.0385718
7011.54 0.0256311
7017.43 0.0183416
7023.31 0.0138304
7029.20 0.0108443
7040.98 0.00726173
7052.76 0.00528296
7064.54 0.00408968
7076.31 0.00333609
7099.87 0.00259702
7111.65 0.00253453
7123.43 0.00275157
7135.20 0.00354540
7141.09 0.00444926
7146.98 0.00617875
7149.93 0.00766951
7152.87 0.00997316
7155.82 0.0137903
7158.76 0.0207694
7160.23 0.0266581
7161.71 0.0356417
7163.18 0.0503426
7164.65 0.0768688
7165.39 0.0989698
7166.12 0.132339
7166.86 0.186157
7167.59 0.281265
7168.33 0.473687
7168.70 0.653777
7169.07 0.959477
7169.25 1.19908
7169.43 1.54000
7169.62 2.04750
7169.80 2.84787
7169.89 3.43171
7169.99 4.20892
7170.08 5.27114
7170.17 6.76739
7170.26 8.94796
7170.35 12.2424
7170.45 17.3772
7170.54 25.4143
7170.66 40.6218
7170.78 50.4442
7170.89 40.0510
7171.01 24.9688
7171.13 15.5482
7171.24 10.2362
7171.36 7.10435
7171.48 5.18753
7171.59 3.92730
7171.71 3.07443
7171.94 2.02292
7172.17 1.42568
7172.40 1.05855
7172.86 0.647884
7173.32 0.436289
7173.78 0.313813
7174.24 0.236522
7174.70 0.184664
7175.63 0.121541
7176.55 0.0861345
7177.47 0.0642702
7178.39 0.0498578
7180.24 0.0326088
7182.08 0.0230781
7183.93 0.0172619
7185.77 0.0134540
7189.46 0.00892737
7193.15 0.00643938
7196.84 0.00492352
7200.53 0.00392982
7207.91 0.00274296
7215.29 0.00208257
7230.05 0.00139890
7244.81 0.00105976
7259.57 0.000860447
7289.08 0.000637606
7348.12 0.000440009
7407.16 0.000354515
7466.19 0.000320581
7525.23 0.000342434
7584.26 0.000606268
7613.78 0.00171627
7628.54 0.00613994
7635.92 0.0235989
7637.76 0.0414569
7639.61 0.0915699
7640.53 0.160176
7641.45 0.349021
7641.91 0.601233
7642.15 0.845050
7642.38 1.27098
7642.61 2.12705
7642.72 2.91541
7642.84 4.23436
7642.95 6.71378
7643.01 8.84314
7643.07 12.0680
7643.13 17.4722
7643.18 26.9726
7643.21 34.8045
7643.24 46.1259
7643.27 62.8212
7643.30 86.5558
7643.34 139.017
7643.38 173.102
7643.43 138.928
7643.47 86.4864
7643.52 52.7669
7643.56 33.8369
7643.61 23.1144
7643.65 16.6445
7643.70 12.4994
7643.74 9.70546
7643.83 6.33980
7643.92 4.43647
7644.01 3.27332
7644.19 1.99312
7644.37 1.33585
7644.55 0.958475
7644.91 0.561787
7645.62 0.259846
7646.34 0.149281
7647.78 0.0678186
7649.21 0.0386350
7652.08 0.0174751
7654.95 0.00998398
7666.43 0.00269250
7689.39 0.000857029
7735.30 0.000412062
7781.22 0.000359617
7827.13 0.000391995
7873.05 0.000505532
7896.00 0.000620865
7918.96 0.000823777
7941.92 0.00123138
7953.40 0.00161472
7964.88 0.00227882
7976.35 0.00361004
7982.09 0.00486796
7987.83 0.00706642
7990.70 0.00886222
7993.57 0.0115455
7996.44 0.0158521
7999.31 0.0235000
8000.75 0.0298291
8002.18 0.0393723
8003.62 0.0548112
8005.05 0.0823448
8006.49 0.139336
8007.20 0.194235
8007.92 0.290438
8008.64 0.483506
8009.00 0.662562
8009.18 0.791649
8009.36 0.962493
8009.54 1.19658
8009.71 1.52482
8009.89 2.00719
8010.07 2.75476
8010.16 3.29461
8010.25 4.00407
8010.34 4.95842
8010.43 6.25900
8010.52 8.12410
8010.61 10.8153
8010.70 14.8805
8010.79 20.8862
8010.92 33.4885
8011.05 42.2377
8011.11 39.9314
8011.18 34.1005
8011.31 21.3644
8011.39 15.5505
8011.47 11.5343
8011.64 6.86269
8011.80 4.45390
8011.97 3.10467
8012.13 2.27520
8012.30 1.73831
8012.63 1.10595
8012.96 0.764852
8013.29 0.560826
8013.95 0.340201
8014.61 0.229849
8015.28 0.167325
8015.94 0.128629
8016.60 0.103303
8017.92 0.0738350
8019.25 0.0591042
8021.89 0.0504598
8024.54 0.0615883
8025.86 0.0781814
8027.18 0.110622
8027.85 0.138326
8028.51 0.180327
8029.17 0.248095
8029.83 0.366695
8030.49 0.602805
8030.82 0.819285
8030.99 0.973907
8031.15 1.17686
8031.32 1.45218
8031.48 1.83293
8031.65 2.38672
8031.82 3.22076
8031.90 3.80999
8031.98 4.56924
8032.06 5.56620
8032.15 6.88369
8032.23 8.70560
8032.31 11.2124
8032.39 14.7918
8032.48 19.7447
8032.62 31.6105
8032.76 39.2706
8032.83 36.7987
8032.90 31.2014
8033.04 19.4949
8033.15 13.4163
8033.25 9.53815
8033.36 7.00392
8033.46 5.32982
8033.68 3.33823
8033.89 2.26990
8034.10 1.63809
8034.32 1.23584
8034.74 0.773835
8035.17 0.529553
8035.59 0.385226
8036.02 0.293002
8036.45 0.230537
8037.30 0.153792
8038.15 0.110212
8039.00 0.0830924
8039.85 0.0650783
8041.56 0.0432959
8043.26 0.0311132
8044.96 0.0235829
8046.67 0.0185945
8050.08 0.0125677
8053.48 0.00918411
8060.30 0.00568358
8067.11 0.00398643
8073.93 0.00303452
8087.55 0.00207219
8101.18 0.00164801
8114.81 0.00146466
8142.07 0.00149167
8169.33 0.00202668
8182.96 0.00264854
8196.58 0.00382001
8203.40 0.00481699
8210.21 0.00634411
8217.03 0.00885108
8223.84 0.0133907
8227.25 0.0171885
8230.66 0.0229437
8234.06 0.0322778
8237.47 0.0489132
8239.17 0.0626111
8240.88 0.0830385
8244.28 0.171472
8245.14 0.216142
8245.99 0.280765
8246.41 0.324459
8246.84 0.379121
8247.27 0.448706
8247.69 0.538853
8248.12 0.658996
8248.54 0.823323
8248.97 1.05572
8249.40 1.39784
8249.82 1.92633
8250.25 2.78981
8250.46 3.43095
8250.67 4.28474
8250.89 5.42839
8251.10 6.93843
8251.53 11.1003
8251.95 13.8811
8252.38 11.1126
8252.81 6.94774
8253.31 3.96408
8253.81 2.44413
8254.31 1.62678
8254.80 1.15083
8255.30 0.853402
8255.80 0.656516
8256.80 0.421679
8257.79 0.292981
8258.79 0.215165
8260.78 0.130027
8262.77 0.0870203
8264.76 0.0623521
8266.76 0.0469162
8268.75 0.0366261
8272.73 0.0241975
8276.72 0.0172776
8280.70 0.0130428
8284.68 0.0102735
8292.65 0.00702125
8300.62 0.00530472
8308.59 0.00435364
8316.56 0.00385777
8332.50 0.00385479
8340.46 0.00444165
8348.43 0.00579188
8356.40 0.00894063
8360.39 0.0121542
8364.37 0.0180470
8366.36 0.0230149
8368.35 0.0305809
8370.35 0.0429229
8372.34 0.0650798
8373.33 0.0834427
8374.33 0.111021
8375.33 0.155176
8376.32 0.232381
8377.32 0.385952
8377.82 0.527056
8378.07 0.628390
8378.31 0.761771
8378.56 0.942086
8378.81 1.19382
8379.06 1.55936
8379.19 1.80804
8379.31 2.11666
8379.44 2.51217
8379.56 3.01989
8379.68 3.69557
8379.81 4.59975
8379.93 5.85794
8380.06 7.61847
8380.18 10.1602
8380.31 13.7502
8380.51 22.0049
8380.71 27.3793
8380.81 25.6880
8380.91 21.7968
8381.12 13.6212
8381.26 9.71594
8381.39 7.10558
8381.53 5.33636
8381.67 4.12835
8381.95 2.64639
8382.22 1.82600
8382.50 1.33067
8382.78 1.01071
8383.33 0.638584
8383.89 0.438805
8384.44 0.319824
8384.99 0.243388
8385.55 0.191506
8386.65 0.127425
8387.76 0.0909825
8388.87 0.0682730
8389.98 0.0531999
8392.19 0.0350415
8394.41 0.0249447
8396.62 0.0187593
8398.84 0.0147006
8403.27 0.00987340
8407.69 0.00722901
8412.12 0.00563155
8416.55 0.00460109
8425.41 0.00342230
8434.27 0.00284412
8451.99 0.00252986
8469.71 0.00301246
8478.57 0.00368517
8487.43 0.00495306
8496.29 0.00757677
8500.72 0.0100678
8505.15 0.0144021
8509.58 0.0231465
8511.79 0.0314678
8514.00 0.0460931
8515.11 0.0580928
8516.22 0.0760210
8517.33 0.104747
8518.43 0.155238
8519.54 0.257515
8520.65 0.517806
8520.93 0.647692
8521.20 0.834081
8521.48 1.11482
8521.76 1.56290
8521.90 1.89734
8522.03 2.34585
8522.17 2.97487
8522.31 3.87572
8522.45 5.24047
8522.59 7.37504
8522.73 10.8870
8522.86 16.7663
8523.02 26.9120
8523.17 33.9216
8523.25 32.1049
8523.33 27.3826
8523.49 17.1889
8523.62 11.4171
8523.75 7.86008
8523.88 5.64831
8524.00 4.22855
8524.26 2.59313
8524.52 1.74244
8524.78 1.24954
8525.04 0.940312
8525.56 0.590524
8526.08 0.408737
8526.59 0.303043
8527.63 0.192878
8528.67 0.141782
8529.70 0.116677
8531.77 0.104970
8533.85 0.132726
8534.88 0.169496
8535.92 0.238644
8536.96 0.380928
8537.47 0.513351
8537.99 0.734982
8538.12 0.813978
8538.25 0.905891
8538.51 1.14511
8538.77 1.49345
8538.90 1.73091
8539.03 2.02621
8539.16 2.40526
8539.29 2.89306
8539.42 3.54363
8539.55 4.41695
8539.68 5.63572
8539.80 7.34759
8539.93 9.82664
8540.06 13.3361
8540.27 21.2534
8540.48 26.1338
8540.69 20.5598
8540.90 12.7940
8541.03 9.50575
8541.15 7.20062
8541.40 4.40403
8541.65 2.91892
8541.90 2.06323
8542.15 1.52843
8542.40 1.17675
8542.90 0.757174
8543.41 0.527243
8543.91 0.388612
8544.91 0.236815
8545.91 0.159885
8546.91 0.115643
8547.92 0.0878002
8548.92 0.0691543
8550.92 0.0464139
8552.93 0.0335540
8554.93 0.0255442
8556.94 0.0202020
8560.95 0.0137019
8564.96 0.0100275
8572.98 0.00621205
8581.00 0.00437140
8589.01 0.00336089
8605.05 0.00244602
8621.09 0.00235046
8629.11 0.00263333
8637.13 0.00334146
8645.15 0.00505415
8653.17 0.0101394
8657.18 0.0172869
8661.19 0.0375156
8663.19 0.0654095
8665.20 0.143117
8666.20 0.248459
8666.70 0.351213
8667.20 0.534045
8667.70 0.908016
8667.95 1.26313
8668.20 1.87155
8668.45 3.05632
8668.58 4.11156
8668.70 5.81399
8668.83 8.83983
8668.96 14.8083
8669.02 20.2479
8669.08 28.8190
8669.14 43.4954
8669.21 68.4859
8669.27 109.474
8669.34 136.937
8669.41 109.429
8669.47 68.4514
8669.52 49.0272
8669.56 35.7273
8669.61 26.8014
8669.66 20.6776
8669.75 13.2192
8669.84 9.10363
8669.93 6.62439
8670.02 5.02565
8670.21 3.17419
8670.39 2.17729
8670.58 1.58444
8670.76 1.20397
8670.94 0.946714
8671.31 0.627900
8671.68 0.447033
8672.41 0.259397
8673.15 0.169261
8673.88 0.119155
8675.35 0.0683075
8678.29 0.0311470
8681.23 0.0179028
8687.11 0.00831274
8692.99 0.00491107
8704.75 0.00244145
8716.51 0.00155309
8740.03 0.000889998
8763.54 0.000641754
8787.06 0.000521754
8810.58 0.000457816
8857.62 0.000414487
8904.65 0.000454817
8928.17 0.000519146
8951.69 0.000643254
8975.21 0.000905278
8998.72 0.00161506
9022.24 0.00523454
9028.12 0.00890509
9034.00 0.0192454
9036.94 0.0335230
9039.88 0.0734982
9041.35 0.128102
9042.09 0.181816
9042.82 0.278244
9043.56 0.478327
9043.92 0.671173
9044.29 1.00787
9044.66 1.68104
9044.84 2.30164
9045.03 3.33031
9045.21 5.24077
9045.30 6.86517
9045.39 9.32052
9045.48 13.3598
9045.58 20.4905
9045.67 34.3098
9045.71 46.0520
9045.76 62.9250
9045.83 100.420
9045.91 125.786
9045.98 100.338
9046.05 62.8616
9046.11 42.5143
9046.17 29.8602
9046.22 21.7814
9046.28 16.4514
9046.39 10.2153
9046.51 6.90559
9046.62 4.94860
9046.74 3.72169
9046.96 2.31837
9047.19 1.57695
9047.42 1.14249
9047.65 0.864409
9047.88 0.677343
9048.34 0.447597
9048.79 0.317646
9049.71 0.183748
9050.62 0.119728
9051.53 0.0842456
9053.36 0.0483530
9057.02 0.0222116
9060.67 0.0129458
9067.98 0.00632548
9075.29 0.00407424
9082.60 0.00312273
9089.91 0.00271758
9104.53 0.00273869
9111.84 0.00309355
9119.15 0.00376183
9126.46 0.00495525
9133.77 0.00720109
9137.43 0.00910927
9141.08 0.0120281
9144.74 0.0168089
9148.39 0.0254408
9150.22 0.0326404
9152.05 0.0435149
9153.88 0.0610908
9155.70 0.0922134
9157.53 0.155498
9158.44 0.215039
9159.36 0.316562
9159.81 0.396668
9160.27 0.511289
9160.73 0.683205
9160.96 0.803471
9161.19 0.957163
9161.41 1.15953
9161.64 1.43019
9161.87 1.80601
9162.10 2.34081
9162.33 3.13875
9162.56 4.36954
9162.78 6.35030
9163.01 9.57347
9163.28 15.3280
9163.56 19.1644
9163.69 18.0468
9163.83 15.3415
9164.10 9.60141
9164.36 6.05729
9164.61 4.01614
9164.87 2.80861
9165.12 2.05664
9165.64 1.22452
9166.15 0.807261
9166.66 0.570142
9167.17 0.423750
9168.20 0.260073
9169.22 0.175651
9170.25 0.126624
9171.27 0.0956838
9172.30 0.0749463
9174.35 0.0497185
9176.40 0.0355886
9178.44 0.0269068
9180.49 0.0212154
9184.59 0.0145228
9188.69 0.0110025
9192.79 0.00908063
9196.89 0.00812897
9205.08 0.00844329
9209.18 0.0100046
9213.28 0.0134501
9215.33 0.0165387
9217.38 0.0213640
9219.43 0.0293799
9221.48 0.0439831
9222.50 0.0562160
9223.53 0.0747420
9224.55 0.104711
9225.58 0.157787
9226.60 0.265737
9227.63 0.539958
9228.14 0.871319
9228.40 1.16276
9228.65 1.62595
9228.78 1.96635
9228.91 2.42253
9229.04 3.05119
9229.16 3.94612
9229.29 5.26826
9229.42 7.30160
9229.55 10.5441
9229.68 15.7555
9229.83 25.1416
9229.99 31.1994
9230.07 29.2106
9230.14 24.7477
9230.30 15.4476
9230.47 9.19168
9230.64 5.83539
9230.80 3.96121
9230.97 2.84598
9231.14 2.13077
9231.31 1.65094
9231.64 1.07212
9231.98 0.749531
9232.31 0.553277
9232.98 0.336313
9233.66 0.225826
9234.33 0.162111
9235.00 0.122082
9235.67 0.0953434
9237.01 0.0628666
9238.35 0.0446757
9239.69 0.0334691
9241.03 0.0260814
9243.72 0.0172326
9246.40 0.0123335
9249.08 0.00933215
9251.77 0.00735644
9257.13 0.00498884
9262.50 0.00366947
9273.23 0.00230981
9283.97 0.00164760
9294.70 0.00127049
9316.17 0.000874776
9337.63 0.000683942
9359.10 0.000584178
9402.03 0.000524290
9444.97 0.000612903
9466.43 0.000746193
9487.90 0.00101175
9498.63 0.00124286
9509.37 0.00160099
9520.10 0.00219502
9530.83 0.00328336
9536.20 0.00420300
9541.56 0.00561005
9546.93 0.00792201
9552.30 0.0121187
9554.98 0.0156394
9557.66 0.0209882
9560.35 0.0296938
9563.03 0.0452856
9564.37 0.0581882
9565.71 0.0775356
9567.06 0.108450
9568.40 0.162293
9569.74 0.268964
9570.41 0.366492
9571.08 0.527538
9571.42 0.650946
9571.75 0.821852
9572.09 1.06915
9572.26 1.23572
9572.42 1.44176
9572.59 1.70360
9572.76 2.04017
9572.93 2.48084
9573.09 3.06536
9573.26 3.86628
9573.43 4.97126
9573.60 6.53307
9573.76 8.69915
9574.05 13.9233
9574.34 17.3537
9574.49 16.2992
9574.63 13.8381
9574.92 8.64747
9575.25 4.99109
9575.57 3.10421
9575.90 2.07582
9576.23 1.47457
9576.56 1.09576
9576.89 0.844851
9577.55 0.543929
9578.20 0.378424
9578.86 0.278112
9580.17 0.168172
9581.49 0.112462
9582.80 0.0804611
9584.11 0.0604136
9585.43 0.0470434
9588.06 0.0308579
9590.68 0.0218212
9593.31 0.0162664
9595.94 0.0126133
9601.19 0.00825901
9606.45 0.00586484
9611.70 0.00441182
9616.96 0.00346676
9627.47 0.00236113
9637.98 0.00177681
9648.49 0.00144906
9659.00 0.00127119
9680.02 0.00122933
9690.53 0.00138760
9701.04 0.00177417
9711.55 0.00269986
9722.06 0.00543831
9727.31 0.00928735
9732.57 0.0202085
9735.20 0.0353209
9737.82 0.0776354
9739.14 0.135387
9739.79 0.192141
9740.45 0.293905
9741.11 0.504641
9741.44 0.707349
9741.76 1.06028
9742.09 1.76335
9742.26 2.40633
9742.42 3.47287
9742.59 5.42780
9742.67 7.07459
9742.75 9.57435
9742.83 13.6015
9742.91 20.5855
9743.00 33.7657
9743.04 44.6869
9743.08 60.3334
9743.15 96.6457
9743.21 120.574
9743.28 96.5842
9743.35 60.2414
9743.41 38.5842
9743.48 25.7479
9743.54 18.0867
9743.60 13.3465
9743.73 7.97658
9743.85 5.28099
9743.98 3.73243
9744.10 2.77926
9744.35 1.70870
9744.60 1.15284
9744.86 0.829503
9745.36 0.488405
9745.86 0.321130
9746.36 0.227255
9747.36 0.130965
9749.37 0.0597413
9751.37 0.0341402
9755.38 0.0155345
9759.39 0.00893132
9767.41 0.00416707
9775.43 0.00248320
9791.47 0.00126800
9807.51 0.000837911
9871.68 0.000447020
9903.76 0.000445568
9935.84 0.000523255
9951.88 0.000611500
9967.92 0.000765778
9983.96 0.00105668
9991.98 0.00130636
10000.0 0.00169313
10005.9 0.00213043
10011.8 0.00280119
10017.7 0.00390708
10023.6 0.00592178
10026.5 0.00762692
10029.4 0.0102252
10032.4 0.0145051
10035.3 0.0222405
10036.8 0.0287685
10038.3 0.0386198
10039.8 0.0546211
10041.2 0.0831945
10042.7 0.141979
10044.2 0.295088
10044.9 0.487277
10045.3 0.661973
10045.6 0.939080
10045.8 1.16021
10046.0 1.44878
10046.2 1.88405
10046.4 2.49805
10046.5 2.97176
10046.6 3.51660
10046.7 4.21503
10046.7 5.12445
10046.8 6.32684
10046.9 7.93728
10047.0 10.1075
10047.1 13.0034
10047.3 20.8809
10047.5 25.6922
10047.5 24.1409
10047.6 20.4317
10047.8 13.0138
10047.9 9.57539
10048.0 7.16721
10048.2 4.39889
10048.5 2.86847
10048.7 2.03105
10048.9 1.48759
10049.1 1.14695
10049.5 0.739077
10049.9 0.510552
10050.4 0.375872
10051.2 0.226566
10052.1 0.150603
10052.9 0.107692
10053.8 0.0808254
10054.6 0.0629036
10056.3 0.0411429
10058.0 0.0290820
10059.7 0.0216340
10061.4 0.0167665
10064.9 0.0109479
10068.3 0.00774804
10071.7 0.00580343
10075.1 0.00453502
10081.9 0.00303849
10088.7 0.00222638
10095.5 0.00174067
10102.4 0.00143074
10116.0 0.00108361
10129.6 0.000921941
10156.9 0.000864002
10184.2 0.00108335
10197.8 0.00136503
10211.5 0.00190768
10218.3 0.00237409
10225.1 0.00309303
10231.9 0.00428074
10238.8 0.00644890
10242.2 0.00827547
10245.6 0.0110633
10249.0 0.0156267
10252.4 0.0238684
10254.1 0.0307674
10255.8 0.0411355
10257.5 0.0579904
10259.2 0.0876807
10260.9 0.148404
10262.6 0.302047
10263.1 0.379317
10263.5 0.490222
10263.9 0.657220
10264.3 0.916791
10264.6 1.11745
10264.8 1.37541
10265.0 1.73043
10265.2 2.23505
10265.4 3.02318
10265.6 4.19142
10265.8 6.05729
10266.0 9.06593
10266.3 14.6217
10266.6 18.1358
10266.7 17.0275
10266.8 14.3909
10267.1 9.06332
10267.3 6.16885
10267.5 4.33191
10267.7 3.15903
10267.9 2.41727
10268.3 1.49650
10268.6 1.01865
10269.0 0.729861
10269.4 0.551252
10270.2 0.345445
10271.0 0.235233
10271.8 0.170357
10272.6 0.129021
10273.4 0.101386
10274.9 0.0670393
10276.5 0.0477214
10278.1 0.0357225
10279.7 0.0277649
10282.8 0.0181792
10286.0 0.0128678
10289.1 0.00962239
10292.2 0.00750193
10298.5 0.00497777
10304.8 0.00359983
10311.1 0.00276689
10317.4 0.00222962
10330.0 0.00160896
10342.6 0.00129172
10367.8 0.00105101
10393.0 0.00110512
10418.1 0.00156857
10443.3 0.00421386
10449.6 0.00691733
10455.9 0.0145285
10459.1 0.0250634
10462.2 0.0544930
10463.8 0.0950417
10464.6 0.135123
10465.4 0.206222
10466.1 0.356058
10466.5 0.498860
10466.9 0.748601
10467.3 1.26444
10467.5 1.74818
10467.7 2.51701
10467.9 4.02700
10468.0 5.33938
10468.1 7.14161
10468.2 10.4130
10468.3 16.3886
10468.4 21.3330
10468.4 28.5896
10468.5 39.4881
10468.5 55.0417
10468.6 88.3989
10468.6 109.780
10468.7 88.4552
10468.8 55.0863
10468.8 36.9625
10468.9 25.3548
10469.0 18.1628
10469.0 14.1763
10469.1 8.55781
10469.2 5.85977
10469.4 4.13690
10469.5 3.14249
10469.7 1.94859
10469.9 1.32358
10470.2 0.956793
10470.6 0.566250
10471.1 0.373833
10471.5 0.265170
10472.5 0.153365
10474.3 0.0704141
10476.1 0.0405191
10479.8 0.0187762
10483.5 0.0110755
10498.2 0.00370792
10512.9 0.00256760
10527.6 0.00253305
10542.4 0.00321232
10557.1 0.00545820
10564.4 0.00856623
10571.8 0.0172153
10575.5 0.0290842
10579.1 0.0621980
10581.0 0.107308
10581.9 0.151615
10582.8 0.231041
10583.7 0.395481
10584.2 0.553324
10584.7 0.828927
10585.1 1.37594
10585.4 1.87731
10585.6 2.70895
10585.8 4.23287
10585.9 5.58401
10586.0 7.46134
10586.2 10.7663
10586.3 15.9951
10586.4 25.5183
10586.5 44.3570
10586.6 70.5226
10586.7 88.6164
10586.8 70.3998
10586.9 44.2617
10587.0 27.9547
10587.1 18.7570
10587.2 13.2341
10587.3 9.75443
10587.4 7.24717
10587.4 5.71856
10587.6 3.80613
10587.8 2.66064
10588.0 1.99092
10588.4 1.21818
10588.7 0.820863
10589.1 0.590374
10589.5 0.444998
10589.8 0.349696
10590.6 0.230157
10591.3 0.163863
10592.8 0.0953311
10594.2 0.0627491
10595.7 0.0447729
10598.7 0.0267019
10604.5 0.0137998
10610.4 0.00954776
10616.3 0.00791935
10622.2 0.00745969
10634.0 0.00861357
10639.9 0.0102519
10645.7 0.0129828
10651.6 0.0176088
10657.5 0.0259743
10660.5 0.0329064
10663.4 0.0432036
10666.3 0.0594737
10669.3 0.0873406
10670.8 0.109543
10672.2 0.141206
10673.0 0.162608
10673.7 0.188843
10674.4 0.222434
10675.2 0.265067
10675.9 0.321893
10676.6 0.397464
10677.4 0.503858
10678.1 0.654720
10678.8 0.883656
10679.6 1.23702
10680.3 1.82202
10681.0 2.77692
10681.9 4.45049
10682.7 5.55291
10683.2 5.21971
10683.6 4.43943
10684.4 2.78451
10685.3 1.70054
10686.1 1.10431
10687.0 0.761255
10687.8 0.551839
10688.7 0.415227
10689.5 0.323821
10691.2 0.212014
10693.0 0.148933
10694.7 0.110436
10698.1 0.0675623
10701.5 0.0456184
10704.9 0.0329243
10708.3 0.0249335
10711.7 0.0195958
10718.5 0.0130984
10725.3 0.00946807
10732.1 0.00723727
10739.0 0.00577984
10752.6 0.00407300
10766.2 0.00319158
10793.5 0.00254197
10820.8 0.00282578
10834.4 0.00342799
10848.0 0.00467267
10854.8 0.00576368
10861.7 0.00745116
10868.5 0.0102307
10875.3 0.0152442
10878.7 0.0194198
10882.1 0.0257089
10885.5 0.0358123
10888.9 0.0534877
10892.3 0.0889500
10894.0 0.121880
10895.7 0.176740
10896.6 0.219730
10897.4 0.279521
10897.9 0.319396
10898.3 0.367044
10898.7 0.427544
10899.1 0.501933
10899.6 0.599489
10900.0 0.723887
10900.4 0.893878
10900.8 1.12081
10901.3 1.44686
10901.7 1.90506
10902.1 2.59321
10902.5 3.57448
10903.2 5.72108
10903.8 7.07495
10904.2 6.61344
10904.5 5.60576
10905.1 3.51149
10905.6 2.47472
10906.0 1.78826
10906.5 1.33315
10907.0 1.02379
10907.9 0.650524
10908.8 0.446383
10909.7 0.324112
10910.6 0.245576
10912.5 0.154965
10914.3 0.106347
10916.2 0.0775007
10918.0 0.0590198
10919.8 0.0465400
10923.5 0.0310988
10927.2 0.0223580
10930.9 0.0169172
10934.5 0.0133263
10941.9 0.00903198
10949.2 0.00669681
10956.6 0.00533297
10963.9 0.00452888
10978.6 0.00399862
10986.0 0.00426830
10993.3 0.00514755
11000.7 0.00740933
11008.0 0.0142371
11011.7 0.0238612
11015.4 0.0509223
11017.2 0.0881016
11018.1 0.124783
11019.0 0.189854
11020.0 0.326296
11020.4 0.457936
11020.9 0.689106
11021.1 0.876545
11021.3 1.15211
11021.6 1.58068
11021.8 2.29932
11022.0 3.63836
11022.1 4.84710
11022.3 6.55717
11022.4 9.64705
11022.5 14.7243
11022.6 24.5020
11022.7 33.7003
11022.7 46.3036
11022.8 73.0859
11022.9 92.6129
11023.0 72.9917
11023.1 46.2308
11023.1 31.8491
11023.2 22.1446
11023.3 16.0212
11023.3 12.5005
11023.5 7.88003
11023.6 5.38004
11023.7 3.80430
11023.9 2.88299
11024.1 1.81496
11024.4 1.22876
11024.6 0.896176
11025.2 0.536672
11025.7 0.354487
11026.2 0.253088
11027.3 0.147020
11028.3 0.0961712
11029.4 0.0679374
11031.5 0.0393130
11035.7 0.0184092
11039.9 0.0109582
11048.3 0.00556914
11056.7 0.00367531
11073.5 0.00239925
11090.3 0.00217606
11107.1 0.00258805
11115.5 0.00317553
11123.9 0.00433284
11128.1 0.00533471
11132.3 0.00688174
11136.5 0.00943636
11140.7 0.0140862
11142.8 0.0179883
11144.9 0.0239187
11147.0 0.0335674
11149.1 0.0508354
11150.1 0.0651061
11151.2 0.0864820
11152.2 0.120586
11153.3 0.179916
11154.3 0.297001
11154.9 0.404946
11155.4 0.579472
11155.6 0.717787
11155.9 0.902784
11156.2 1.16777
11156.4 1.56455
11156.6 1.86430
11156.7 2.22294
11156.8 2.68903
11157.0 3.30605
11157.1 4.13839
11157.2 5.28043
11157.3 6.86375
11157.5 9.04276
11157.7 14.6381
11157.9 18.0985
11158.1 16.9195
11158.2 14.2314
11158.4 8.92023
11158.7 5.31787
11158.9 3.38171
11159.2 2.29845
11159.4 1.67034
11159.7 1.24981
11159.9 0.967878
11160.4 0.632277
11160.9 0.441328
11161.4 0.326979
11162.4 0.199892
11163.4 0.134240
11164.3 0.0966878
11165.3 0.0728134
11166.3 0.0569944
11168.3 0.0376843
11170.2 0.0268673
11172.2 0.0202085
11174.2 0.0158229
11178.1 0.0105846
11182.1 0.00771688
11186.0 0.00598276
11190.0 0.00486314
11197.8 0.00357965
11205.7 0.00294633
11221.5 0.00257233
11237.3 0.00301311
11245.2 0.00367225
11253.0 0.00495551
11260.9 0.00773691
11264.9 0.0104859
11268.8 0.0154455
11270.8 0.0195842
11272.7 0.0258524
11274.7 0.0360203
11276.7 0.0541735
11277.7 0.0692470
11278.7 0.0915799
11279.6 0.127570
11280.6 0.189520
11281.6 0.313123
11282.1 0.424726
11282.6 0.608293
11282.8 0.751111
11283.1 0.949954
11283.3 1.23759
11283.6 1.65220
11283.7 1.96625
11283.8 2.33881
11284.0 2.82123
11284.1 3.45721
11284.2 4.39474
11284.3 5.59167
11284.4 7.24336
11284.6 9.50485
11284.8 15.2439
11285.0 18.9835
11285.1 17.7855
11285.2 15.0497
11285.4 9.35429
11285.6 6.39248
11285.8 4.59580
11285.9 3.41494
11286.1 2.61683
11286.4 1.63748
11286.7 1.12461
11287.1 0.809856
11287.4 0.614929
11288.0 0.388535
11288.7 0.266126
11289.3 0.193814
11290.6 0.116804
11291.9 0.0783455
11293.2 0.0567825
11294.5 0.0434518
11295.8 0.0346905
11298.4 0.0243905
11301.0 0.0190908
11303.6 0.0163791
11306.1 0.0153187
11311.3 0.0174220
11313.9 0.0214947
11316.5 0.0298332
11319.1 0.0485708
11320.4 0.0675370
11321.7 0.101807
11323.0 0.174739
11323.6 0.246276
11324.3 0.371474
11324.9 0.631458
11325.2 0.873809
11325.6 1.28813
11325.9 2.11966
11326.0 2.84347
11326.2 4.00553
11326.4 6.03417
11326.5 10.0085
11326.6 13.5476
11326.7 19.1381
11326.8 28.3850
11326.8 44.4529
11326.9 70.7268
11327.0 88.6665
11327.1 70.5832
11327.2 44.3410
11327.3 31.4858
11327.3 23.1115
11327.4 16.6882
11327.5 12.9931
11327.6 8.15377
11327.7 5.54646
11327.8 4.00145
11328.0 3.01684
11328.2 1.91627
11328.5 1.30463
11328.7 0.944692
11329.3 0.565541
11329.8 0.373601
11330.3 0.266914
11331.3 0.155376
11332.3 0.101932
11333.4 0.0722561
11335.4 0.0421490
11339.6 0.0201013
11343.7 0.0121956
11351.9 0.00643481
11360.1 0.00441548
11376.6 0.00317732
11393.1 0.00329866
11401.3 0.00375539
11409.6 0.00459736
11417.8 0.00609977
11426.0 0.00892416
11430.1 0.0113225
11434.3 0.0149785
11438.4 0.0209277
11442.5 0.0315094
11444.6 0.0402313
11446.6 0.0532324
11448.7 0.0738305
11450.7 0.109293
11452.8 0.178118
11453.8 0.239692
11454.3 0.283542
11454.9 0.339191
11455.4 0.414324
11455.9 0.514511
11456.4 0.657935
11456.9 0.862902
11457.4 1.18146
11457.9 1.68188
11458.2 2.05332
11458.5 2.51975
11458.7 3.15543
11459.0 3.94762
11459.5 6.32460
11460.1 7.79907
11460.4 7.28748
11460.6 6.15143
11461.2 3.84741
11461.8 2.26442
11462.4 1.42689
11463.0 0.963846
11463.6 0.692426
11464.2 0.516963
11464.8 0.399709
11466.0 0.259358
11467.3 0.180922
11468.5 0.133545
11470.9 0.0812340
11473.3 0.0544956
11475.7 0.0391466
11478.2 0.0294646
11480.6 0.0230169
11485.4 0.0151799
11490.3 0.0107897
11495.1 0.00808436
11500.0 0.00629922
11500.0 0.413022
14000.0 0.368890
15000.0 0.354021
17000.0 0.327948
20000.0 0.295986
25000.0 0.255921
30000.0 0.226702
35000.0 0.204554
40000.0 0.187270
45000.0 0.173469
50000.0 0.162235
60000.0 0.145141
67500.0 0.135549
72000.0 0.130730
85000.0 0.119578
99999.9 0.110095
100000 0.120000
150000 0.108000
200000 0.107000
400000 0.119000
600000 0.143000
620000 0.145000
623000 0.139600
623571 0.138573
640000 0.109000
660000 0.0897000
680000 0.0808000
800000 0.0658000
1.00000E+06 0.0679000
1.20000E+06 0.0773000
1.24000E+06 0.0777600
1.24008E+06 0.0777609
1.32000E+06 0.0786800
1.40000E+06 0.0796000
1.43000E+06 0.0778300
1.45000E+06 0.0766500
1.48000E+06 0.0748800
1.48022E+06 0.0748668
1.60000E+06 0.0678000
1.80000E+06 0.0689000
1.89000E+06 0.0711500
2.00000E+06 0.0739000
2.00017E+06 0.0739004
2.02000E+06 0.0739500
2.02005E+06 0.0739501
2.05000E+06 0.0740250
2.20000E+06 0.0744000
2.40000E+06 0.0649000
2.50000E+06 0.0650500
2.60000E+06 0.0652000
2.80000E+06 0.0646000
3.00000E+06 0.0646000
3.20000E+06 0.0612400
3.20400E+06 0.0611728
3.20463E+06 0.0611622
3.50000E+06 0.0562000
3.51100E+06 0.0559470
3.51127E+06 0.0559408
4.00000E+06 0.0447000
4.50000E+06 0.0332000
5.00000E+06 0.0100000
6.00000E+06 0.00802000
7.00000E+06 0.00603999
7.48300E+06 0.00508365
7.48366E+06 0.00508236
8.00000E+06 0.00405999
9.00000E+06 0.00207999
9.18600E+06 0.00171171
9.18677E+06 0.00171019
9.48100E+06 0.00112761
9.48181E+06 0.00112602
9.72800E+06 0.000638552
9.72881E+06 0.000636949
1.00000E+07 0.000100000
1.00900E+07 9.91000E-05
1.00932E+07 9.90683E-05
1.10000E+07 9.00000E-05
1.20000E+07 8.00000E-05
1.30000E+07 7.00000E-05
1.40000E+07 6.00000E-05
1.50000E+07 5.00000E-05
1.60000E+07 4.00000E-05
1.64100E+07 3.59000E-05
1.64116E+07 3.58838E-05
1.65200E+07 3.48000E-05
1.65216E+07 3.47840E-05
1.69600E+07 3.04000E-05
1.69615E+07 3.03847E-05
1.70000E+07 3.00000E-05
1.80000E+07 2.00000E-05
1.90000E+07 1.00000E-05
2.00000E+07 0.00000