In-115(n,g) ENDF/B-VII.1
Energy(eV) XS(b)
1.00000E-05 9821.31
1.25000E-05 8784.48
1.50000E-05 8019.12
2.00000E-05 6944.81
2.75000E-05 5922.61
3.50000E-05 5249.89
4.25000E-05 4764.25
5.00000E-05 4392.46
6.25000E-05 3928.80
7.50000E-05 3586.55
0.000100000 3106.15
0.000125000 2778.32
0.000150000 2536.33
0.000200000 2196.68
0.000275000 1873.52
0.000350000 1660.87
0.000425000 1507.37
0.000500000 1389.86
0.000625000 1243.34
0.000750000 1135.20
0.00100000 983.448
0.00125000 879.921
0.00150000 803.526
0.00200000 696.346
0.00275000 594.450
0.00350000 527.460
0.00425000 479.150
0.00500000 442.205
0.00625000 396.192
0.00750000 362.288
0.0100000 314.821
0.0125000 282.547
0.0150000 258.812
0.0200000 225.679
0.0253000 202.122
0.0314750 182.766
0.0376500 168.545
0.0500000 148.801
0.0625000 135.457
0.0750000 125.872
0.100000 113.010
0.125000 104.861
0.150000 99.3755
0.200000 92.9589
0.275000 89.5317
0.350000 90.3547
0.500000 100.871
0.625000 119.085
0.750000 150.166
0.875000 204.558
0.937500 247.590
1.00000 309.105
1.05244 383.567
1.10488 492.574
1.15731 661.346
1.20975 943.158
1.23597 1160.87
1.26219 1466.78
1.28841 1915.30
1.31463 2609.04
1.34084 3758.63
1.36706 5840.87
1.38017 7552.16
1.39328 10050.5
1.40639 13783.2
1.41950 19355.0
1.43825 30766.2
1.45700 38197.3
1.47575 30348.0
1.49450 18843.9
1.51030 12413.8
1.52609 8486.36
1.54189 6058.67
1.55769 4497.50
1.58928 2719.51
1.62088 1801.74
1.65247 1273.37
1.68406 943.738
1.74725 573.374
1.81044 382.310
1.87363 271.663
1.93681 202.186
2.00000 155.879
2.11308 104.539
2.22616 74.6723
2.33924 55.9206
2.45233 43.4846
2.67849 28.8381
2.90465 21.4391
3.13081 18.3927
3.35698 20.4197
3.47006 25.9176
3.52660 31.5835
3.58314 41.4756
3.63968 60.3770
3.66795 76.7785
3.69622 102.311
3.72449 144.812
3.75276 222.011
3.76690 285.516
3.78103 378.243
3.79517 516.743
3.80930 723.406
3.82965 1150.68
3.85000 1433.04
3.87035 1144.38
3.89070 715.383
3.90803 472.541
3.92537 324.622
3.94270 233.382
3.96003 174.770
3.99470 108.011
4.02936 73.4734
4.06403 53.5052
4.09869 40.9758
4.16803 26.7470
4.23736 19.2634
4.30669 14.8243
4.44535 9.98368
4.58401 7.48505
4.72268 5.99163
5.00000 4.31503
5.44100 3.05985
5.88200 2.47473
6.32300 2.22842
6.54350 2.21964
6.76400 2.46181
6.85300 2.74614
6.94200 2.54407
7.20290 2.55181
7.46380 2.95583
7.72470 3.71544
7.98560 5.16078
8.24650 8.25109
8.37695 11.2681
8.50740 16.6080
8.63785 27.4167
8.70308 37.5358
8.76830 54.7248
8.83353 87.4218
8.86614 116.073
8.89875 161.385
8.93136 238.796
8.94767 299.503
8.96398 385.430
8.98028 511.480
8.99659 703.594
9.01289 1006.62
9.02920 1488.10
9.04960 2379.06
9.07000 2971.18
9.08020 2794.55
9.09040 2373.55
9.11080 1481.29
9.12469 1058.28
9.13859 773.098
9.15248 581.093
9.16638 449.002
9.19416 287.628
9.22195 198.320
9.24974 144.422
9.27753 109.628
9.33310 69.1465
9.38868 47.4932
9.44425 34.6131
9.49983 26.3492
9.55540 20.7388
9.66655 13.8365
9.77770 9.91899
9.88885 7.48788
10.0000 5.87900
10.2463 3.81392
10.4925 2.75192
10.7388 2.16747
10.9850 1.87222
11.2313 1.84095
11.4775 2.28878
11.6006 2.99926
11.6622 3.66430
11.7238 4.75304
11.7853 6.67360
11.8469 10.4451
11.8777 13.7947
11.9084 19.0604
11.9392 27.7011
11.9700 42.0826
12.0050 66.7500
12.0400 83.0969
12.0750 66.5308
12.1100 41.7882
12.1494 24.5133
12.1888 15.5041
12.2282 10.5831
12.2676 7.68564
12.3070 5.85850
12.3464 4.64026
12.4253 3.17279
12.5041 2.35717
12.5829 1.85638
12.7405 1.29408
12.8981 0.997210
13.0558 0.818762
13.3710 0.658381
13.4600 0.670850
13.5490 0.586852
13.7506 0.483669
13.9522 0.431280
14.3554 0.361270
15.1618 0.279260
16.7745 0.206340
18.3873 0.194067
19.1936 0.213633
20.0000 0.270289
20.6723 0.389655
21.0084 0.511762
21.3445 0.735286
21.5126 0.923073
21.6806 1.20823
21.8487 1.67129
22.0168 2.49719
22.1008 3.17746
22.1848 4.19291
22.2689 5.80582
22.3529 8.59443
22.4369 14.0463
22.4789 18.9651
22.5209 26.9859
22.5630 41.3253
22.5840 53.0962
22.6050 70.4987
22.6260 97.5695
22.6470 142.213
22.6680 220.528
22.6785 281.130
22.6890 362.304
22.6993 463.725
22.7095 579.650
22.7300 724.436
22.7505 579.118
22.7710 361.643
22.7844 262.148
22.7977 193.858
22.8244 114.557
22.8512 74.1956
22.8779 51.5357
22.9046 37.7263
22.9313 28.7484
22.9848 18.2306
23.0382 12.5639
23.0916 9.17679
23.1985 5.51083
23.3054 3.67753
23.4123 2.63295
23.5191 1.98222
23.6260 1.54988
23.8398 1.02929
24.0535 0.739849
24.2673 0.562542
24.4810 0.446119
24.9085 0.307558
25.3360 0.231373
26.1910 0.154935
27.0460 0.119771
27.9010 0.101897
28.7560 0.0953611
29.1835 0.103567
29.3973 0.130871
29.5041 0.181751
29.5576 0.243063
29.6110 0.365881
29.6555 0.534233
29.7000 0.646709
29.7445 0.534650
29.7890 0.366211
29.8272 0.269892
29.8654 0.211317
29.9418 0.152037
30.0182 0.125619
30.0946 0.111941
30.4002 0.0935446
31.0115 0.0883015
32.2339 0.0943767
33.4564 0.112408
34.6789 0.150186
35.9013 0.234906
36.5126 0.320283
37.1238 0.476233
37.4294 0.607563
37.7350 0.807904
38.0406 1.13573
38.3462 1.72778
38.4991 2.22187
38.6519 2.96942
38.8047 4.17908
38.9575 6.32807
39.0339 8.09198
39.1103 10.7164
39.1867 14.8673
39.2631 21.9977
39.3395 35.8010
39.3777 48.1172
39.4159 67.9705
39.4541 102.837
39.4732 130.946
39.4923 171.796
39.5114 233.818
39.5305 332.787
39.5496 498.649
39.5592 621.931
39.5687 782.126
39.5894 1250.39
39.6100 1561.99
39.6307 1249.69
39.6513 781.276
39.6660 550.656
39.6807 397.845
39.6954 296.424
39.7100 227.536
39.7394 144.416
39.7688 98.9978
39.7981 71.8003
39.8275 54.3460
39.8862 34.1396
39.9450 23.3818
40.0037 17.0012
40.0624 12.9159
40.1212 10.1477
40.2386 6.75572
40.3561 4.86156
40.4735 3.77573
40.5910 3.44275
40.6800 3.68278
40.7690 2.66591
40.8561 1.99903
40.9432 1.64754
41.1175 1.23933
41.4659 0.808975
41.8144 0.579234
42.1629 0.440414
42.8598 0.290181
43.5567 0.220712
44.2536 0.195711
44.9506 0.220647
45.2990 0.277779
45.4733 0.336709
45.6475 0.442567
45.8217 0.658638
45.9088 0.862406
45.9959 1.21176
46.0831 1.88768
46.1266 2.49165
46.1702 3.46742
46.2137 5.18937
46.2573 8.62368
46.2791 11.7418
46.3009 16.7679
46.3226 25.3087
46.3444 40.1530
46.3672 64.0916
46.3900 80.0236
46.4128 64.0647
46.4356 40.1230
46.4618 23.1293
46.4881 14.3873
46.5143 9.66374
46.5406 6.90623
46.5668 5.17975
46.5930 4.03654
46.6455 2.67498
46.6980 1.93255
46.7505 1.48840
46.8554 1.01637
46.9604 0.798438
47.0653 0.698520
47.2752 0.690655
47.4851 0.915724
47.5901 1.17914
47.6950 1.66117
47.8000 2.63668
47.8524 3.53505
47.9049 5.02447
47.9574 7.74625
47.9836 10.0289
48.0099 13.4753
48.0361 18.9900
48.0623 28.4537
48.0886 46.0315
48.1148 80.3593
48.1374 128.410
48.1600 160.389
48.1826 128.346
48.2052 80.2775
48.2192 59.1206
48.2333 44.3237
48.2613 26.7262
48.2893 17.5441
48.3174 12.3074
48.3454 9.07942
48.3735 6.96475
48.4296 4.46681
48.4856 3.10997
48.5417 2.29413
48.6539 1.40539
48.7661 0.957400
48.8783 0.700250
49.1026 0.430784
49.3270 0.299110
49.5513 0.224573
50.0000 0.146828
50.5419 0.103047
51.0839 0.0800761
52.1678 0.0573539
53.2516 0.0467703
54.3355 0.0412848
56.5033 0.0383847
57.5871 0.0408127
58.1291 0.0443018
58.4000 0.0491160
58.5355 0.0566115
58.6033 0.0661549
58.6710 0.0881203
58.7600 0.130726
58.8490 0.0897854
58.9130 0.0697596
58.9769 0.0613247
59.1048 0.0559420
59.3606 0.0559256
59.8723 0.0643482
60.3839 0.0801874
60.8956 0.109487
61.4072 0.171638
61.6630 0.232722
61.9188 0.342316
62.0467 0.433175
62.1747 0.569755
62.3026 0.788810
62.4305 1.17299
62.5584 1.94134
62.6223 2.65179
62.6863 3.84172
62.7503 6.05661
62.7822 7.95249
62.8142 10.8768
62.8462 15.6987
62.8782 24.3443
62.9101 41.5224
62.9261 56.4763
62.9421 78.4394
62.9661 125.462
62.9900 156.790
63.0140 125.414
63.0379 78.3794
63.0635 46.7505
63.0891 29.7174
63.1146 20.1873
63.1402 14.4845
63.1658 10.8518
63.1913 8.41349
63.2425 5.46471
63.2936 3.82679
63.3448 2.82796
63.4470 1.72641
63.5493 1.16593
63.6516 0.843093
63.7539 0.640516
63.8562 0.505261
64.0608 0.341747
64.2653 0.250713
64.6745 0.159004
65.0836 0.117169
65.4927 0.0960560
65.9019 0.0857691
66.3110 0.0863510
66.4000 0.0908134
66.4890 0.0865747
66.6723 0.0843193
66.8555 0.0864023
67.2220 0.0960742
67.5885 0.115215
67.9550 0.152113
68.3214 0.230377
68.5047 0.305600
68.6879 0.436140
68.8712 0.691943
68.9628 0.922950
69.0544 1.29998
69.1460 1.97438
69.1919 2.52829
69.2377 3.34809
69.2835 4.62371
69.3293 6.72916
69.3751 10.4268
69.4209 17.1333
69.4655 27.3744
69.5100 34.1910
69.5546 27.3569
69.5991 17.1114
69.6520 9.68679
69.7048 5.94270
69.7576 3.94788
69.8105 2.79362
69.8633 2.07541
69.9162 1.60167
70.0218 1.03853
70.1275 0.731003
70.2332 0.545606
70.4446 0.343518
70.6560 0.242108
70.8673 0.184553
71.2901 0.126472
71.7128 0.102407
72.1355 0.0987388
72.3469 0.108348
72.5583 0.139913
72.6640 0.178674
72.7696 0.262561
72.8225 0.344489
72.8753 0.486593
72.9282 0.753982
72.9810 1.28512
73.0255 2.01813
73.0700 2.50715
73.1145 2.01870
73.1590 1.28537
73.1947 0.888320
73.2303 0.638701
73.2659 0.480534
73.3016 0.376799
73.3729 0.256132
73.4441 0.192417
73.5867 0.131503
73.7293 0.104597
74.0144 0.0824296
74.2995 0.0743154
75.4400 0.0731363
76.5805 0.0907208
77.1508 0.109707
77.4359 0.130781
77.5784 0.159716
77.6497 0.195669
77.7210 0.279983
77.8100 0.437663
77.8990 0.289589
77.9448 0.232089
77.9907 0.201733
78.0823 0.177349
78.2656 0.172351
78.6322 0.199634
78.9988 0.250739
79.3654 0.337962
79.7319 0.507267
79.9152 0.664038
80.0985 0.934505
80.2818 1.47648
80.3735 1.98715
80.4651 2.86942
80.5568 4.60637
80.6026 6.19121
80.6484 8.81380
80.6942 13.6130
80.7172 17.6502
80.7401 23.7736
80.7630 33.6300
80.7859 50.7053
80.8088 82.8818
80.8203 109.517
80.8317 147.050
80.8413 188.174
80.8509 235.135
80.8700 293.869
80.8892 235.088
80.9083 147.000
80.9267 92.2700
80.9451 60.9222
80.9634 42.5313
80.9818 31.1536
81.0186 18.6487
81.0553 12.4034
81.0921 8.87689
81.1288 6.70592
81.2023 4.29847
81.2758 3.07775
81.3493 2.38708
81.4964 1.70755
81.6434 1.44451
81.7904 1.37946
82.0844 1.62727
82.2314 1.95444
82.3784 2.49663
82.5254 3.41197
82.6725 5.07178
82.7460 6.44487
82.8195 8.49517
82.8930 11.7457
82.9665 17.3398
83.0400 28.1861
83.0767 37.8748
83.1135 53.5076
83.1503 81.0061
83.1686 103.205
83.1870 135.483
83.2054 184.590
83.2238 263.060
83.2421 394.985
83.2605 621.061
83.2803 992.970
83.3000 1240.57
83.3198 992.703
83.3395 620.739
83.3554 418.730
83.3713 291.992
83.3871 211.817
83.4030 159.312
83.4347 98.3543
83.4665 66.2493
83.4982 47.4859
83.5300 35.6446
83.5934 22.1550
83.6569 15.0778
83.7204 10.9193
83.7839 8.27212
83.8474 6.48501
83.9744 4.29705
84.1013 3.06003
84.2283 2.29339
84.3553 1.78589
84.6092 1.17780
84.8631 0.844958
85.1171 0.660154
85.2440 0.630053
85.3075 0.656906
85.3710 0.760674
85.4600 0.994525
85.5490 0.692893
85.6393 0.501440
85.7295 0.423176
85.9100 0.352314
86.0905 0.327487
86.1808 0.343839
86.2710 0.432266
86.3600 0.590882
86.4490 0.406145
86.5084 0.317268
86.5679 0.272318
86.6868 0.229614
86.9245 0.192152
87.4000 0.154602
87.8755 0.134187
88.1133 0.132360
88.2321 0.141133
88.2916 0.155186
88.3510 0.187358
88.4400 0.256802
88.5290 0.183355
88.6191 0.138338
88.7093 0.122468
88.8895 0.110985
89.2500 0.103528
89.9709 0.101719
90.6919 0.111711
91.4129 0.139737
92.1338 0.208480
92.4943 0.279499
92.8548 0.410037
93.0350 0.519958
93.2153 0.687155
93.3955 0.959105
93.5757 1.44503
93.6659 1.84579
93.7560 2.44474
93.8461 3.39736
93.9362 5.04701
94.0263 8.27909
94.0714 11.2008
94.1165 15.9759
94.1615 24.5354
94.1841 31.5813
94.2066 42.0326
94.2291 58.3433
94.2516 85.3768
94.2742 133.135
94.2854 170.368
94.2967 220.442
94.3075 282.222
94.3184 352.782
94.3400 441.029
94.3617 352.698
94.3833 220.337
94.4053 134.691
94.4272 87.1445
94.4491 59.9107
94.4711 43.3411
94.4930 32.6603
94.5150 25.4279
94.5588 16.6034
94.6027 11.6596
94.6466 8.62637
94.7344 5.26251
94.8221 3.54176
94.9099 2.54673
94.9976 1.92050
95.0854 1.50117
95.2609 0.992179
95.4364 0.706888
95.6120 0.531113
95.7875 0.415208
96.1385 0.276681
96.4896 0.200221
96.8406 0.153657
97.1917 0.123307
97.8937 0.0880068
98.5958 0.0707237
99.2979 0.0664866
99.6490 0.0726368
100.000 0.0958684
100.183 0.128424
100.274 0.158564
100.366 0.208234
100.457 0.297805
100.548 0.481099
100.594 0.651643
100.640 0.933375
100.685 1.42838
100.731 2.32363
100.776 3.69538
100.820 4.61012
100.865 3.69642
100.909 2.32451
100.951 1.47707
100.994 0.989441
101.036 0.701532
101.078 0.522439
101.162 0.324451
101.247 0.224979
101.331 0.168348
101.416 0.133217
101.585 0.0936267
101.753 0.0728880
101.922 0.0605882
102.260 0.0471350
102.936 0.0362509
103.273 0.0349545
103.442 0.0375416
103.527 0.0428934
103.611 0.0591601
103.700 0.0874231
103.789 0.0582964
103.899 0.0387057
104.008 0.0330706
104.227 0.0294365
104.664 0.0270502
105.540 0.0250476
107.290 0.0241618
108.165 0.0252751
109.041 0.0291161
109.478 0.0342002
109.916 0.0472215
110.135 0.0633662
110.244 0.0780736
110.353 0.102416
110.463 0.147043
110.518 0.184708
110.572 0.242049
110.627 0.334852
110.682 0.496957
110.736 0.806287
110.764 1.06586
110.791 1.43412
110.836 2.27947
110.880 2.84329
110.925 2.28068
110.969 1.43585
111.022 0.825005
111.074 0.516618
111.127 0.351693
111.179 0.256384
111.232 0.196991
111.284 0.157931
111.389 0.111660
111.494 0.0866233
111.599 0.0718165
111.810 0.0564567
112.230 0.0475213
112.650 0.0503435
113.070 0.0640210
113.280 0.0785810
113.491 0.104597
113.701 0.156690
113.806 0.204504
113.911 0.283676
114.016 0.428631
114.068 0.550325
114.121 0.734537
114.174 1.03086
114.226 1.54115
114.279 2.49604
114.331 4.38128
114.376 6.99039
114.420 8.72723
114.465 6.98772
114.509 4.37797
114.557 2.61964
114.604 1.67430
114.652 1.14513
114.699 0.828380
114.747 0.626236
114.794 0.490881
114.889 0.327179
114.984 0.236210
115.079 0.180829
115.269 0.119858
115.459 0.0889693
115.649 0.0713355
116.030 0.0532834
116.790 0.0411031
117.550 0.0389208
118.310 0.0412162
119.071 0.0490080
119.451 0.0580708
119.831 0.0792272
120.021 0.104049
120.116 0.126033
120.211 0.161625
120.306 0.225194
120.401 0.355111
120.449 0.476767
120.496 0.679747
120.544 1.04211
120.591 1.71403
120.636 2.71311
120.680 3.37958
120.725 2.71510
120.769 1.71727
120.809 1.12676
120.849 0.776350
120.889 0.564948
120.929 0.431481
121.009 0.282299
121.089 0.206843
121.169 0.164198
121.249 0.138159
121.409 0.110167
121.729 0.0912678
122.049 0.0892466
122.689 0.104389
123.329 0.142013
123.969 0.224944
124.289 0.306966
124.609 0.454818
124.769 0.578078
124.929 0.764530
125.089 1.06636
125.249 1.60330
125.329 2.04467
125.409 2.70258
125.489 3.74552
125.569 5.54360
125.649 9.04280
125.689 12.1833
125.729 17.2765
125.769 26.3006
125.789 33.6406
125.809 44.3988
125.829 60.9176
125.849 87.6769
125.869 133.431
125.879 168.020
125.889 213.487
125.899 272.742
125.910 339.356
125.930 422.360
125.951 339.297
125.971 213.415
125.984 155.082
125.998 115.116
126.024 68.2517
126.051 44.2925
126.078 30.8076
126.105 22.5767
126.131 17.2198
126.185 10.9451
126.238 7.55378
126.291 5.52856
126.398 3.33191
126.505 2.23198
126.611 1.60589
126.718 1.21611
126.825 0.957459
127.038 0.647074
127.252 0.476262
127.679 0.307750
128.105 0.235225
128.532 0.203761
129.386 0.203975
129.813 0.230289
130.240 0.280364
130.667 0.369951
131.094 0.537656
131.307 0.678974
131.520 0.892729
131.734 1.23730
131.947 1.84324
132.161 3.05873
132.268 4.18389
132.374 6.07104
132.481 9.58872
132.534 12.6077
132.588 17.2639
132.641 24.9699
132.694 38.8051
132.721 50.1009
132.748 66.4563
132.774 90.6281
132.801 126.095
132.821 161.274
132.841 201.157
132.880 250.946
132.920 201.094
132.959 126.018
133.002 74.5114
133.045 47.0454
133.088 31.8072
133.131 22.7603
133.174 17.0065
133.217 13.1648
133.304 8.52592
133.390 5.95691
133.476 4.39279
133.648 2.67055
133.820 1.79498
133.992 1.29114
134.165 0.974923
134.337 0.763601
134.681 0.507558
135.026 0.364371
135.370 0.276290
135.715 0.218309
136.403 0.149251
137.092 0.111480
138.470 0.0746650
139.848 0.0600462
141.226 0.0578671
141.914 0.0631665
142.603 0.0809422
142.948 0.104572
143.120 0.126783
143.292 0.164744
143.464 0.237973
143.551 0.303326
143.637 0.408937
143.723 0.595467
143.809 0.968502
143.852 1.30887
143.895 1.85836
143.938 2.79961
143.981 4.44436
144.026 7.07431
144.070 8.82732
144.115 7.07796
144.159 4.45006
144.204 2.74747
144.249 1.80121
144.294 1.25937
144.339 0.930645
144.429 0.575804
144.520 0.402650
144.610 0.307510
144.700 0.251513
144.880 0.197700
145.060 0.187905
145.241 0.223303
145.331 0.275869
145.421 0.389088
145.466 0.495818
145.511 0.671779
145.556 0.980329
145.601 1.53452
145.646 2.39211
145.690 2.96425
145.735 2.39411
145.779 1.53804
145.808 1.15178
145.836 0.885090
145.893 0.574049
145.950 0.416443
146.007 0.330022
146.121 0.251591
146.235 0.232171
146.349 0.252296
146.463 0.331044
146.520 0.417239
146.577 0.574043
146.634 0.883092
146.663 1.14796
146.691 1.53156
146.736 2.38190
146.780 2.94887
146.825 2.38158
146.869 1.53035
146.922 0.913389
146.975 0.602483
147.027 0.437230
147.080 0.342218
147.186 0.245311
147.291 0.201583
147.502 0.169257
147.713 0.164784
148.135 0.191217
148.558 0.261599
148.769 0.324241
148.980 0.420911
149.191 0.579599
149.402 0.864889
149.507 1.10157
149.613 1.45652
149.718 2.02418
149.824 3.01497
149.929 4.98294
149.982 6.78696
150.035 9.77286
150.088 15.2549
150.114 19.8737
150.140 26.8528
150.167 38.1292
150.193 57.6795
150.220 94.5498
150.233 125.069
150.246 167.737
150.257 215.061
150.268 268.647
150.290 335.525
150.312 268.118
150.334 167.686
150.358 100.110
150.381 63.7801
150.405 43.3275
150.428 31.1264
150.451 23.3131
150.475 18.0876
150.522 11.7571
150.569 8.22921
150.615 6.08014
150.709 3.70477
150.803 2.49494
150.896 1.79732
150.990 1.35915
151.084 1.06622
151.271 0.711351
151.459 0.512931
151.646 0.391015
151.833 0.310892
152.208 0.215751
152.583 0.163953
153.333 0.113632
154.082 0.0928008
154.832 0.0850696
155.581 0.0876257
155.956 0.100856
156.144 0.130069
156.237 0.177497
156.284 0.229685
156.331 0.325139
156.376 0.468410
156.420 0.564170
156.465 0.469663
156.509 0.327567
156.570 0.213979
156.632 0.163023
156.754 0.125280
157.000 0.110527
157.490 0.124410
157.735 0.147084
157.981 0.200561
158.103 0.261148
158.226 0.391543
158.287 0.521937
158.348 0.757145
158.410 1.23025
158.440 1.64863
158.471 2.26892
158.516 3.56386
158.560 4.42748
158.605 3.56713
158.649 2.27474
158.677 1.70313
158.705 1.30547
158.760 0.833334
158.816 0.588469
158.871 0.449752
158.982 0.310320
159.093 0.247395
159.315 0.198008
159.537 0.184279
159.981 0.190581
160.425 0.218313
160.869 0.266372
161.313 0.350839
161.535 0.424821
161.757 0.560420
161.868 0.690308
161.979 0.940234
162.035 1.17202
162.090 1.56706
162.146 2.31060
162.201 3.81516
162.246 5.80988
162.290 7.14608
162.335 5.84999
162.379 3.89446
162.414 2.85206
162.449 2.20134
162.520 1.53268
162.590 1.24794
162.660 1.12219
162.801 1.06843
162.941 1.13560
163.222 1.48697
163.504 2.20385
163.644 2.81202
163.785 3.73218
163.925 5.21345
164.066 7.81516
164.136 9.92667
164.206 13.0316
164.277 17.8617
164.347 25.9491
164.417 41.0418
164.452 54.0037
164.488 73.9778
164.523 107.070
164.558 166.420
164.575 214.909
164.593 284.622
164.611 388.061
164.628 539.284
164.654 858.360
164.680 1069.20
164.706 858.186
164.732 539.083
164.758 332.832
164.784 216.746
164.810 149.648
164.836 108.575
164.862 81.9881
164.888 63.9306
164.940 41.8326
164.992 29.4179
165.044 21.7871
165.148 13.3172
165.252 8.97401
165.356 6.46194
165.460 4.88167
165.564 3.82565
165.772 2.54711
165.980 1.83821
166.188 1.41091
166.396 1.14234
166.812 0.881697
167.020 0.860021
167.227 0.932842
167.435 1.18901
167.539 1.46767
167.643 1.97203
167.747 2.98541
167.799 3.90976
167.851 5.42488
167.903 8.14195
167.929 10.3758
167.955 13.6826
167.981 18.8270
168.007 27.3120
168.033 42.1926
168.059 68.9848
168.085 110.169
168.110 137.608
168.135 110.145
168.161 68.9492
168.184 44.3478
168.207 29.8784
168.230 21.1366
168.253 15.6497
168.299 9.49658
168.345 6.36720
168.391 4.57773
168.437 3.46364
168.530 2.20913
168.622 1.55617
168.714 1.17276
168.898 0.761164
169.083 0.553983
169.267 0.433419
169.636 0.302821
170.005 0.235120
170.373 0.194567
171.111 0.150279
171.849 0.130721
172.586 0.130267
172.955 0.143110
173.324 0.183878
173.508 0.236536
173.600 0.284422
173.692 0.362778
173.785 0.503198
173.877 0.789863
173.923 1.05667
173.969 1.49812
174.015 2.27611
174.061 3.68927
174.106 5.83915
174.150 7.27195
174.195 5.84135
174.239 3.69258
174.267 2.72746
174.296 2.05817
174.352 1.27246
174.409 0.867355
174.465 0.638207
174.578 0.406856
174.691 0.300495
174.917 0.211769
175.143 0.180389
175.595 0.171573
176.047 0.200207
176.499 0.280198
176.725 0.362487
176.951 0.511683
177.177 0.822241
177.290 1.12114
177.403 1.64426
177.516 2.68638
177.573 3.64551
177.629 5.24405
177.686 8.19554
177.714 10.7062
177.742 14.5333
177.771 20.7888
177.799 31.7693
177.827 53.0637
177.841 71.0446
177.855 96.8708
177.866 123.942
177.878 154.866
177.900 193.492
177.922 154.846
177.945 96.8461
177.962 66.4788
177.979 47.0077
177.996 34.4669
178.014 26.1386
178.048 16.3319
178.082 11.0959
178.117 8.00952
178.151 6.04914
178.220 3.80317
178.289 2.61882
178.358 1.92063
178.495 1.17453
178.633 0.806135
178.770 0.598220
179.046 0.385542
179.321 0.285846
179.596 0.232746
180.146 0.185091
181.247 0.175057
182.347 0.220817
182.898 0.268545
183.448 0.345084
183.998 0.473564
184.549 0.709042
184.824 0.907135
185.099 1.20846
185.374 1.69903
185.649 2.57709
185.787 3.30328
185.925 4.39158
186.062 6.12911
186.200 9.15213
186.337 15.1311
186.406 20.5881
186.475 29.6003
186.544 46.0103
186.578 59.7389
186.613 80.4340
186.647 113.453
186.681 169.919
186.699 213.706
186.716 274.271
186.733 359.020
186.750 475.997
186.780 761.931
186.810 952.660
186.840 761.773
186.870 475.816
186.901 288.677
186.932 185.720
186.963 127.184
186.994 91.8457
187.024 69.0637
187.055 53.6823
187.117 34.9924
187.179 24.5310
187.241 18.1339
187.364 11.0479
187.487 7.42498
187.611 5.33239
187.734 4.01658
187.858 3.13681
188.105 2.06926
188.352 1.47232
188.599 1.10564
188.846 0.865057
189.339 0.581745
189.833 0.434998
190.327 0.377071
190.574 0.423502
190.698 0.553335
190.759 0.729771
190.821 1.12344
190.866 1.61392
190.910 1.94137
190.955 1.61524
190.999 1.12599
191.034 0.867059
191.069 0.703970
191.138 0.534318
191.277 0.430915
191.416 0.431018
191.555 0.491341
191.694 0.640143
191.764 0.778873
191.833 1.00263
191.903 1.38837
191.972 2.11969
192.007 2.74689
192.042 3.69452
192.076 5.18074
192.111 7.50964
192.156 11.9004
192.200 14.8225
192.245 11.8987
192.289 7.50422
192.322 5.25256
192.355 3.78864
192.389 2.83428
192.422 2.19588
192.488 1.43433
192.554 1.02279
192.621 0.777886
192.687 0.621032
192.820 0.439379
192.952 0.342202
193.085 0.284425
193.350 0.223499
193.615 0.199245
193.881 0.205147
194.013 0.229793
194.146 0.295708
194.212 0.367405
194.278 0.503125
194.345 0.790730
194.378 1.05656
194.411 1.46502
194.456 2.26616
194.500 2.79976
194.545 2.26404
194.589 1.46041
194.621 1.05798
194.654 0.793851
194.718 0.501426
194.782 0.359178
194.847 0.281259
194.976 0.203880
195.104 0.167968
195.362 0.135955
195.620 0.122043
196.650 0.107425
197.681 0.119092
197.938 0.130807
198.196 0.157992
198.325 0.188710
198.453 0.255257
198.518 0.322495
198.582 0.445493
198.647 0.698769
198.679 0.927748
198.711 1.27546
198.756 1.97193
198.800 2.43650
198.845 1.97384
198.889 1.27895
198.924 0.910074
198.959 0.676315
199.028 0.428374
199.097 0.313372
199.167 0.253062
199.306 0.196796
199.445 0.173841
200.000 0.159814
200.694 0.183113
201.388 0.229596
202.081 0.310404
202.775 0.460317
203.122 0.587255
203.469 0.781358
203.816 1.09950
204.163 1.67442
204.336 2.15461
204.510 2.88060
204.683 4.05537
204.856 6.13868
204.943 7.84792
205.030 10.3844
205.117 14.3852
205.203 21.2319
205.247 26.6493
205.290 34.3997
205.333 46.0854
205.377 64.7386
205.420 97.2145
205.442 123.119
205.463 160.168
205.485 215.847
205.507 303.025
205.529 445.430
205.550 679.878
205.575 1088.47
205.600 1359.27
205.625 1086.54
205.650 679.671
205.674 424.919
205.698 279.437
205.722 194.288
205.746 141.848
205.770 107.494
205.794 84.0420
205.843 55.2343
205.891 38.9225
205.939 28.8784
206.035 17.6742
206.131 11.9069
206.228 8.56182
206.324 6.45228
206.420 5.03889
206.613 3.31901
206.805 2.35435
206.998 1.75971
207.190 1.36767
207.575 0.899640
207.960 0.642350
208.346 0.486822
208.731 0.386797
209.501 0.275662
210.271 0.237692
210.656 0.252099
211.041 0.328951
211.234 0.438602
211.330 0.541182
211.426 0.711482
211.522 1.02143
211.619 1.66369
211.667 2.27155
211.715 3.28997
211.763 5.11982
211.811 8.53695
211.856 13.5628
211.900 16.9062
211.945 13.5641
211.989 8.53759
212.021 6.06200
212.052 4.41783
212.084 3.32591
212.115 2.58297
212.179 1.68584
212.242 1.19487
212.305 0.900706
212.368 0.711768
212.495 0.493352
212.621 0.377629
212.747 0.310245
213.000 0.243995
213.253 0.227337
213.506 0.261959
213.632 0.322120
213.758 0.466588
213.822 0.617489
213.885 0.896160
213.948 1.46979
213.980 1.98537
214.011 2.75998
214.056 4.34004
214.100 5.39240
214.145 4.33823
214.189 2.75568
214.233 1.74827
214.277 1.18066
214.321 0.850967
214.365 0.648198
214.453 0.426198
214.540 0.315413
214.716 0.213335
214.892 0.169067
215.243 0.131993
215.595 0.117337
217.000 0.109177
218.406 0.133035
219.108 0.162004
219.460 0.193314
219.635 0.236264
219.723 0.294397
219.767 0.353402
219.811 0.455734
219.900 0.722961
219.989 0.469577
220.051 0.348602
220.113 0.297242
220.237 0.265576
220.484 0.270996
220.980 0.340098
221.475 0.465713
221.970 0.696415
222.218 0.890156
222.466 1.18461
222.713 1.66394
222.961 2.52274
223.085 3.23468
223.209 4.30311
223.333 6.01439
223.456 9.00961
223.580 14.9875
223.642 20.4924
223.704 29.6789
223.735 36.7726
223.766 46.6747
223.797 61.1599
223.828 83.2951
223.859 119.575
223.890 183.568
223.905 235.044
223.921 308.490
223.936 415.132
223.952 568.157
223.976 908.848
224.000 1135.87
224.024 908.716
224.048 568.010
224.069 373.213
224.090 254.893
224.111 182.093
224.132 135.416
224.173 82.3544
224.215 54.9638
224.256 39.1642
224.298 29.2777
224.381 18.1204
224.464 12.3072
224.548 8.91166
224.631 6.76132
224.714 5.31794
224.880 3.56279
225.047 2.58753
225.213 2.00097
225.379 1.63582
225.712 1.29929
225.878 1.29065
226.045 1.42179
226.211 1.81133
226.294 2.20253
226.377 2.85998
226.461 4.04571
226.544 6.42532
226.585 8.57862
226.627 12.0243
226.669 17.8106
226.710 27.6852
226.755 44.0665
226.800 54.9870
226.845 44.0359
226.890 27.6306
226.929 18.2704
226.967 12.5904
227.006 9.08680
227.044 6.83490
227.121 4.26349
227.198 2.93073
227.275 2.15580
227.352 1.66758
227.506 1.10803
227.660 0.809245
227.815 0.629251
228.123 0.428669
228.431 0.322053
228.739 0.256815
229.355 0.181721
229.972 0.140162
230.588 0.114073
231.820 0.0838444
233.053 0.0676914
234.285 0.0584553
236.751 0.0508661
239.216 0.0527473
241.681 0.0654473
242.913 0.0791523
244.146 0.103337
245.379 0.154708
245.687 0.180599
245.995 0.226464
246.149 0.270583
246.303 0.359459
246.380 0.448297
246.457 0.614878
246.496 0.759262
246.534 0.983011
246.573 1.34543
246.611 1.94162
246.656 2.97663
246.700 3.66816
246.745 2.98690
246.789 1.96181
246.823 1.42985
246.857 1.08910
246.925 0.726625
246.992 0.560750
247.060 0.476853
247.196 0.407963
247.331 0.392332
247.603 0.420200
247.874 0.493394
248.145 0.620103
248.416 0.865484
248.552 1.11379
248.687 1.64925
248.755 2.24016
248.789 2.74271
248.823 3.52544
248.857 4.84866
248.890 7.34193
248.907 9.49166
248.924 12.7542
248.941 17.9098
248.958 26.1250
248.979 41.2371
249.000 51.2441
249.021 41.2041
249.042 26.2147
249.055 19.4370
249.069 14.7805
249.095 9.31490
249.122 6.51221
249.148 4.94150
249.202 3.39194
249.255 2.72328
249.361 2.27688
249.468 2.27241
249.681 2.82905
249.893 4.11546
250.000 5.21780
250.106 6.87680
250.213 9.51984
250.319 14.0861
250.372 17.7312
250.426 22.9875
250.479 30.9680
250.532 43.9009
250.585 66.7879
250.612 85.3811
250.638 112.603
250.665 154.345
250.692 221.858
250.718 337.120
250.745 538.778
250.772 862.273
250.800 1078.00
250.828 862.123
250.855 538.615
250.882 337.548
250.908 222.393
250.935 154.834
250.961 113.016
250.988 85.7205
251.014 67.0655
251.067 44.1191
251.120 31.1130
251.173 23.0962
251.279 14.1404
251.385 9.53248
251.491 6.85786
251.597 5.17005
251.703 4.03760
251.914 2.66018
252.126 1.88642
252.338 1.40898
252.550 1.09383
252.973 0.716762
253.397 0.508495
253.821 0.381487
254.244 0.298421
255.092 0.200141
255.939 0.146722
256.786 0.114843
257.633 0.0947061
259.328 0.0733758
261.022 0.0673528
262.717 0.0792651
263.140 0.0892774
263.564 0.108942
263.776 0.128482
263.987 0.168655
264.093 0.210262
264.199 0.293773
264.252 0.372598
264.305 0.506783
264.358 0.756992
264.411 1.24999
264.456 1.92738
264.500 2.38002
264.545 1.93440
264.589 1.26383
264.624 0.903832
264.660 0.678513
264.730 0.444534
264.801 0.340655
264.872 0.290243
265.013 0.253811
265.154 0.253895
265.437 0.306698
265.719 0.431124
265.861 0.539140
266.002 0.703710
266.143 0.969807
266.284 1.43879
266.426 2.38242
266.496 3.25978
266.567 4.73426
266.638 7.50134
266.673 9.88337
266.708 13.5841
266.744 19.7437
266.779 30.9524
266.797 40.2267
266.814 53.7244
266.832 74.0644
266.850 104.350
266.862 133.737
266.875 167.041
266.900 208.601
266.925 166.760
266.951 104.329
266.967 75.1768
266.984 55.4138
267.017 32.6071
267.051 21.0458
267.084 14.6046
267.118 10.6789
267.151 8.13974
267.218 5.16496
267.285 3.56527
267.352 2.60995
267.486 1.57702
267.619 1.06011
267.753 0.765676
267.887 0.582050
268.021 0.460070
268.288 0.313009
268.556 0.231257
269.091 0.148390
269.626 0.109552
270.161 0.0885345
271.231 0.0684591
273.371 0.0589310
274.441 0.0629123
274.976 0.0723688
275.244 0.0909173
275.377 0.123671
275.444 0.166406
275.511 0.264507
275.600 0.456944
275.689 0.272371
275.740 0.194849
275.792 0.157171
275.895 0.131674
275.997 0.133112
276.100 0.151228
276.203 0.192223
276.306 0.283146
276.357 0.371695
276.408 0.523977
276.460 0.806702
276.511 1.35646
276.556 2.13041
276.600 2.64627
276.645 2.13063
276.689 1.35664
276.732 0.871045
276.775 0.594941
276.819 0.433236
276.862 0.333704
276.948 0.224603
277.034 0.170347
277.207 0.121251
277.379 0.100920
277.724 0.0857202
278.070 0.0814568
279.450 0.0883993
280.831 0.115993
281.176 0.132059
281.521 0.165062
281.693 0.201153
281.866 0.281238
281.952 0.366757
282.038 0.536199
282.082 0.690197
282.125 0.938456
282.168 1.36224
282.211 2.10441
282.256 3.29244
282.300 4.08312
282.345 3.29264
282.389 2.11012
282.430 1.39762
282.471 0.980528
282.512 0.731782
282.553 0.576508
282.635 0.404388
282.717 0.318777
282.881 0.242954
283.045 0.214243
283.372 0.200013
283.700 0.206415
284.356 0.252547
284.683 0.318974
284.847 0.427778
284.929 0.581169
284.970 0.734975
285.011 0.993761
285.100 1.70821
285.189 1.01469
285.246 0.699472
285.303 0.552567
285.416 0.444276
285.644 0.414795
286.098 0.490057
286.552 0.644390
287.007 0.922537
287.461 1.49223
287.689 2.03673
287.916 2.98993
288.143 4.90190
288.257 6.68097
288.370 9.68733
288.484 15.3649
288.541 20.3032
288.597 28.0527
288.654 41.1420
288.711 65.5016
288.739 86.0561
288.768 116.816
288.796 164.204
288.825 237.454
288.862 379.936
288.900 474.564
288.938 379.482
288.976 237.400
289.015 143.469
289.054 92.1847
289.093 63.1217
289.132 45.5732
289.172 34.3237
289.211 26.7379
289.289 17.5230
289.368 12.3803
289.446 9.24256
289.603 5.78225
289.760 4.02920
289.917 3.03164
290.230 2.02305
290.544 1.58658
290.858 1.40666
291.485 1.46423
292.112 2.05375
292.426 2.70596
292.739 3.88130
293.053 6.24890
293.210 8.43622
293.367 12.0986
293.524 18.9376
293.602 24.8241
293.680 33.9881
293.759 49.3300
293.798 61.1431
293.837 77.5954
293.876 101.252
293.916 136.421
293.955 190.202
293.994 272.717
294.047 435.471
294.100 544.544
294.127 513.020
294.153 436.967
294.206 275.936
294.256 177.856
294.306 122.634
294.357 91.7477
294.407 75.1971
294.457 68.4591
294.507 70.8397
294.557 85.3832
294.607 120.125
294.654 175.152
294.700 211.401
294.746 170.195
294.793 109.900
294.823 82.4471
294.852 63.2951
294.912 40.4689
294.971 28.3245
295.031 21.1709
295.150 13.4468
295.269 9.50398
295.388 7.16577
295.507 5.64326
295.745 3.81148
295.983 2.77367
296.221 2.12141
296.697 1.36967
297.174 0.965528
297.650 0.722344
298.602 0.456532
299.554 0.324596
300.506 0.258202
300.983 0.246341
301.459 0.262480
301.697 0.299116
301.935 0.400420
302.054 0.522026
302.173 0.788406
302.232 1.05525
302.292 1.53390
302.351 2.48430
302.381 3.31295
302.411 4.52642
302.455 7.12923
302.500 8.86548
302.545 7.13270
302.589 4.53264
302.640 2.70514
302.691 1.75912
302.741 1.24639
302.792 0.947677
302.893 0.639333
302.995 0.498961
303.197 0.398714
303.400 0.405138
303.603 0.503452
303.704 0.611371
303.805 0.798380
303.907 1.14742
303.957 1.44187
304.008 1.88583
304.059 2.59558
304.109 3.80411
304.160 6.03132
304.211 10.3135
304.255 16.4244
304.300 20.4999
304.345 16.4234
304.389 10.3098
304.419 7.44900
304.449 5.50423
304.509 3.27440
304.569 2.15117
304.628 1.52431
304.688 1.14350
304.748 0.896244
304.867 0.606412
304.987 0.449624
305.106 0.355401
305.345 0.252115
305.584 0.199302
305.823 0.168548
306.300 0.136313
306.778 0.123101
307.256 0.125440
307.495 0.138558
307.733 0.177625
307.853 0.225594
307.972 0.331911
308.032 0.439063
308.092 0.632021
308.151 1.01669
308.181 1.35312
308.211 1.84692
308.256 2.90402
308.300 3.60698
308.345 2.90122
308.389 1.84608
308.428 1.23970
308.466 0.872376
308.505 0.646822
308.543 0.502682
308.620 0.338574
308.697 0.253763
308.851 0.173946
309.004 0.138980
309.312 0.109832
309.620 0.0984188
310.850 0.0910131
311.465 0.0969439
312.081 0.113399
312.388 0.132753
312.696 0.178418
312.850 0.231512
313.003 0.351143
313.080 0.477570
313.157 0.721646
313.196 0.936495
313.234 1.27079
313.273 1.81616
313.311 2.71323
313.356 4.28080
313.400 5.32348
313.445 4.27953
313.489 2.71775
313.530 1.77624
313.571 1.22470
313.612 0.895461
313.653 0.689666
313.735 0.460900
313.817 0.346390
313.981 0.243346
314.145 0.202485
314.472 0.177703
314.800 0.180177
315.456 0.232162
315.620 0.264948
315.783 0.327594
315.865 0.388235
315.947 0.500871
316.029 0.752626
316.070 1.00719
316.111 1.43695
316.156 2.14816
316.200 2.62439
316.245 2.16074
316.289 1.46193
316.338 0.986397
316.386 0.737794
316.484 0.528719
316.581 0.458418
316.678 0.436245
317.068 0.492635
317.457 0.660571
317.846 0.978890
318.041 1.24417
318.235 1.64124
318.430 2.27324
318.625 3.36581
318.819 5.50172
318.917 7.42529
319.014 10.5572
319.111 16.1392
319.160 20.7126
319.209 27.4428
319.257 37.8849
319.306 54.9648
319.355 84.7322
319.379 107.555
319.403 137.937
319.427 176.556
319.452 220.696
319.500 275.865
319.548 220.658
319.597 137.892
319.636 93.0932
319.674 65.0073
319.713 47.1736
319.752 35.5147
319.829 21.9452
319.907 14.7989
319.984 10.6141
320.062 7.97397
320.217 4.96234
320.371 3.38168
320.526 2.45245
320.681 1.86088
320.836 1.46141
321.146 0.972227
321.456 0.695756
321.766 0.524400
322.075 0.410920
322.695 0.274693
323.315 0.199206
323.934 0.153119
324.554 0.123034
325.793 0.0880496
327.032 0.0714734
327.652 0.0691070
328.272 0.0753001
328.582 0.0879048
328.891 0.123690
329.046 0.168574
329.124 0.208741
329.201 0.273193
329.279 0.385615
329.356 0.604203
329.395 0.797854
329.434 1.10037
329.472 1.59435
329.511 2.41211
329.556 3.83253
329.600 4.77664
329.645 3.82926
329.689 2.41199
329.716 1.79816
329.743 1.36677
329.797 0.847526
329.851 0.573814
329.906 0.416502
329.960 0.319042
330.014 0.254898
330.122 0.178804
330.230 0.137167
330.338 0.111994
330.554 0.0842862
330.987 0.0618211
331.420 0.0529586
332.285 0.0462818
333.150 0.0449609
334.015 0.0472095
334.881 0.0556338
335.313 0.0661218
335.746 0.0912945
335.962 0.121179
336.070 0.147893
336.178 0.191537
336.287 0.270781
336.341 0.337230
336.395 0.437712
336.449 0.599827
336.503 0.881511
336.557 1.41544
336.611 2.48705
336.656 3.94553
336.700 4.91552
336.745 3.94448
336.789 2.49154
336.835 1.54179
336.880 1.01907
336.926 0.720932
336.972 0.541086
337.063 0.348369
337.154 0.255397
337.246 0.205084
337.337 0.175951
337.519 0.148485
337.885 0.145428
338.250 0.181220
338.615 0.272543
338.797 0.362934
338.980 0.520781
339.163 0.831009
339.254 1.11127
339.345 1.56781
339.436 2.38397
339.482 3.05410
339.528 4.04202
339.573 5.57895
339.619 8.10129
339.665 12.5064
339.710 20.4394
339.755 32.7033
339.800 40.8565
339.845 32.6697
339.890 20.4337
339.931 13.1343
339.972 8.82463
340.012 6.23382
340.053 4.60119
340.135 2.77628
340.216 1.84906
340.298 1.31952
340.380 0.990391
340.543 0.621136
340.706 0.430016
340.869 0.318845
341.195 0.201500
341.522 0.144484
341.848 0.112964
342.500 0.0827019
343.153 0.0728899
343.806 0.0793334
344.132 0.0954236
344.295 0.111931
344.458 0.141041
344.622 0.198190
344.703 0.249433
344.785 0.332020
344.866 0.477196
344.948 0.763885
344.989 1.02116
345.029 1.43063
345.070 2.11435
345.111 3.27387
345.156 5.21164
345.200 6.49968
345.245 5.20760
345.289 3.27458
345.323 2.26423
345.357 1.61563
345.391 1.19741
345.425 0.920100
345.494 0.592477
345.562 0.417296
345.630 0.313823
345.698 0.248193
345.834 0.173020
345.970 0.133446
346.107 0.110262
346.379 0.0858770
346.924 0.0685582
347.469 0.0644930
348.559 0.0696506
349.649 0.0877707
350.739 0.129281
351.284 0.170336
351.828 0.243822
352.101 0.304656
352.373 0.396072
352.646 0.542815
352.918 0.800768
353.191 1.31997
353.327 1.80342
353.463 2.62025
353.600 4.16262
353.668 5.50131
353.736 7.59815
353.804 11.1297
353.872 17.6722
353.906 23.1766
353.940 31.3520
353.974 43.9109
354.008 63.1364
354.031 80.8178
354.054 101.022
354.100 126.197
354.146 100.921
354.192 63.1209
354.223 45.4759
354.253 33.4924
354.314 19.6886
354.375 12.7117
354.436 8.82317
354.497 6.45835
354.558 4.92756
354.680 3.13695
354.802 2.17506
354.925 1.60133
355.169 0.982367
355.413 0.674466
355.657 0.500673
356.145 0.324728
356.634 0.246225
357.122 0.209890
358.098 0.200739
359.075 0.262588
359.563 0.338710
360.052 0.482366
360.296 0.603562
360.540 0.786815
360.784 1.08181
361.028 1.59942
361.273 2.63366
361.395 3.58759
361.517 5.17894
361.639 8.12725
361.700 10.6395
361.761 14.4874
361.822 20.7898
361.883 31.9398
361.944 53.6636
361.974 72.2193
362.005 99.0701
362.029 126.820
362.053 158.528
362.100 198.041
362.148 158.372
362.195 99.0425
362.231 68.2418
362.267 48.3979
362.303 35.5629
362.339 27.0302
362.412 16.9257
362.484 11.5095
362.556 8.30506
362.628 6.26943
362.772 3.93296
362.916 2.69811
363.061 1.96999
363.205 1.50511
363.349 1.19107
363.638 0.806566
363.926 0.590069
364.215 0.457279
364.503 0.371189
365.080 0.275226
365.657 0.241612
365.946 0.250803
366.234 0.303430
366.378 0.375895
366.523 0.546172
366.595 0.726989
366.667 1.07220
366.703 1.37109
366.739 1.82748
366.775 2.55334
366.811 3.71042
366.856 5.83623
366.900 7.24903
366.945 5.83199
366.989 3.71160
367.019 2.71513
367.049 2.04048
367.109 1.26552
367.168 0.876532
367.228 0.660721
367.347 0.446277
367.467 0.350074
367.705 0.273986
367.944 0.253047
368.421 0.271481
368.899 0.350534
369.376 0.538480
369.615 0.725153
369.853 1.05531
370.092 1.71805
370.211 2.33103
370.331 3.35531
370.450 5.25682
370.510 6.87840
370.569 9.36532
370.629 13.4462
370.689 20.6846
370.748 34.8781
370.778 47.0369
370.808 64.6887
370.831 82.8396
370.854 103.484
370.900 129.257
370.946 103.380
370.992 64.6711
371.024 46.2428
371.055 33.8426
371.086 25.4800
371.117 19.7186
371.180 12.6611
371.243 8.75604
371.305 6.39263
371.368 4.86775
371.493 3.08948
371.619 2.13654
371.744 1.56870
371.995 0.955528
372.245 0.649409
372.496 0.475062
372.997 0.294412
373.498 0.207822
373.999 0.160203
375.001 0.114239
376.004 0.0980021
377.006 0.101926
377.507 0.117107
378.008 0.160900
378.259 0.216898
378.384 0.268546
378.510 0.355031
378.635 0.516402
378.698 0.655318
378.760 0.870621
378.823 1.22951
378.886 1.88190
378.917 2.42018
378.948 3.20867
378.979 4.39129
379.011 6.16466
379.055 9.81670
379.100 12.2454
379.145 9.81054
379.189 6.16894
379.218 4.49937
379.248 3.35301
379.306 2.02321
379.364 1.34505
379.422 0.965272
379.480 0.733807
379.538 0.584019
379.655 0.409540
379.771 0.317122
379.887 0.263470
380.120 0.209817
380.585 0.184316
381.050 0.203896
381.515 0.263662
381.748 0.319184
381.980 0.408909
382.213 0.570297
382.329 0.707598
382.445 0.924090
382.562 1.30396
382.678 2.08690
382.736 2.84434
382.794 4.16913
382.852 6.73624
382.882 8.93351
382.911 12.1079
382.955 19.0651
383.000 23.7057
383.045 19.1432
383.090 12.2969
383.121 8.93293
383.153 6.72884
383.217 4.32780
383.281 3.23223
383.344 2.72359
383.471 2.51994
383.599 2.98638
383.726 4.25818
383.790 5.43727
383.853 7.30306
383.917 10.4412
383.981 16.1533
384.012 20.8534
384.044 27.7111
384.076 37.9393
384.108 53.1756
384.154 85.0042
384.200 106.163
384.246 84.9003
384.292 53.1227
384.327 36.6445
384.362 26.0239
384.397 19.1514
384.432 14.5805
384.502 9.15764
384.572 6.25266
384.642 4.53131
384.712 3.43609
384.852 2.17512
384.992 1.50657
385.132 1.11034
385.411 0.683850
385.691 0.470891
385.971 0.349438
386.530 0.223217
387.090 0.162624
387.650 0.129372
388.769 0.0974445
389.888 0.0854421
391.007 0.0827800
393.245 0.0953240
395.483 0.137355
396.602 0.181269
397.721 0.261206
398.280 0.328033
398.840 0.429262
399.399 0.593584
399.959 0.887567
400.239 1.13098
400.518 1.49651
400.798 2.08278
401.078 3.11073
401.358 5.16897
401.498 7.07427
401.637 10.2676
401.777 16.2268
401.847 21.3436
401.917 29.2460
401.987 42.3353
402.022 52.2791
402.057 65.8944
402.092 85.1624
402.127 113.022
402.162 154.402
402.197 215.395
402.248 344.515
402.300 430.548
402.326 405.222
402.352 344.462
402.403 215.335
402.439 153.348
402.474 111.827
402.510 83.9506
402.545 64.8151
402.616 41.4922
402.687 28.6112
402.758 20.8382
402.829 15.8319
402.971 10.0094
403.114 6.89345
403.256 5.04136
403.540 3.04613
403.824 2.05405
404.108 1.49260
404.392 1.14614
404.676 0.919163
405.244 0.654810
405.812 0.521272
406.948 0.436604
408.085 0.518719
408.653 0.649716
409.221 0.908852
409.505 1.13122
409.789 1.47016
410.073 2.01864
410.357 2.98554
410.641 4.92631
410.784 6.72415
410.926 9.73590
411.068 15.3482
411.139 20.1505
411.210 27.5606
411.281 39.7755
411.352 61.6825
411.387 79.4854
411.423 105.187
411.458 143.045
411.494 198.672
411.547 317.729
411.600 397.043
411.653 317.676
411.706 198.611
411.750 132.763
411.794 91.9774
411.838 66.3606
411.881 49.7449
411.969 30.5680
412.056 20.5380
412.144 14.7035
412.231 11.0312
412.406 6.85974
412.581 4.67721
412.756 3.39665
412.931 2.58246
413.106 2.03313
413.456 1.36117
413.806 0.981619
414.156 0.746662
414.506 0.591384
415.206 0.406160
415.906 0.305578
417.306 0.213344
418.706 0.195278
419.406 0.212322
420.106 0.260118
420.806 0.377034
421.156 0.496557
421.506 0.712807
421.856 1.15924
422.031 1.58361
422.206 2.31467
422.381 3.73325
422.469 5.00156
422.556 7.04950
422.644 10.6541
422.731 17.8071
422.775 24.2718
422.819 34.5999
422.863 51.9805
422.906 81.8436
422.930 104.826
422.953 130.978
423.000 163.640
423.047 130.850
423.094 81.8234
423.125 58.8231
423.156 43.2431
423.219 25.3539
423.282 16.3412
423.344 11.3279
423.407 8.28291
423.470 6.31333
423.595 4.01208
423.720 2.77472
423.845 2.03626
424.096 1.23785
424.347 0.838331
424.597 0.610450
424.848 0.468190
425.098 0.373403
425.599 0.258739
426.100 0.194561
427.102 0.129019
428.105 0.0986177
429.107 0.0847165
429.608 0.0836668
430.109 0.0918497
430.359 0.106239
430.610 0.145064
430.735 0.191912
430.860 0.295967
430.923 0.402053
430.986 0.595461
431.048 0.989763
431.080 1.34180
431.111 1.87027
431.156 2.95663
431.200 3.67881
431.245 2.95397
431.289 1.86992
431.335 1.16325
431.380 0.772221
431.426 0.548905
431.471 0.413292
431.562 0.266874
431.653 0.194820
431.835 0.129495
432.017 0.101805
432.381 0.0793216
432.745 0.0708269
433.472 0.0658884
434.200 0.0681420
434.928 0.0783243
435.292 0.0894023
435.655 0.109631
436.019 0.151514
436.201 0.191401
436.383 0.260357
436.565 0.395096
436.656 0.516655
436.747 0.714574
436.838 1.06839
436.883 1.35859
436.929 1.78636
436.974 2.45181
437.020 3.54706
437.065 5.46275
437.111 8.90876
437.155 14.2235
437.200 17.7673
437.245 14.2251
437.289 8.91089
437.334 5.48730
437.379 3.57738
437.424 2.47988
437.469 1.81063
437.514 1.37855
437.559 1.08565
437.649 0.728184
437.739 0.527493
437.829 0.404360
438.009 0.268000
438.189 0.198442
438.369 0.158505
438.729 0.117245
439.449 0.0882615
440.168 0.0808558
441.608 0.0855661
443.047 0.106171
444.487 0.151727
445.207 0.194993
445.926 0.270029
446.646 0.421035
447.006 0.564373
447.366 0.815034
447.726 1.32094
447.906 1.79662
448.086 2.61207
448.266 4.19131
448.356 5.60311
448.445 7.88184
448.535 11.9051
448.625 19.9103
448.670 27.1749
448.715 38.8679
448.760 58.6978
448.783 73.5921
448.805 92.9979
448.829 119.000
448.853 148.721
448.900 185.874
448.947 148.709
448.995 92.9872
449.032 63.0785
449.070 44.1974
449.108 32.1967
449.145 24.3263
449.220 15.1361
449.295 10.2778
449.370 7.43346
449.446 5.63646
449.596 3.59111
449.746 2.52309
449.896 1.90145
450.197 1.25638
450.497 0.963445
450.797 0.828183
451.398 0.801351
451.999 1.04858
452.300 1.34230
452.600 1.88203
452.900 2.98596
453.051 4.01886
453.201 5.76754
453.351 9.07483
453.426 11.9553
453.501 16.4825
453.576 24.1467
453.651 38.4635
453.689 50.6115
453.726 68.8134
453.764 97.0710
453.802 140.882
453.826 180.337
453.851 225.222
453.900 281.261
453.925 264.654
453.949 225.028
453.999 140.883
454.041 92.7389
454.083 63.5379
454.125 45.5489
454.167 34.0058
454.252 20.8683
454.336 14.1025
454.421 10.2061
454.505 7.78345
454.674 5.08368
454.843 3.73327
455.012 3.01185
455.350 2.50672
455.687 2.86777
455.856 3.48416
456.025 4.66899
456.194 7.06677
456.278 9.22422
456.363 12.6904
456.447 18.7191
456.532 30.3693
456.574 40.5841
456.616 56.4536
456.658 82.1064
456.700 124.061
456.750 198.294
456.800 247.790
456.850 198.246
456.900 123.986
456.949 76.7573
456.998 50.1615
457.048 34.7631
457.097 25.3359
457.146 19.2085
457.195 15.0478
457.294 9.93764
457.392 7.05723
457.491 5.28069
457.688 3.29690
457.885 2.27189
458.082 1.67279
458.476 1.03285
458.870 0.713219
459.264 0.529293
460.052 0.334298
460.840 0.237306
461.628 0.182028
463.204 0.126722
464.780 0.108497
465.568 0.110930
466.356 0.125522
467.144 0.166191
467.538 0.209229
467.932 0.288186
468.326 0.453060
468.523 0.611198
468.720 0.886069
468.917 1.42673
469.016 1.91716
469.114 2.72145
469.213 4.17033
469.262 5.37047
469.311 7.15581
469.360 9.96672
469.410 14.6598
469.459 23.0799
469.508 38.7096
469.554 61.9337
469.600 77.3708
469.646 61.8735
469.692 38.7017
469.722 28.0916
469.752 20.8210
469.811 12.3441
469.871 8.02061
469.931 5.59301
469.990 4.10903
470.050 3.14362
470.169 2.01237
470.289 1.40199
470.408 1.03732
470.647 0.642558
470.885 0.445802
471.124 0.334698
471.601 0.223834
472.079 0.180983
472.556 0.185116
472.795 0.218937
472.914 0.255293
473.034 0.319334
473.153 0.442071
473.213 0.548405
473.272 0.713052
473.332 0.985922
473.392 1.47578
473.451 2.45251
473.481 3.30252
473.511 4.55252
473.555 7.22610
473.600 9.00828
473.645 7.22589
473.689 4.55160
473.719 3.29753
473.749 2.44799
473.809 1.47115
473.868 0.979925
473.928 0.706268
473.988 0.540383
474.047 0.432986
474.167 0.307859
474.286 0.241177
474.406 0.202060
474.644 0.162104
475.122 0.142000
475.599 0.159157
476.077 0.220130
476.316 0.284523
476.555 0.400424
476.793 0.635334
476.913 0.853494
477.032 1.21943
477.152 1.90050
477.211 2.48297
477.271 3.38065
477.331 4.85754
477.390 7.49840
477.450 12.7177
477.480 17.2286
477.510 23.8255
477.555 38.0868
477.600 47.5894
477.645 38.0826
477.690 23.8200
477.730 15.4785
477.770 10.4954
477.810 7.46301
477.850 5.53461
477.930 3.35795
478.010 2.24443
478.090 1.60432
478.170 1.20550
478.329 0.755805
478.489 0.522215
478.649 0.385714
478.968 0.240737
479.287 0.169308
479.607 0.128865
480.246 0.0870204
480.884 0.0668968
481.523 0.0557883
482.801 0.0452132
484.078 0.0422805
485.356 0.0462985
485.994 0.0543200
486.633 0.0770488
486.952 0.106838
487.112 0.134939
487.272 0.183069
487.432 0.275827
487.511 0.358312
487.591 0.490533
487.671 0.721594
487.751 1.17351
487.791 1.57556
487.831 2.20993
487.871 3.25712
487.911 5.01420
487.955 8.00685
488.000 9.99704
488.045 8.00059
488.090 5.01541
488.133 3.14963
488.176 2.08591
488.219 1.46147
488.262 1.07636
488.348 0.653179
488.435 0.442070
488.521 0.322693
488.607 0.249114
488.780 0.167322
488.952 0.125500
489.125 0.101504
489.470 0.0768818
490.160 0.0604755
490.850 0.0582617
491.540 0.0634050
492.230 0.0802326
492.576 0.101193
492.921 0.152793
493.093 0.214732
493.180 0.269782
493.266 0.358448
493.352 0.514999
493.438 0.827359
493.481 1.11250
493.525 1.57276
493.568 2.35872
493.611 3.73451
493.655 5.94097
493.700 7.40846
493.745 5.93739
493.789 3.73748
493.823 2.59846
493.857 1.86396
493.891 1.38857
493.924 1.07249
493.992 0.698213
494.059 0.497920
494.127 0.379946
494.194 0.305288
494.329 0.220690
494.464 0.177357
494.599 0.153118
494.869 0.130785
495.409 0.126814
495.949 0.149006
496.489 0.203431
496.759 0.255709
497.029 0.346062
497.299 0.524589
497.434 0.689099
497.569 0.965429
497.704 1.48453
497.772 1.93446
497.839 2.63875
497.907 3.82494
497.974 6.02442
498.008 7.87727
498.042 10.6330
498.076 14.8742
498.109 21.3803
498.155 34.1268
498.200 42.6202
498.245 34.1272
498.291 21.3835
498.344 12.1760
498.398 7.52510
498.451 5.04028
498.504 3.60030
498.558 2.70264
498.611 2.11191
498.718 1.41110
498.825 1.03043
498.932 0.803653
499.145 0.563264
499.359 0.451626
499.573 0.398044
500.000 0.374616
500.453 0.424351
500.905 0.565142
501.132 0.708504
501.358 0.992066
501.471 1.27519
501.584 1.83118
501.641 2.35342
501.698 3.25088
501.754 4.95622
501.811 8.43949
501.855 13.0215
501.900 16.0931
501.945 13.1113
501.989 8.61897
502.040 5.50868
502.090 3.92319
502.140 3.09190
502.190 2.64106
502.291 2.27101
502.391 2.23644
502.592 2.66854
502.793 3.72455
502.994 5.92404
503.095 7.92820
503.195 11.1903
503.296 16.9925
503.346 21.7264
503.396 28.6616
503.447 39.3523
503.497 56.6825
503.547 86.4217
503.572 108.993
503.597 138.780
503.649 222.011
503.700 277.317
503.752 221.808
503.803 138.742
503.839 98.2664
503.875 71.2788
503.911 53.2905
503.947 41.0430
504.019 26.1753
504.091 18.0102
504.164 13.1070
504.236 9.95234
504.380 6.29427
504.524 4.34406
504.668 3.19036
504.957 1.96520
505.245 1.39711
505.534 1.18557
505.678 1.23581
505.822 1.52958
505.894 1.89925
505.966 2.64348
506.002 3.30120
506.038 4.31355
506.074 5.93041
506.110 8.51133
506.155 13.2794
506.200 16.4531
506.245 13.2466
506.290 8.44492
506.342 4.98421
506.395 3.22177
506.447 2.27050
506.500 1.71219
506.605 1.12177
506.710 0.830439
506.920 0.554430
507.130 0.423999
507.550 0.295633
507.970 0.229627
508.810 0.160503
509.650 0.126042
510.491 0.108649
511.331 0.104501
511.751 0.109356
512.171 0.125246
512.381 0.144260
512.591 0.187076
512.696 0.233475
512.801 0.328603
512.853 0.419100
512.906 0.573881
512.958 0.861818
513.011 1.42834
513.056 2.21391
513.100 2.73725
513.145 2.21732
513.189 1.43880
513.222 1.04148
513.255 0.784933
513.322 0.507625
513.388 0.378508
513.454 0.312216
513.587 0.256428
513.719 0.243422
513.984 0.271594
514.249 0.358670
514.514 0.551493
514.647 0.734721
514.779 1.04600
514.912 1.63487
514.978 2.14630
515.045 2.94523
515.111 4.29010
515.177 6.76899
515.210 8.84977
515.243 11.9295
515.276 16.6227
515.310 23.7868
515.355 38.0308
515.400 47.4925
515.445 37.9934
515.491 23.7817
515.529 15.6590
515.568 10.7282
515.607 7.68750
515.645 5.73444
515.723 3.50825
515.800 2.35894
515.878 1.69444
515.955 1.27886
516.110 0.808681
516.265 0.563822
516.420 0.420634
516.730 0.268842
517.039 0.194586
517.349 0.153199
517.969 0.112302
518.588 0.0954520
519.208 0.0896534
520.447 0.0981547
521.686 0.137996
522.306 0.181845
522.925 0.263179
523.235 0.331658
523.545 0.435503
523.855 0.603501
524.164 0.900971
524.319 1.14416
524.474 1.50438
524.629 2.07034
524.784 3.03237
524.939 4.86638
525.016 6.47682
525.094 9.02313
525.171 13.3839
525.248 21.6443
525.287 28.7494
525.326 39.5843
525.365 56.6833
525.403 83.8667
525.427 107.347
525.452 134.184
525.500 167.731
525.548 134.171
525.597 83.8502
525.631 59.0541
525.666 42.6359
525.700 31.7590
525.735 24.3724
525.804 15.4707
525.873 10.6144
525.942 7.70355
526.011 5.83776
526.149 3.67634
526.287 2.52487
526.424 1.84240
526.562 1.40529
526.700 1.10893
526.976 0.744972
527.252 0.539445
527.528 0.413094
527.804 0.331268
528.355 0.242162
528.907 0.222668
529.183 0.252083
529.321 0.289644
529.459 0.359921
529.597 0.500547
529.666 0.626143
529.735 0.825546
529.804 1.16662
529.872 1.80738
529.907 2.35358
529.941 3.17748
529.976 4.45892
530.010 6.45382
530.055 10.2770
530.100 12.8193
530.145 10.2658
530.190 6.44905
530.224 4.44723
530.259 3.16807
530.293 2.34374
530.327 1.79587
530.396 1.14979
530.465 0.803899
530.534 0.599028
530.603 0.468525
530.740 0.317706
530.878 0.236834
531.016 0.188193
531.291 0.134203
531.566 0.105703
531.842 0.0882942
532.392 0.0681137
533.493 0.0492176
534.594 0.0401512
536.797 0.0320929
538.999 0.0303779
541.201 0.0341102
542.302 0.0394412
543.404 0.0498331
544.505 0.0722704
545.055 0.0943407
545.606 0.133837
546.156 0.215642
546.432 0.294445
546.707 0.432899
546.982 0.711472
547.120 0.971100
547.258 1.40966
547.395 2.23846
547.464 2.95856
547.533 4.08781
547.602 5.99305
547.670 9.53250
547.705 12.5136
547.739 16.9668
547.774 23.8114
547.808 34.3637
547.854 54.9597
547.900 68.6886
547.946 54.9559
547.992 34.3597
548.039 20.9055
548.086 13.4829
548.134 9.25437
548.181 6.69604
548.228 5.04754
548.275 3.93587
548.369 2.58084
548.464 1.82323
548.558 1.36037
548.747 0.849932
548.935 0.592344
549.124 0.447651
549.501 0.311119
549.879 0.280976
550.067 0.301648
550.256 0.361053
550.445 0.499806
550.539 0.632485
550.633 0.854191
550.728 1.25791
550.775 1.59287
550.822 2.09086
550.869 2.87310
550.916 4.17290
550.963 6.48738
551.010 10.7377
551.055 17.1300
551.100 21.3910
551.145 17.1283
551.190 10.7333
551.223 7.50355
551.255 5.39146
551.288 4.00736
551.321 3.07541
551.387 1.96196
551.453 1.35861
551.519 0.999161
551.584 0.768936
551.716 0.502536
551.848 0.360224
551.979 0.275239
552.242 0.182668
552.506 0.135520
552.769 0.108027
553.295 0.0785202
553.821 0.0637738
554.348 0.0555243
555.400 0.0481739
556.453 0.0478068
557.506 0.0553124
558.032 0.0662823
558.558 0.0945464
558.821 0.129778
558.953 0.162168
559.084 0.216420
559.216 0.318163
559.282 0.406180
559.348 0.543719
559.413 0.774836
559.479 1.20197
559.512 1.55998
559.545 2.09235
559.578 2.90597
559.611 4.14756
559.655 6.60934
559.700 8.24638
559.745 6.60498
559.789 4.15020
559.832 2.62935
559.874 1.75682
559.917 1.24307
559.959 0.924341
560.045 0.573433
560.130 0.398485
560.215 0.300007
560.300 0.239931
560.470 0.174771
560.810 0.129258
561.150 0.125417
561.490 0.149870
561.660 0.178978
561.830 0.231573
562.000 0.335784
562.086 0.429705
562.171 0.581742
562.256 0.850727
562.341 1.38675
562.383 1.87306
562.426 2.65610
562.468 3.98462
562.511 6.29049
562.555 10.0243
562.600 12.5130
562.645 10.0254
562.689 6.29213
562.743 3.57662
562.796 2.21153
562.849 1.48604
562.903 1.06702
562.956 0.806715
563.009 0.635209
563.116 0.431775
563.222 0.321124
563.329 0.254793
563.542 0.183470
563.755 0.148824
563.969 0.130305
564.395 0.114593
565.248 0.115609
566.100 0.136631
566.953 0.177371
567.805 0.253115
568.232 0.317967
568.658 0.425077
568.871 0.515553
569.084 0.675840
569.191 0.824984
569.298 1.10478
569.351 1.35887
569.404 1.78391
569.458 2.56468
569.511 4.09185
569.555 6.18282
569.600 7.58244
569.645 6.23120
569.689 4.19839
569.722 3.17584
569.755 2.51869
569.821 1.82223
569.886 1.51907
569.952 1.38604
570.084 1.33903
570.215 1.43029
570.478 1.86721
570.741 2.72670
571.003 4.47596
571.135 6.08893
571.266 8.77124
571.398 13.6995
571.463 17.8592
571.529 24.1851
571.595 34.4010
571.660 52.1777
571.693 66.2229
571.726 85.8864
571.759 113.884
571.792 153.524
571.846 245.544
571.900 306.852
571.954 245.514
572.008 153.488
572.072 87.5103
572.135 53.8876
572.198 35.8394
572.262 25.3556
572.325 18.7973
572.388 14.4590
572.515 9.29112
572.641 6.45817
572.768 4.74729
573.021 2.87534
573.274 1.93038
573.527 1.38886
573.780 1.05052
574.033 0.825501
574.539 0.555428
575.046 0.407599
575.552 0.320541
576.058 0.268314
577.070 0.229467
577.577 0.240633
578.083 0.284249
578.589 0.397431
578.842 0.513944
579.095 0.723423
579.348 1.14882
579.475 1.54528
579.601 2.21199
579.728 3.46007
579.791 4.53326
579.855 6.19306
579.918 8.94826
579.981 13.9205
580.013 18.0066
580.044 23.9321
580.076 32.7366
580.108 45.7999
580.154 73.2649
580.200 91.5194
580.246 73.1945
580.293 45.7904
580.327 31.8941
580.361 22.8458
580.395 16.9059
580.429 12.9226
580.497 8.16187
580.565 5.58713
580.633 4.05640
580.701 3.07824
580.837 1.95078
580.974 1.35256
581.110 0.998251
581.382 0.617632
581.654 0.428208
581.927 0.320524
582.471 0.209124
583.016 0.156282
583.561 0.128272
584.650 0.106809
585.740 0.115817
586.284 0.135875
586.829 0.177617
587.374 0.270268
587.646 0.361848
587.919 0.524504
588.191 0.853987
588.327 1.16176
588.463 1.68198
588.599 2.66466
588.668 3.51823
588.736 4.85526
588.804 7.10678
588.872 11.2766
588.906 14.7831
588.940 19.9887
588.974 27.9511
589.008 40.1586
589.054 64.2616
589.100 80.2830
589.146 64.2003
589.192 40.1516
589.243 23.6497
589.293 14.9018
589.344 10.0669
589.394 7.20260
589.445 5.38457
589.495 4.17165
589.596 2.70891
589.697 1.89896
589.798 1.40666
590.000 0.864687
590.201 0.589125
590.403 0.430456
590.807 0.264113
591.211 0.183244
591.614 0.137913
592.422 0.0915991
593.229 0.0697892
594.036 0.0581234
595.651 0.0480711
597.266 0.0473776
598.880 0.0569524
599.688 0.0715637
600.092 0.0857917
600.495 0.110929
600.899 0.162171
601.101 0.210837
601.303 0.295089
601.504 0.460871
601.605 0.611538
601.706 0.859521
601.807 1.30903
601.858 1.68388
601.908 2.24541
601.959 3.13798
602.009 4.64880
602.059 7.41357
602.110 12.6838
602.155 20.2729
602.200 25.3350
602.245 20.2747
602.290 12.6864
602.320 9.17235
602.350 6.77244
602.409 4.00587
602.469 2.60349
602.528 1.82049
602.588 1.34373
602.648 1.03489
602.767 0.673662
602.886 0.479410
603.005 0.363655
603.243 0.239126
603.481 0.177641
603.719 0.143389
604.195 0.109870
605.148 0.0916622
606.101 0.0955316
607.053 0.112184
608.006 0.146747
608.482 0.178849
608.958 0.240742
609.196 0.304683
609.435 0.444418
609.554 0.597539
609.673 0.920550
609.732 1.23954
609.792 1.80674
609.851 2.92730
609.881 3.90182
609.911 5.32688
609.955 8.38752
610.000 10.4233
610.045 8.39050
610.089 5.34700
610.120 3.89321
610.150 2.91832
610.211 1.81402
610.272 1.26834
610.333 0.970181
610.455 0.683515
610.577 0.564102
610.821 0.491426
611.065 0.501237
611.554 0.632245
612.042 0.918484
612.286 1.16227
612.530 1.52983
612.774 2.11812
613.018 3.14327
613.262 5.17072
613.384 7.02030
613.506 10.0743
613.628 15.6344
613.689 20.2855
613.750 27.2961
613.811 38.4809
613.872 57.6066
613.902 72.4376
613.933 92.9512
613.963 121.658
613.994 161.558
614.047 258.579
614.100 323.102
614.127 304.049
614.153 258.358
614.206 161.529
614.248 110.246
614.289 77.5951
614.331 56.6904
614.372 42.8718
614.455 26.6762
614.537 18.0763
614.620 13.0147
614.703 9.80704
614.869 6.14267
615.034 4.21474
615.200 3.08250
615.531 1.88024
615.862 1.29675
616.193 0.979938
616.524 0.800335
616.855 0.704102
617.517 0.693818
617.848 0.794607
618.179 1.02638
618.510 1.54879
618.676 2.05722
618.841 2.93716
619.007 4.64026
619.090 6.15188
619.172 8.56611
619.255 12.7565
619.338 20.8572
619.379 27.9828
619.421 39.0848
619.462 57.1013
619.503 86.6136
619.528 110.843
619.552 138.528
619.600 173.026
619.648 138.397
619.697 86.5905
619.744 53.9760
619.791 35.4362
619.838 24.6243
619.885 17.9606
619.932 13.6248
619.979 10.6681
620.074 7.03411
620.168 4.98299
620.262 3.71767
620.450 2.30612
620.639 1.57890
620.827 1.15556
621.204 0.706417
621.581 0.484218
621.957 0.357433
622.711 0.224050
623.464 0.157809
624.218 0.119509
625.725 0.0784000
627.232 0.0575670
628.739 0.0455282
631.753 0.0334684
634.767 0.0298694
637.781 0.0346062
639.288 0.0442988
640.041 0.0541433
640.795 0.0717819
641.548 0.108076
641.925 0.142901
642.302 0.204145
642.679 0.328407
642.867 0.445818
643.055 0.647961
643.244 1.04242
643.338 1.39802
643.432 1.97814
643.526 3.01597
643.573 3.86891
643.621 5.13228
643.668 7.10040
643.715 10.3544
643.762 16.0833
643.809 26.4779
643.854 42.3394
643.900 52.9148
643.946 42.3382
643.991 26.4780
644.038 16.0534
644.086 10.3326
644.133 7.08689
644.180 5.12908
644.227 3.87039
644.274 3.02318
644.369 1.99284
644.463 1.41912
644.557 1.06953
644.746 0.687318
644.934 0.498872
645.123 0.398094
645.500 0.322831
645.877 0.357651
646.066 0.428009
646.255 0.567477
646.443 0.857068
646.537 1.12399
646.632 1.56337
646.726 2.35394
646.773 3.00629
646.820 3.97191
646.868 5.48136
646.915 7.97466
646.962 12.3797
647.009 20.3908
647.055 32.6051
647.100 40.7269
647.146 32.5721
647.191 20.3836
647.221 14.8414
647.250 11.0217
647.309 6.56906
647.367 4.28848
647.426 3.00248
647.485 2.21620
647.543 1.70368
647.661 1.10133
647.778 0.775422
647.896 0.580153
648.131 0.367860
648.365 0.261162
648.600 0.200311
649.070 0.137885
649.540 0.109710
650.009 0.0968913
650.949 0.0962112
651.888 0.127135
652.358 0.164156
652.827 0.233866
653.062 0.292698
653.297 0.381674
653.532 0.524904
653.767 0.776088
654.002 1.27727
654.119 1.73840
654.236 2.50653
654.354 3.92323
654.413 5.12419
654.471 6.95884
654.530 9.94072
654.589 15.1785
654.647 25.2530
654.677 33.7695
654.706 45.9271
654.753 73.4663
654.800 91.8222
654.847 73.4604
654.894 45.9198
654.931 31.1579
654.968 21.8467
655.006 15.9026
655.043 12.0013
655.117 7.44181
655.191 5.03119
655.265 3.61584
655.340 2.72138
655.488 1.69921
655.637 1.16153
655.785 0.845316
655.934 0.643808
656.082 0.507619
656.379 0.340666
656.676 0.246183
656.973 0.187532
657.270 0.148659
657.865 0.101922
658.459 0.0759825
659.647 0.0498153
660.835 0.0378246
662.023 0.0317843
664.400 0.0281587
666.776 0.0327554
667.964 0.0397533
669.152 0.0536325
670.340 0.0841423
670.935 0.114564
671.529 0.169579
671.826 0.215455
672.123 0.284705
672.420 0.396433
672.717 0.593806
672.865 0.754982
673.014 0.993285
673.162 1.36710
673.311 2.00172
673.459 3.20722
673.534 4.26239
673.608 5.92500
673.682 8.75860
673.756 14.0854
673.794 18.6463
673.831 25.5333
673.868 36.2954
673.905 53.2075
673.929 68.1159
673.953 85.1513
674.000 106.382
674.048 85.0731
674.095 53.1996
674.130 36.9464
674.166 26.3939
674.201 19.5012
674.236 14.8725
674.306 9.35921
674.377 6.38230
674.447 4.61250
674.518 3.48449
674.659 2.18556
674.799 1.49687
674.940 1.08988
675.081 0.829557
675.222 0.653401
675.504 0.437119
675.785 0.314650
676.067 0.238783
676.349 0.188666
676.912 0.129000
677.476 0.0967297
678.039 0.0780614
678.602 0.0672632
679.729 0.0611607
680.293 0.0659788
680.856 0.0798176
681.419 0.113647
681.701 0.148049
681.983 0.209875
682.264 0.336133
682.405 0.454790
682.546 0.656380
682.687 1.03988
682.757 1.37511
682.828 1.90388
682.898 2.80495
682.969 4.49792
683.004 5.94188
683.039 8.12553
683.074 11.5347
683.110 16.8869
683.155 27.0277
683.200 33.7727
683.245 27.0053
683.291 16.8886
683.334 10.5435
683.378 6.93617
683.422 4.82697
683.466 3.52448
683.510 2.67420
683.554 2.09534
683.641 1.38312
683.729 0.980428
683.816 0.732282
683.992 0.455428
684.167 0.313049
684.342 0.230402
684.693 0.143212
685.044 0.100595
685.394 0.0766630
686.095 0.0523039
686.796 0.0410935
687.498 0.0354969
688.900 0.0324842
690.302 0.0377749
691.003 0.0452684
691.705 0.0598217
692.406 0.0912158
692.756 0.122041
693.107 0.176936
693.457 0.289326
693.633 0.395876
693.808 0.579427
693.983 0.936252
694.071 1.25642
694.159 1.77457
694.246 2.69260
694.290 3.43767
694.334 4.52837
694.378 6.20061
694.422 8.90476
694.465 13.5201
694.509 21.5914
694.555 34.5466
694.600 43.1564
694.646 34.5142
694.691 21.5889
694.725 14.9885
694.758 10.7069
694.792 7.90531
694.826 6.03155
694.893 3.79820
694.961 2.59374
695.028 1.87908
695.096 1.42314
695.231 0.898633
695.366 0.621124
695.501 0.457321
695.771 0.282565
696.041 0.197020
696.311 0.149890
696.851 0.106261
697.391 0.0970468
697.931 0.123399
698.201 0.169610
698.336 0.214916
698.470 0.292905
698.605 0.441951
698.673 0.572221
698.740 0.777119
698.808 1.12377
698.875 1.76968
698.909 2.31608
698.943 3.13172
698.977 4.38803
699.010 6.32959
699.055 10.1110
699.100 12.6256
699.145 10.1022
699.190 6.32959
699.233 3.97563
699.276 2.63189
699.319 1.84221
699.362 1.35477
699.449 0.818615
699.535 0.550797
699.621 0.399150
699.707 0.305630
699.880 0.201284
700.052 0.147758
700.225 0.116915
700.570 0.0851969
701.260 0.0648559
701.950 0.0653851
702.640 0.0815328
702.985 0.0995636
703.330 0.131973
703.675 0.197472
703.848 0.258696
704.020 0.363092
704.193 0.564156
704.279 0.743541
704.365 1.03283
704.451 1.54372
704.538 2.56209
704.581 3.49017
704.624 4.98529
704.667 7.53107
704.710 11.9708
704.755 19.1261
704.800 23.8841
704.845 19.1134
704.890 11.9785
704.934 7.46520
704.978 4.91564
705.022 3.43035
705.066 2.51974
705.154 1.52592
705.242 1.03477
705.330 0.760237
705.418 0.593961
705.594 0.416248
705.771 0.335796
705.947 0.302193
706.299 0.316366
706.651 0.439556
706.827 0.574975
707.003 0.817141
707.179 1.29596
707.268 1.72787
707.356 2.42777
707.444 3.66741
707.532 6.14087
707.576 8.39372
707.620 12.0187
707.664 18.1780
707.708 28.8885
707.754 46.2247
707.800 57.7500
707.846 46.1801
707.892 28.8819
707.939 17.7745
707.985 11.5590
708.031 7.97850
708.077 5.79490
708.123 4.37944
708.169 3.42062
708.262 2.24599
708.354 1.58546
708.446 1.17979
708.631 0.728653
708.816 0.496957
709.000 0.362601
709.185 0.277708
709.370 0.220698
709.739 0.151149
710.108 0.111924
710.847 0.0716158
711.585 0.0525688
712.324 0.0424155
713.801 0.0339999
715.278 0.0346860
716.017 0.0388474
716.756 0.0478803
717.494 0.0680668
717.863 0.0880553
718.233 0.123757
718.602 0.197009
718.787 0.266660
718.971 0.386971
719.156 0.622286
719.248 0.834473
719.341 1.18055
719.433 1.79910
719.479 2.30745
719.525 3.05769
719.571 4.22662
719.618 6.14933
719.664 9.52765
719.710 15.6279
719.755 24.9933
719.800 31.2384
719.845 24.9951
719.890 15.6303
719.922 11.0089
719.955 7.95073
719.987 5.92588
720.019 4.55140
720.083 2.89584
720.148 1.99215
720.212 1.45170
720.277 1.10499
720.405 0.704302
720.534 0.491104
720.663 0.365021
720.920 0.230232
721.178 0.164410
721.435 0.128411
721.950 0.0961353
722.465 0.0915458
722.980 0.116857
723.238 0.157492
723.495 0.262864
723.624 0.388188
723.689 0.496716
723.753 0.665713
723.817 0.948934
723.882 1.46865
723.914 1.90088
723.946 2.53871
723.978 3.50403
724.010 4.96064
724.055 7.90992
724.100 9.87078
724.145 7.90398
724.190 4.96243
724.217 3.68044
724.245 2.77956
724.300 1.70298
724.355 1.13867
724.410 0.815831
724.465 0.616687
724.520 0.486232
724.630 0.332648
724.740 0.250105
724.850 0.201452
725.070 0.151343
725.510 0.123355
725.950 0.135422
726.390 0.186474
726.610 0.240254
726.830 0.336157
727.050 0.528132
727.160 0.704608
727.270 0.997864
727.380 1.53663
727.435 1.99152
727.490 2.68368
727.545 3.80246
727.600 5.75204
727.655 9.45746
727.682 12.5479
727.710 16.9345
727.755 27.0786
727.800 33.8218
727.845 27.0568
727.890 16.9379
727.932 10.8293
727.973 7.25683
728.015 5.12023
728.056 3.77899
728.140 2.28431
728.223 1.52903
728.306 1.09859
728.389 0.832231
728.555 0.534752
728.721 0.382447
728.887 0.295412
729.219 0.207811
729.551 0.171352
729.883 0.158713
730.547 0.176022
730.880 0.205849
731.212 0.257035
731.544 0.344700
731.876 0.504511
732.042 0.636824
732.208 0.834194
732.374 1.14639
732.540 1.68119
732.706 2.71131
732.789 3.62396
732.872 5.08402
732.955 7.62322
733.038 12.5506
733.080 16.8969
733.121 23.6947
733.163 34.7841
733.204 53.1227
733.228 68.0373
733.252 85.0057
733.300 106.194
733.348 84.9282
733.396 53.1146
733.433 36.1379
733.471 25.3924
733.508 18.5128
733.546 13.9871
733.621 8.68588
733.696 5.87685
733.771 4.22523
733.846 3.18039
733.996 1.98522
734.146 1.35625
734.296 0.985788
734.447 0.749599
734.597 0.589904
734.897 0.394033
735.197 0.283102
735.497 0.214206
735.798 0.168484
736.398 0.113426
736.998 0.0827683
737.599 0.0639403
738.199 0.0515556
739.400 0.0368171
740.601 0.0287980
743.003 0.0212650
745.405 0.0191160
747.807 0.0216464
749.007 0.0269934
750.208 0.0426816
750.809 0.0640027
751.109 0.0847336
751.409 0.121446
751.710 0.196030
751.860 0.266125
752.010 0.385720
752.160 0.614690
752.235 0.816796
752.310 1.13810
752.385 1.69281
752.460 2.75677
752.498 3.68702
752.535 5.12139
752.573 7.42436
752.610 11.1610
752.655 17.8595
752.700 22.3133
752.745 17.8447
752.790 11.1624
752.818 8.18512
752.846 6.11941
752.903 3.67613
752.959 2.40860
753.016 1.68797
753.072 1.24500
753.128 0.955214
753.241 0.613586
753.354 0.428346
753.467 0.317310
753.693 0.196712
753.918 0.136249
754.144 0.101826
754.595 0.0663326
755.498 0.0408503
756.400 0.0336892
757.303 0.0343049
758.205 0.0453065
758.657 0.0619475
759.108 0.106909
759.334 0.164175
759.446 0.216900
759.559 0.304787
759.672 0.467051
759.728 0.604763
759.785 0.815394
759.841 1.15832
759.898 1.76219
759.954 2.92819
759.982 3.91549
760.010 5.33404
760.055 8.52154
760.100 10.6465
760.145 8.52207
760.190 5.33474
760.243 3.01139
760.297 1.84611
760.350 1.22775
760.404 0.871407
760.458 0.649606
760.511 0.503686
760.618 0.330198
760.725 0.235541
760.832 0.178497
761.047 0.116341
761.475 0.0673991
761.903 0.0492695
762.760 0.0368013
763.617 0.0338921
765.331 0.0370324
767.045 0.0483746
768.758 0.0743161
769.615 0.100042
770.472 0.146331
770.900 0.184879
771.329 0.243145
771.757 0.337472
772.186 0.505473
772.400 0.643909
772.614 0.850643
772.828 1.17947
773.043 1.74931
773.257 2.86763
773.364 3.88065
773.471 5.54012
773.578 8.52533
773.632 10.9945
773.685 14.6634
773.739 20.4288
773.792 30.0329
773.846 47.2014
773.873 60.7048
773.899 78.9315
773.925 101.057
773.950 126.346
774.000 157.879
774.050 126.237
774.101 78.9207
774.137 55.3142
774.173 39.8124
774.210 29.5633
774.246 22.6489
774.319 14.3360
774.391 9.81849
774.464 7.11811
774.537 5.38837
774.682 3.39149
774.828 2.32951
774.973 1.70079
775.263 1.02589
775.554 0.691344
775.845 0.502309
776.136 0.385722
776.426 0.309299
777.008 0.220001
777.589 0.174286
778.751 0.142236
779.914 0.160451
780.496 0.194321
781.077 0.262258
781.658 0.409802
781.949 0.554129
782.240 0.809158
782.530 1.32388
782.676 1.80369
782.821 2.61476
782.966 4.14681
783.039 5.47810
783.112 7.56101
783.184 11.0753
783.257 17.5802
783.293 23.0623
783.330 31.2126
783.366 43.7001
783.402 62.8822
783.427 80.4935
783.451 100.620
783.500 125.711
783.549 100.532
783.598 62.8752
783.644 39.7328
783.690 26.3715
783.736 18.4644
783.782 13.5389
783.875 8.09013
783.967 5.35440
784.059 3.80106
784.151 2.84144
784.336 1.76934
784.520 1.21849
784.705 0.900135
785.074 0.568976
785.443 0.414079
785.812 0.335524
786.550 0.287670
787.288 0.343209
787.657 0.427650
788.026 0.592173
788.395 0.942227
788.579 1.27811
788.764 1.85870
788.948 2.98764
789.041 3.99876
789.133 5.63076
789.225 8.50896
789.317 14.2205
789.363 19.3794
789.409 27.6474
789.456 41.5857
789.502 65.5843
789.526 83.9190
789.551 104.867
789.600 131.040
789.649 104.859
789.698 65.5742
789.740 43.4321
789.781 29.8542
789.823 21.4337
789.864 16.0024
789.947 9.79160
790.030 6.57027
790.113 4.70256
790.196 3.53097
790.362 2.20506
790.528 1.51316
790.694 1.10858
791.026 0.679632
791.358 0.470731
791.690 0.355756
792.354 0.249688
793.017 0.229652
793.349 0.250030
793.681 0.305543
794.013 0.437481
794.179 0.568359
794.345 0.796909
794.511 1.24343
794.594 1.64295
794.677 2.28598
794.760 3.41434
794.843 5.63288
794.884 7.61945
794.926 10.7714
794.967 16.0123
795.009 24.8538
795.054 39.7306
795.100 49.6133
795.146 39.6921
795.192 24.8480
795.233 15.9728
795.275 10.7346
795.316 7.58675
795.358 5.60743
795.441 3.39091
795.524 2.26405
795.607 1.62002
795.690 1.21935
795.856 0.768826
796.023 0.534909
796.189 0.398224
796.521 0.252678
796.854 0.180639
797.186 0.139804
797.851 0.0984189
798.516 0.0822394
799.181 0.0857495
799.513 0.102802
799.846 0.154819
800.012 0.221525
800.178 0.379510
800.261 0.551849
800.344 0.893820
800.386 1.20249
800.427 1.69463
800.469 2.52303
800.510 3.93861
800.555 6.27701
800.600 7.83589
800.645 6.27672
800.690 3.93779
800.736 2.40394
800.782 1.55997
800.828 1.08007
800.874 0.789549
800.967 0.476796
801.059 0.323289
801.244 0.184347
801.429 0.125411
801.798 0.0770285
802.167 0.0576747
802.906 0.0418737
803.645 0.0353385
805.123 0.0300246
806.600 0.0287113
808.078 0.0299822
809.556 0.0349434
810.294 0.0405609
811.033 0.0526717
811.403 0.0661013
811.772 0.0973194
811.957 0.133819
812.141 0.218042
812.234 0.310332
812.326 0.497230
812.372 0.670790
812.419 0.957585
812.465 1.46263
812.511 2.37988
812.555 3.77612
812.600 4.70739
812.645 3.77815
812.689 2.38379
812.735 1.47424
812.781 0.973317
812.826 0.687459
812.872 0.514935
812.963 0.329927
813.054 0.240600
813.237 0.163757
813.419 0.136515
813.785 0.130323
814.150 0.157426
814.515 0.227728
814.697 0.296644
814.880 0.416095
815.062 0.649206
815.154 0.858923
815.245 1.19969
815.336 1.80753
815.382 2.30454
815.427 3.03768
815.473 4.17663
815.519 6.04259
815.564 9.29392
815.610 15.1323
815.655 24.1838
815.700 30.2010
815.745 24.1658
815.790 15.1380
815.818 11.2249
815.845 8.46819
815.900 5.16779
815.955 3.42800
816.010 2.43195
816.065 1.81519
816.120 1.41125
816.230 0.934096
816.340 0.676621
816.450 0.523912
816.670 0.363922
816.889 0.292564
817.109 0.262784
817.549 0.273825
817.988 0.378369
818.208 0.494555
818.428 0.704769
818.648 1.12844
818.758 1.51847
818.868 2.16600
818.977 3.35204
819.032 4.35068
819.087 5.86091
819.142 8.29156
819.197 12.4808
819.252 20.3488
819.307 35.8911
819.330 45.9622
819.354 57.4195
819.400 71.7276
819.447 57.3659
819.493 35.8854
819.533 23.5960
819.573 16.1293
819.613 11.5340
819.653 8.58700
819.732 5.23605
819.812 3.50570
819.892 2.50726
819.972 1.88227
820.131 1.17623
820.291 0.808249
820.450 0.593095
820.769 0.364549
821.089 0.252313
821.408 0.189276
822.046 0.125397
822.684 0.0964629
823.322 0.0824715
824.599 0.0761921
825.875 0.0917657
826.514 0.112231
827.152 0.151078
827.790 0.233558
828.109 0.313762
828.428 0.455605
828.748 0.743332
828.907 1.01363
829.067 1.47436
829.226 2.35702
829.306 3.13586
829.386 4.37449
829.466 6.51397
829.545 10.6293
829.585 14.2227
829.625 19.7856
829.665 28.7377
829.705 43.2547
829.729 55.3641
829.753 69.2013
829.800 86.4467
829.848 69.1394
829.895 43.2508
829.948 25.3967
830.000 15.9835
830.052 10.7918
830.105 7.71582
830.157 5.77019
830.210 4.47098
830.314 2.90802
830.419 2.04461
830.524 1.52004
830.734 0.944254
830.943 0.653286
831.153 0.487373
831.572 0.317742
831.991 0.241118
832.411 0.205088
833.249 0.194215
834.088 0.250926
834.507 0.321710
834.926 0.455340
835.136 0.567840
835.345 0.737357
835.555 1.00864
835.764 1.48075
835.974 2.41037
836.079 3.25431
836.184 4.63937
836.288 7.13708
836.341 9.20562
836.393 12.2922
836.446 17.1483
836.498 25.2884
836.550 39.9021
836.577 51.4568
836.603 67.1850
836.627 85.9880
836.651 107.479
836.700 134.344
836.749 107.472
836.797 67.1759
836.830 48.3749
836.862 35.5788
836.927 20.8721
836.992 13.4648
837.056 9.33880
837.121 6.83070
837.186 5.20524
837.315 3.30736
837.445 2.28673
837.575 1.67799
837.834 1.01943
838.093 0.690348
838.352 0.502891
838.611 0.386193
838.870 0.308768
839.388 0.215843
839.906 0.164739
840.943 0.114765
841.979 0.0941801
843.015 0.0866710
845.088 0.0939188
847.161 0.132792
848.197 0.175336
849.233 0.253737
849.752 0.319545
850.270 0.419315
850.788 0.581069
851.306 0.869256
851.565 1.10666
851.824 1.46131
852.083 2.02544
852.343 3.00315
852.602 4.92256
852.731 6.66282
852.861 9.51290
852.990 14.6483
853.055 18.8958
853.120 25.2137
853.185 35.1481
853.249 51.7251
853.282 64.3184
853.314 81.4057
853.347 104.789
853.379 136.413
853.439 218.199
853.500 272.703
853.561 218.178
853.621 136.391
853.679 85.8363
853.737 56.7355
853.794 39.5956
853.852 28.9710
853.967 17.2490
854.083 11.3714
854.198 8.04274
854.313 5.98576
854.544 3.69018
854.774 2.51007
855.005 1.82664
855.236 1.39712
855.466 1.11080
855.927 0.768124
856.389 0.583909
856.850 0.480562
857.311 0.425906
858.233 0.421555
858.695 0.479171
859.156 0.609737
859.617 0.902197
859.848 1.18785
860.078 1.68738
860.309 2.67537
860.424 3.57673
860.539 5.06504
860.655 7.77607
860.712 10.0484
860.770 13.4717
860.828 18.9534
860.885 28.3374
860.943 45.7881
860.972 59.9989
861.001 79.8112
861.025 102.130
861.050 127.643
861.100 159.457
861.150 127.541
861.200 79.8211
861.240 53.5545
861.281 37.2472
861.322 26.9812
861.362 20.3134
861.443 12.6086
861.525 8.57882
861.606 6.23938
861.687 4.77334
861.850 3.12929
862.012 2.29945
862.175 1.85100
862.500 1.51985
862.825 1.69959
862.988 2.03860
863.150 2.69747
863.313 4.03287
863.394 5.23223
863.475 7.14893
863.557 10.4596
863.638 16.7955
863.679 22.2964
863.719 30.7240
863.760 44.1340
863.800 65.6576
863.825 83.9720
863.850 104.908
863.900 131.082
863.950 104.887
864.000 65.6197
864.041 43.7122
864.083 30.2028
864.124 21.7837
864.166 16.3323
864.249 10.0725
864.332 6.80804
864.415 4.91114
864.498 3.71703
864.664 2.35876
864.830 1.64432
864.995 1.22266
865.327 0.768406
865.659 0.540424
865.991 0.409361
866.655 0.272931
867.319 0.212578
867.983 0.200525
868.314 0.224073
868.480 0.253781
868.646 0.309701
868.812 0.423571
868.895 0.527278
868.978 0.695690
869.061 0.993446
869.144 1.58441
869.186 2.11668
869.227 2.96650
869.269 4.39107
869.310 6.81840
869.355 10.8514
869.400 13.5324
869.445 10.8408
869.490 6.81587
869.533 4.30793
869.576 2.87410
869.619 2.03189
869.662 1.50998
869.749 0.935607
869.835 0.647686
869.921 0.484269
870.007 0.383182
870.180 0.269808
870.525 0.176714
870.869 0.140768
871.559 0.117561
872.249 0.121912
872.939 0.154787
873.284 0.192566
873.628 0.262988
873.973 0.410514
874.146 0.551540
874.318 0.794879
874.491 1.26806
874.577 1.69125
874.663 2.37484
874.749 3.57856
874.836 5.96843
874.879 8.12637
874.922 11.5837
874.965 17.4093
875.008 27.4341
875.054 43.8772
875.100 54.8022
875.146 43.8364
875.192 27.4303
875.221 20.2002
875.249 15.1420
875.307 9.13044
875.364 5.99649
875.421 4.20907
875.478 3.10792
875.535 2.38642
875.650 1.53493
875.764 1.07215
875.878 0.794210
876.107 0.491415
876.336 0.338994
876.564 0.251649
877.022 0.160453
877.479 0.116248
877.937 0.0915809
878.851 0.0670309
879.766 0.0574941
880.681 0.0585496
881.139 0.0666140
881.596 0.0918523
881.825 0.125164
882.053 0.207969
882.168 0.304157
882.282 0.511520
882.339 0.716865
882.396 1.08058
882.454 1.78900
882.482 2.39384
882.511 3.26503
882.555 5.20263
882.600 6.49068
882.645 5.19824
882.689 3.26530
882.724 2.24764
882.758 1.59871
882.793 1.18038
882.827 0.903837
882.896 0.578155
882.965 0.404736
883.103 0.237614
883.240 0.163367
883.516 0.101393
883.791 0.0772197
884.342 0.0597114
884.893 0.0550833
885.995 0.0584817
887.097 0.0740394
888.198 0.111728
888.749 0.149951
889.300 0.219301
889.576 0.277135
889.851 0.364341
890.127 0.504756
890.402 0.751950
890.540 0.953087
890.677 1.24938
890.815 1.71184
890.953 2.49133
891.091 3.95711
891.160 5.22460
891.228 7.19731
891.297 10.5012
891.366 16.5470
891.401 21.5840
891.435 28.9883
891.469 40.1740
891.504 57.0835
891.528 73.0845
891.552 91.3729
891.600 114.173
891.648 91.2916
891.696 57.0770
891.753 32.4858
891.809 19.9991
891.865 13.2919
891.922 9.40107
891.978 6.96856
892.034 5.36284
892.147 3.44749
892.260 2.39887
892.373 1.76527
892.598 1.07256
892.823 0.722989
893.049 0.522701
893.274 0.397572
893.499 0.314386
893.950 0.214479
894.401 0.159771
894.852 0.127506
895.302 0.108105
896.204 0.0934680
896.655 0.0973657
897.106 0.113078
897.556 0.153974
897.782 0.195983
898.007 0.271162
898.232 0.422760
898.345 0.562794
898.458 0.796255
898.571 1.22660
898.627 1.59130
898.683 2.14649
898.740 3.04812
898.796 4.62262
898.852 7.63025
898.880 10.1560
898.909 13.7417
898.954 21.9766
899.000 27.4511
899.046 21.9579
899.092 13.7422
899.121 9.97657
899.151 7.38992
899.211 4.38714
899.270 2.85586
899.330 1.99493
899.389 1.46896
899.449 1.12735
899.568 0.726519
899.687 0.510052
899.806 0.380534
900.044 0.239853
900.282 0.169162
900.520 0.128658
900.996 0.0863357
901.949 0.0544538
902.901 0.0435787
903.854 0.0404216
904.806 0.0438284
905.282 0.0507797
905.758 0.0699385
905.996 0.0942711
906.235 0.154086
906.354 0.223577
906.473 0.374395
906.532 0.525357
906.592 0.795546
906.651 1.33170
906.681 1.79898
906.711 2.48305
906.755 3.95375
906.800 4.93173
906.845 3.95075
906.889 2.48394
906.916 1.85021
906.943 1.40462
906.997 0.868764
907.051 0.585963
907.105 0.423404
907.214 0.256558
907.322 0.178455
907.538 0.110961
907.754 0.0841926
908.186 0.0652660
908.618 0.0612046
909.482 0.0682865
910.346 0.0909403
910.779 0.111397
911.211 0.143049
911.643 0.194985
912.075 0.288271
912.291 0.365466
912.507 0.481061
912.723 0.665553
912.939 0.986235
913.155 1.61896
913.263 2.19470
913.371 3.14268
913.479 4.86323
913.533 6.29511
913.587 8.44366
913.641 11.8500
913.695 17.6227
913.749 28.1511
913.776 36.5980
913.803 48.2260
913.827 61.7275
913.852 77.1595
913.900 96.4509
913.948 77.1549
913.997 48.2206
914.033 33.3332
914.070 23.7026
914.106 17.4513
914.142 13.2837
914.215 8.32912
914.288 5.67049
914.361 4.09440
914.433 3.09176
914.579 1.93877
914.724 1.32908
914.870 0.968986
915.015 0.739035
915.161 0.583527
915.452 0.392704
915.743 0.284827
916.034 0.218084
916.325 0.174108
916.907 0.122015
917.488 0.0942572
918.652 0.0704784
919.816 0.0696656
920.398 0.0783509
920.980 0.0984751
921.562 0.144751
921.853 0.190991
922.144 0.273552
922.435 0.441697
922.580 0.599541
922.726 0.867737
922.871 1.37833
922.944 1.82590
923.017 2.53207
923.090 3.73789
923.162 6.01091
923.199 7.95951
923.235 10.9081
923.271 15.5444
923.308 22.8390
923.354 36.5286
923.400 45.6553
923.446 36.5266
923.492 22.8364
923.525 16.1615
923.557 11.7169
923.590 8.75768
923.622 6.74001
923.687 4.29830
923.752 2.95922
923.817 2.15579
923.882 1.63914
924.012 1.04040
924.142 0.720707
924.272 0.530799
924.532 0.326400
924.792 0.224636
925.052 0.166862
925.572 0.107268
926.092 0.0790245
926.612 0.0638505
927.651 0.0505629
928.691 0.0493565
929.731 0.0625813
930.251 0.0840717
930.770 0.143458
931.030 0.220331
931.160 0.292007
931.290 0.412911
931.420 0.640637
931.485 0.837850
931.550 1.14521
931.615 1.66109
931.680 2.60994
931.713 3.40092
931.745 4.57072
931.778 6.34601
931.810 9.03321
931.855 14.4436
931.900 18.0408
931.945 14.4315
931.990 9.03410
932.035 5.54519
932.081 3.60273
932.126 2.48822
932.172 1.80932
932.217 1.37133
932.262 1.07456
932.353 0.712236
932.444 0.509140
932.535 0.384497
932.716 0.246330
932.898 0.175665
933.079 0.134890
933.443 0.0923102
934.169 0.0608599
934.895 0.0505639
936.348 0.0467345
937.800 0.0515071
939.253 0.0629067
940.705 0.0850728
941.432 0.104728
942.158 0.139648
942.521 0.172696
942.884 0.240963
943.066 0.315436
943.247 0.480666
943.338 0.657935
943.429 1.01264
943.474 1.33854
943.520 1.87254
943.565 2.80296
943.611 4.47102
943.655 7.05131
943.700 8.76774
943.745 7.05243
943.790 4.48531
943.822 3.19051
943.855 2.34427
943.888 1.79048
943.921 1.41852
943.986 0.976688
944.052 0.740498
944.183 0.517596
944.314 0.426323
944.577 0.371829
944.839 0.380087
945.364 0.481044
945.889 0.700562
946.151 0.887507
946.413 1.16970
946.676 1.62184
946.938 2.41047
947.200 3.97262
947.332 5.40063
947.463 7.76043
947.594 12.0698
947.660 15.6838
947.725 21.1448
947.791 29.8872
947.856 44.9091
947.889 56.6122
947.922 72.8663
947.955 95.7211
947.987 127.531
948.044 203.980
948.100 254.922
948.128 239.883
948.156 203.964
948.213 127.513
948.277 73.3219
948.342 45.4190
948.407 30.3276
948.471 21.5057
948.536 15.9779
948.601 12.3118
948.730 7.93080
948.860 5.52586
948.989 4.07035
949.248 2.47757
949.507 1.67307
949.765 1.21266
950.024 0.925813
950.283 0.736040
950.800 0.511049
951.318 0.392339
951.835 0.328191
952.353 0.297809
953.388 0.316645
953.906 0.377412
954.423 0.506519
954.941 0.793233
955.200 1.07483
955.458 1.57062
955.717 2.56039
955.846 3.47017
955.976 4.98077
956.105 7.75737
956.170 10.1009
956.235 13.6648
956.299 19.4203
956.364 29.4353
956.396 37.3483
956.429 48.4264
956.461 64.2005
956.493 86.5361
956.547 138.436
956.600 173.039
956.653 138.426
956.707 86.5227
956.740 63.6101
956.773 47.6490
956.840 28.6922
956.906 18.8154
956.973 13.1841
957.039 9.71137
957.105 7.44036
957.238 4.75865
957.371 3.30201
957.504 2.42734
957.770 1.47488
958.035 0.995630
958.301 0.721081
958.567 0.549210
958.832 0.434481
959.364 0.295310
959.895 0.217179
960.958 0.136874
962.021 0.0985378
963.083 0.0775662
965.209 0.0581168
967.334 0.0533858
969.460 0.0601452
970.522 0.0703627
971.585 0.0915434
972.116 0.112632
972.648 0.156491
972.913 0.204618
973.179 0.314790
973.312 0.439732
973.445 0.712030
973.511 0.989058
973.578 1.49968
973.611 1.92736
973.644 2.56349
973.677 3.53651
973.710 5.02890
973.755 7.96773
973.800 9.92173
973.845 7.96634
973.890 5.03982
973.921 3.62060
973.952 2.67297
974.015 1.61056
974.077 1.08903
974.140 0.804283
974.265 0.528027
974.390 0.408953
974.640 0.323886
974.890 0.311574
975.390 0.371139
975.890 0.526927
976.141 0.662850
976.391 0.869273
976.641 1.20094
976.891 1.77993
977.141 2.92623
977.266 3.97340
977.391 5.70158
977.516 8.85120
977.579 11.4843
977.641 15.4527
977.704 21.7830
977.766 32.6047
977.797 41.0096
977.829 52.5946
977.860 68.8542
977.891 91.3717
977.946 146.171
978.000 182.699
978.055 146.161
978.109 91.3605
978.165 55.3850
978.222 35.6408
978.278 24.4009
978.334 17.6135
978.390 13.2483
978.447 10.3069
978.559 6.72534
978.672 4.72533
978.784 3.50118
979.009 2.14765
979.234 1.45877
979.459 1.06372
979.684 0.818978
979.909 0.660179
980.359 0.490613
980.809 0.468348
981.034 0.545977
981.147 0.636799
981.259 0.800538
981.372 1.11597
981.428 1.38834
981.484 1.80656
981.540 2.48995
981.597 3.68868
981.653 5.98650
981.681 7.91635
981.709 10.6701
981.755 16.9742
981.800 21.1654
981.846 16.9530
981.891 10.6566
981.922 7.64117
981.954 5.61319
981.985 4.25067
982.016 3.31704
982.079 2.17450
982.141 1.54129
982.204 1.15799
982.266 0.909438
982.391 0.617697
982.516 0.459016
982.641 0.362577
982.891 0.254683
983.141 0.197357
983.391 0.162310
983.891 0.121829
984.891 0.0846770
985.891 0.0677088
987.892 0.0547891
989.892 0.0564663
991.892 0.0744783
992.892 0.0957991
993.892 0.136364
994.392 0.170996
994.892 0.224004
995.392 0.310678
995.892 0.466343
996.142 0.595309
996.392 0.788687
996.642 1.09767
996.892 1.63621
997.142 2.70188
997.267 3.67549
997.392 5.28498
997.517 8.21991
997.580 10.6789
997.642 14.3911
997.705 20.3262
997.767 30.5053
997.798 38.4363
997.830 49.3989
997.861 64.8361
997.892 86.2907
997.946 138.113
998.000 172.575
998.054 138.001
998.108 86.2796
998.167 50.7795
998.226 31.9906
998.285 21.5866
998.345 15.4236
998.404 11.5142
998.463 8.90587
998.581 5.76366
998.699 4.02379
998.818 2.96609
999.054 1.80152
999.291 1.21002
999.527 0.869498
999.764 0.655844
1000.00 0.513099
1000.44 0.349432
1000.88 0.254817
1001.32 0.195160
1001.75 0.155200
1002.63 0.106929
1003.51 0.0806521
1004.38 0.0663743
1005.26 0.0628070
1005.70 0.0688145
1006.13 0.0923037
1006.35 0.124932
1006.57 0.207031
1006.68 0.302795
1006.79 0.505670
1006.85 0.705711
1006.90 1.05577
1006.96 1.72457
1007.01 3.04792
1007.06 4.86868
1007.10 6.08807
1007.15 4.86840
1007.19 3.04722
1007.24 1.82889
1007.29 1.17371
1007.33 0.807395
1007.38 0.591801
1007.48 0.356340
1007.57 0.242812
1007.76 0.139995
1007.95 0.0965349
1008.34 0.0608178
1008.72 0.0463903
1009.48 0.0342698
1010.25 0.0289108
1011.77 0.0238237
1013.30 0.0215756
1016.36 0.0229578
1017.12 0.0265697
1017.88 0.0369833
1018.27 0.0508924
1018.65 0.0872749
1018.84 0.132638
1019.03 0.241206
1019.13 0.363523
1019.22 0.612761
1019.27 0.849327
1019.32 1.23520
1019.36 1.93749
1019.41 3.20725
1019.46 5.13376
1019.50 6.42344
1019.55 5.13399
1019.59 3.20755
1019.62 2.26330
1019.65 1.65443
1019.72 0.958646
1019.78 0.616895
1019.84 0.431573
1019.97 0.246127
1020.09 0.161637
1020.34 0.0894412
1020.59 0.0606098
1021.09 0.0381549
1021.59 0.0299155
1023.60 0.0228217
1025.60 0.0238789
1027.60 0.0279696
1029.60 0.0363412
1030.60 0.0437328
1031.60 0.0557870
1032.61 0.0785211
1033.11 0.0992511
1033.61 0.134633
1034.11 0.205355
1034.36 0.271908
1034.61 0.387272
1034.86 0.617404
1034.98 0.828937
1035.11 1.18302
1035.23 1.84243
1035.30 2.41328
1035.36 3.28181
1035.42 4.74232
1035.48 7.33251
1035.52 9.52168
1035.55 12.6071
1035.58 17.1650
1035.61 23.8820
1035.65 38.1165
1035.70 47.5824
1035.75 38.1162
1035.79 23.8826
1035.82 17.7109
1035.85 13.3573
1035.90 8.19727
1035.96 5.41564
1036.01 3.84327
1036.07 2.85023
1036.13 2.20867
1036.24 1.44021
1036.35 1.02239
1036.46 0.771638
1036.68 0.501478
1036.90 0.367640
1037.12 0.294049
1037.57 0.225776
1038.01 0.204378
1038.45 0.206434
1039.34 0.261546
1039.78 0.320372
1040.23 0.414174
1040.67 0.570443
1041.11 0.851429
1041.34 1.08411
1041.56 1.43196
1041.78 1.98485
1042.00 2.93493
1042.22 4.79536
1042.33 6.46970
1042.44 9.16108
1042.56 13.9780
1042.61 17.9509
1042.67 23.6877
1042.72 32.7006
1042.78 47.1249
1042.81 57.9946
1042.83 71.8815
1042.86 91.0736
1042.89 115.505
1042.94 185.803
1043.00 231.716
1043.03 217.308
1043.06 184.473
1043.11 115.490
1043.16 76.7928
1043.21 53.3449
1043.25 38.6005
1043.30 28.9838
1043.39 17.8601
1043.48 12.0202
1043.57 8.61439
1043.67 6.46688
1043.85 4.02335
1044.04 2.73792
1044.22 1.98837
1044.40 1.51174
1044.59 1.19038
1044.96 0.797579
1045.32 0.578335
1045.69 0.444766
1046.06 0.360095
1046.80 0.274540
1047.17 0.263706
1047.54 0.279270
1047.90 0.344681
1048.09 0.417612
1048.27 0.550720
1048.46 0.820732
1048.55 1.06619
1048.64 1.46818
1048.73 2.18765
1048.78 2.77777
1048.83 3.64922
1048.87 5.00026
1048.92 7.21771
1048.96 11.0791
1049.01 18.0004
1049.06 28.7895
1049.10 35.7434
1049.15 28.5390
1049.19 17.9974
1049.24 11.0738
1049.28 7.27263
1049.33 5.02724
1049.37 3.68361
1049.42 2.79397
1049.46 2.20283
1049.56 1.46930
1049.65 1.05656
1049.74 0.802298
1049.92 0.518644
1050.10 0.372139
1050.28 0.286459
1050.65 0.194925
1051.01 0.148925
1051.37 0.122525
1052.10 0.0957037
1052.83 0.0861668
1053.56 0.0919079
1053.92 0.107190
1054.28 0.150976
1054.47 0.206359
1054.65 0.338431
1054.74 0.484982
1054.83 0.783415
1054.88 1.06418
1054.92 1.51688
1054.97 2.30499
1055.01 3.71746
1055.06 5.91916
1055.10 7.33737
1055.15 5.86781
1055.19 3.71860
1055.23 2.42606
1055.27 1.67174
1055.31 1.21038
1055.35 0.915857
1055.43 0.579618
1055.50 0.409778
1055.66 0.250865
1055.82 0.183467
1056.13 0.130582
1056.44 0.114208
1057.07 0.115918
1057.70 0.145496
1058.32 0.219595
1058.64 0.294388
1058.95 0.427773
1059.27 0.700897
1059.42 0.958297
1059.58 1.39433
1059.74 2.23332
1059.81 2.97901
1059.89 4.15056
1059.97 6.19631
1060.05 10.0698
1060.09 13.4298
1060.13 18.5967
1060.17 26.8406
1060.21 40.1184
1060.23 51.4863
1060.25 64.4772
1060.30 80.2799
1060.35 63.9327
1060.40 40.1144
1060.42 29.6734
1060.45 22.3272
1060.51 13.6395
1060.57 9.03077
1060.62 6.37028
1060.68 4.71732
1060.74 3.62758
1060.85 2.33288
1060.97 1.62595
1061.08 1.19952
1061.31 0.733940
1061.54 0.499209
1061.76 0.364745
1061.99 0.280704
1062.22 0.224754
1062.68 0.157275
1063.13 0.120062
1064.05 0.0832424
1064.96 0.0675146
1065.87 0.0610652
1067.70 0.0633071
1069.52 0.0857026
1070.43 0.111211
1071.35 0.158777
1071.80 0.199054
1072.26 0.260220
1072.71 0.359683
1073.17 0.537383
1073.40 0.684753
1073.63 0.904392
1073.86 1.25420
1074.08 1.86134
1074.31 3.05543
1074.43 4.13943
1074.54 5.91924
1074.65 9.13184
1074.71 11.7954
1074.77 15.7744
1074.82 22.0446
1074.88 32.5797
1074.91 40.7762
1074.94 51.5578
1074.97 66.9206
1075.00 87.1541
1075.02 112.343
1075.05 140.032
1075.10 174.424
1075.13 163.587
1075.15 138.959
1075.21 87.1448
1075.25 59.4061
1075.29 41.7717
1075.33 30.4950
1075.37 23.0475
1075.45 14.3265
1075.53 9.69512
1075.62 6.97441
1075.70 5.25040
1075.86 3.27966
1076.03 2.24267
1076.19 1.63221
1076.35 1.24335
1076.52 0.982100
1076.84 0.660387
1077.17 0.479249
1077.50 0.367819
1077.83 0.295101
1078.48 0.210184
1079.14 0.167205
1080.45 0.139186
1081.76 0.163744
1082.42 0.204280
1083.07 0.285040
1083.40 0.354793
1083.73 0.461573
1084.06 0.635291
1084.38 0.942608
1084.55 1.19442
1084.71 1.56720
1084.87 2.15202
1085.04 3.13638
1085.20 5.01073
1085.28 6.64573
1085.37 9.21805
1085.45 13.5771
1085.53 21.7264
1085.57 28.6328
1085.61 39.0090
1085.65 55.0660
1085.69 79.2505
1085.75 126.861
1085.80 158.631
1085.85 126.853
1085.91 79.2405
1085.94 57.5522
1085.98 42.6327
1086.05 25.4321
1086.12 16.5784
1086.19 11.5687
1086.26 8.46333
1086.32 6.47069
1086.46 4.12400
1086.60 2.84635
1086.74 2.08652
1087.02 1.26032
1087.29 0.844044
1087.57 0.606959
1087.85 0.458291
1088.12 0.359583
1088.68 0.239832
1089.23 0.173009
1089.78 0.131820
1090.33 0.104608
1091.44 0.0719347
1092.55 0.0538237
1094.76 0.0356399
1096.97 0.0278168
1099.19 0.0256497
1100.29 0.0272913
1101.40 0.0341289
1101.95 0.0438116
1102.50 0.0697676
1102.78 0.103182
1103.06 0.186791
1103.20 0.287206
1103.33 0.511474
1103.40 0.744064
1103.47 1.17974
1103.51 1.55640
1103.54 2.10756
1103.58 2.99005
1103.61 4.32894
1103.66 6.93170
1103.70 8.67498
1103.75 6.93215
1103.79 4.32962
1103.82 3.08706
1103.85 2.25425
1103.91 1.32418
1103.97 0.859377
1104.04 0.601348
1104.16 0.344333
1104.28 0.226734
1104.52 0.126433
1104.77 0.0864606
1105.26 0.0564127
1105.74 0.0469500
1106.72 0.0458112
1107.70 0.0573326
1108.68 0.0876757
1109.16 0.118824
1109.65 0.175299
1109.90 0.222566
1110.14 0.293507
1110.39 0.407372
1110.63 0.606997
1110.87 1.00550
1111.00 1.37298
1111.12 1.98662
1111.24 3.12283
1111.30 4.09005
1111.36 5.57402
1111.42 8.00062
1111.48 12.3014
1111.54 20.6884
1111.58 28.0006
1111.61 38.2448
1111.63 49.0871
1111.65 61.4774
1111.70 76.5495
1111.75 60.9583
1111.80 38.2412
1111.85 21.6830
1111.91 13.4104
1111.96 8.88727
1112.02 6.30519
1112.07 4.66289
1112.13 3.59612
1112.24 2.31899
1112.35 1.61154
1112.46 1.18733
1112.68 0.720177
1112.90 0.483183
1113.12 0.347884
1113.34 0.263116
1113.57 0.206533
1114.01 0.137948
1114.45 0.0997116
1115.33 0.0606807
1116.22 0.0421469
1117.10 0.0319400
1118.87 0.0217020
1120.64 0.0170526
1122.41 0.0147499
1125.95 0.0135472
1129.49 0.0158724
1131.26 0.0191728
1133.02 0.0256736
1134.79 0.0399941
1135.68 0.0543586
1136.56 0.0804730
1137.45 0.135748
1137.89 0.189917
1138.33 0.286789
1138.55 0.367223
1138.77 0.487195
1139.00 0.678476
1139.22 1.01092
1139.44 1.66599
1139.55 2.26521
1139.66 3.24212
1139.77 5.02804
1139.82 6.50124
1139.88 8.70544
1139.94 12.2676
1139.99 18.1979
1140.05 28.9586
1140.07 37.7372
1140.10 49.3509
1140.13 63.2456
1140.15 79.1675
1140.20 99.1324
1140.25 79.1635
1140.30 49.3461
1140.36 27.9213
1140.42 17.2406
1140.48 11.4172
1140.53 8.09324
1140.59 5.98259
1140.65 4.61096
1140.77 2.95984
1140.89 2.05598
1141.00 1.50985
1141.24 0.914425
1141.47 0.612129
1141.70 0.439414
1141.94 0.330808
1142.17 0.258680
1142.64 0.171130
1143.10 0.122396
1143.57 0.0924668
1144.04 0.0727887
1144.97 0.0493505
1145.91 0.0365194
1147.78 0.0237745
1149.65 0.0180682
1151.51 0.0152624
1155.25 0.0136341
1158.99 0.0155704
1160.86 0.0183902
1162.73 0.0237875
1164.60 0.0352535
1165.53 0.0464678
1166.47 0.0665279
1167.40 0.108432
1167.87 0.149239
1168.34 0.222052
1168.57 0.282327
1168.80 0.372726
1169.04 0.517330
1169.27 0.768601
1169.50 1.26973
1169.62 1.73011
1169.74 2.48732
1169.85 3.88879
1169.91 5.08554
1169.97 6.87697
1170.03 9.82761
1170.09 14.8867
1170.15 24.4562
1170.18 32.3993
1170.20 43.6266
1170.23 55.7925
1170.25 69.6725
1170.30 86.9860
1170.35 69.6696
1170.40 43.6233
1170.43 30.2140
1170.47 21.5154
1170.50 15.8574
1170.54 12.0710
1170.61 7.57764
1170.68 5.16049
1170.76 3.72871
1170.83 2.81624
1170.97 1.76754
1171.12 1.21294
1171.26 0.885441
1171.55 0.535885
1171.84 0.362510
1172.12 0.264894
1172.41 0.204935
1172.70 0.165947
1173.27 0.120809
1173.85 0.0986105
1175.00 0.0867171
1176.15 0.106547
1176.73 0.134731
1177.30 0.189436
1177.59 0.236243
1177.88 0.307584
1178.17 0.423257
1178.45 0.627184
1178.60 0.793986
1178.74 1.04050
1178.88 1.42646
1179.03 2.07365
1179.17 3.30175
1179.24 4.36851
1179.32 6.03951
1179.39 8.85353
1179.46 14.0647
1179.50 18.4384
1179.53 24.9482
1179.57 34.9039
1179.60 49.6415
1179.63 63.9146
1179.65 79.5907
1179.70 99.6297
1179.75 79.5868
1179.80 49.6368
1179.83 35.9407
1179.86 26.5584
1179.93 15.8018
1179.99 10.2219
1180.05 7.13378
1180.12 5.21821
1180.18 3.99122
1180.31 2.54620
1180.43 1.75901
1180.56 1.28833
1180.81 0.779959
1181.07 0.524291
1181.32 0.379056
1181.57 0.288200
1181.83 0.228116
1182.33 0.155880
1182.84 0.116271
1183.85 0.0784797
1184.87 0.0665048
1185.88 0.0757365
1186.39 0.0977836
1186.90 0.161362
1187.15 0.244086
1187.28 0.321073
1187.40 0.449425
1187.53 0.691499
1187.59 0.898331
1187.66 1.21883
1187.72 1.76163
1187.78 2.73509
1187.82 3.55114
1187.85 4.70560
1187.88 6.48793
1187.91 9.06676
1187.96 14.5767
1188.00 18.1574
1188.05 14.4503
1188.09 9.06955
1188.13 5.85332
1188.17 3.95086
1188.21 2.80511
1188.26 2.08218
1188.34 1.27344
1188.42 0.862732
1188.50 0.628829
1188.58 0.484277
1188.75 0.325278
1188.91 0.246271
1189.07 0.205116
1189.40 0.180298
1189.73 0.212173
1189.89 0.258927
1190.06 0.346600
1190.22 0.524654
1190.30 0.686025
1190.38 0.943624
1190.47 1.40130
1190.55 2.30573
1190.59 3.11690
1190.63 4.40612
1190.67 6.55235
1190.71 10.0695
1190.76 16.0337
1190.80 19.9881
1190.85 15.8917
1190.89 9.95736
1190.92 6.97047
1190.96 5.06020
1190.99 3.75740
1191.02 2.90104
1191.09 1.85112
1191.15 1.27824
1191.22 0.935536
1191.28 0.715509
1191.41 0.460588
1191.54 0.324513
1191.67 0.243493
1191.93 0.155817
1192.45 0.0864192
1192.97 0.0597791
1194.01 0.0395132
1195.05 0.0326748
1197.13 0.0344011
1198.17 0.0574047
1198.43 0.0791647
1198.69 0.133551
1198.82 0.197806
1198.95 0.340451
1199.02 0.486454
1199.08 0.755574
1199.15 1.31362
1199.18 1.83017
1199.21 2.59268
1199.26 4.14210
1199.30 5.14101
1199.35 4.10574
1199.39 2.59308
1199.44 1.46209
1199.50 0.906266
1199.55 0.609909
1199.60 0.438293
1199.71 0.260943
1199.81 0.177106
1200.03 0.103583
1200.24 0.0737689
1200.66 0.0506142
1201.09 0.0425184
1202.79 0.0391114
1204.49 0.0476632
1206.19 0.0660674
1207.89 0.105693
1208.74 0.144464
1209.59 0.213756
1210.01 0.271143
1210.44 0.357531
1210.86 0.496694
1211.29 0.743060
1211.50 0.945474
1211.71 1.24508
1211.93 1.72127
1212.14 2.53642
1212.35 4.12669
1212.46 5.54481
1212.56 7.83775
1212.67 11.9357
1212.72 15.2364
1212.78 20.0613
1212.83 27.4443
1212.88 39.3527
1212.91 48.2787
1212.94 59.6081
1212.96 75.1952
1212.99 94.8883
1213.02 121.759
1213.05 152.482
1213.10 190.023
1213.13 178.622
1213.16 151.378
1213.21 94.8835
1213.26 60.1084
1213.31 40.2307
1213.37 28.1584
1213.42 20.7530
1213.52 12.4342
1213.62 8.23665
1213.73 5.85104
1213.83 4.37430
1214.04 2.72659
1214.24 1.88431
1214.45 1.40425
1214.65 1.11323
1214.86 0.934118
1215.27 0.790347
1215.48 0.816315
1215.68 0.939635
1215.89 1.25602
1215.99 1.56744
1216.10 2.09495
1216.20 3.06639
1216.25 3.88970
1216.30 5.10336
1216.35 7.06682
1216.40 10.3237
1216.46 16.3607
1216.51 27.5611
1216.55 44.0071
1216.60 54.6068
1216.65 43.6241
1216.69 27.5403
1216.72 20.3249
1216.75 15.2740
1216.81 9.26983
1216.87 6.13933
1216.93 4.35313
1216.98 3.25183
1217.04 2.52935
1217.16 1.67932
1217.27 1.21058
1217.39 0.929312
1217.62 0.618046
1217.85 0.458860
1218.08 0.366436
1218.54 0.269662
1219.01 0.225431
1219.47 0.206498
1220.39 0.215058
1221.32 0.292892
1221.78 0.382261
1222.24 0.548751
1222.47 0.688978
1222.70 0.899231
1222.93 1.23514
1223.17 1.81849
1223.40 2.96341
1223.51 4.00475
1223.63 5.69238
1223.74 8.74587
1223.80 11.2657
1223.86 14.9324
1223.92 20.7460
1223.97 30.4008
1224.03 47.4937
1224.06 60.8255
1224.09 78.0589
1224.15 125.168
1224.20 155.763
1224.26 124.265
1224.31 78.0492
1224.36 49.0896
1224.42 32.6660
1224.47 22.7652
1224.52 16.7214
1224.63 9.96745
1224.73 6.59816
1224.84 4.66450
1224.94 3.46911
1225.15 2.13834
1225.36 1.44869
1225.57 1.04967
1225.78 0.797233
1225.99 0.627484
1226.41 0.420060
1226.82 0.303219
1227.24 0.230909
1227.66 0.183129
1228.50 0.125604
1229.34 0.0937992
1231.01 0.0622424
1232.69 0.0494085
1234.36 0.0472622
1235.20 0.0514530
1236.04 0.0651981
1236.46 0.0830859
1236.87 0.128242
1237.08 0.184049
1237.29 0.317261
1237.40 0.468824
1237.50 0.783882
1237.55 1.09343
1237.61 1.61627
1237.66 2.58667
1237.71 4.48365
1237.76 7.16297
1237.80 8.95794
1237.85 7.16426
1237.89 4.48603
1237.93 2.92201
1237.97 1.99089
1238.01 1.42713
1238.05 1.07003
1238.13 0.669106
1238.21 0.464890
1238.37 0.276404
1238.53 0.197115
1238.85 0.136055
1239.17 0.118428
1239.81 0.124635
1240.45 0.165809
1240.77 0.204691
1241.09 0.265092
1241.41 0.364469
1241.72 0.541218
1241.88 0.686583
1242.04 0.902437
1242.20 1.24243
1242.36 1.81781
1242.52 2.92296
1242.60 3.89577
1242.68 5.41631
1242.76 8.05124
1242.84 13.0742
1242.88 17.4182
1242.92 24.0773
1242.96 34.6539
1243.00 51.0619
1243.03 65.5984
1243.05 82.2476
1243.10 102.577
1243.15 81.5770
1243.20 51.0571
1243.25 30.3640
1243.30 19.4173
1243.36 13.1593
1243.41 9.48105
1243.46 7.08885
1243.51 5.51227
1243.62 3.59507
1243.72 2.51628
1243.83 1.85819
1244.04 1.13458
1244.25 0.763900
1244.46 0.551034
1244.67 0.416560
1244.88 0.327002
1245.29 0.218003
1245.71 0.156862
1246.13 0.119135
1246.55 0.0942059
1247.39 0.0642934
1248.23 0.0476645
1249.90 0.0307093
1251.58 0.0226362
1253.25 0.0182039
1256.60 0.0140164
1259.96 0.0129332
1263.31 0.0146802
1264.98 0.0178794
1266.66 0.0265471
1267.50 0.0378108
1268.33 0.0676297
1268.75 0.106487
1269.17 0.207715
1269.38 0.334958
1269.49 0.451286
1269.59 0.641471
1269.70 0.991276
1269.75 1.28142
1269.80 1.71814
1269.85 2.43079
1269.91 3.63079
1269.96 5.84686
1270.01 10.1474
1270.06 16.3369
1270.10 20.3603
1270.15 16.1939
1270.19 10.1486
1270.24 5.90681
1270.29 3.69406
1270.34 2.48505
1270.40 1.77327
1270.45 1.32504
1270.50 1.02669
1270.60 0.668930
1270.70 0.471931
1270.80 0.352522
1271.01 0.222228
1271.41 0.118735
1271.82 0.0808110
1272.64 0.0565284
1273.45 0.0556451
1274.27 0.0703293
1275.08 0.117885
1275.49 0.180955
1275.69 0.240761
1275.89 0.343465
1276.10 0.545682
1276.20 0.729293
1276.30 1.02750
1276.40 1.57142
1276.45 2.02403
1276.51 2.70281
1276.56 3.77829
1276.61 5.59908
1276.66 8.91336
1276.71 15.0397
1276.75 24.0286
1276.80 30.0184
1276.85 24.0309
1276.89 15.0438
1276.93 10.5890
1276.96 7.64634
1276.99 5.70120
1277.02 4.38273
1277.09 2.79727
1277.16 1.93361
1277.22 1.41811
1277.29 1.08814
1277.42 0.710183
1277.55 0.509118
1277.68 0.392645
1277.95 0.272260
1278.21 0.220297
1278.47 0.200352
1279.00 0.216258
1279.26 0.250801
1279.52 0.310976
1279.79 0.414246
1280.05 0.601301
1280.31 0.981256
1280.45 1.33631
1280.58 1.92809
1280.71 3.04073
1280.77 3.99662
1280.84 5.44837
1280.91 7.87803
1280.97 12.2540
1281.00 15.8238
1281.04 20.9942
1281.07 28.6355
1281.10 39.4854
1281.13 50.7581
1281.15 63.0986
1281.20 78.8126
1281.25 63.0952
1281.30 39.4809
1281.34 25.0170
1281.39 16.6191
1281.44 11.6395
1281.48 8.58752
1281.57 5.14675
1281.66 3.40641
1281.75 2.41510
1281.85 1.79994
1282.03 1.11029
1282.21 0.753758
1282.39 0.546079
1282.57 0.414642
1282.76 0.326223
1283.12 0.218086
1283.48 0.157258
1284.21 0.0945134
1284.94 0.0643403
1285.67 0.0475429
1287.13 0.0304136
1288.58 0.0223545
1290.04 0.0180354
1292.95 0.0142545
1295.87 0.0137610
1298.78 0.0162938
1300.24 0.0198252
1301.70 0.0279015
1302.43 0.0370415
1303.15 0.0586263
1303.52 0.0848527
1303.88 0.149745
1304.06 0.228323
1304.25 0.412597
1304.34 0.615349
1304.43 1.02570
1304.47 1.40981
1304.52 2.02642
1304.57 3.12614
1304.61 5.05784
1304.66 8.07110
1304.70 10.0803
1304.75 8.07256
1304.79 5.06056
1304.83 3.46851
1304.86 2.47725
1304.89 1.81951
1304.93 1.39532
1305.00 0.887200
1305.07 0.616350
1305.20 0.356525
1305.34 0.242463
1305.62 0.150896
1305.89 0.120016
1306.45 0.113348
1307.00 0.144304
1307.55 0.226824
1307.83 0.310145
1308.10 0.458622
1308.38 0.759260
1308.52 1.03982
1308.65 1.51395
1308.79 2.40755
1308.86 3.18232
1308.93 4.39348
1309.00 6.42692
1309.07 10.1744
1309.10 13.3579
1309.14 17.9354
1309.17 24.8444
1309.21 35.2711
1309.23 45.1960
1309.25 56.4985
1309.30 70.1914
1309.35 56.0261
1309.40 35.2682
1309.43 25.6017
1309.46 19.1291
1309.52 11.3895
1309.58 7.41311
1309.64 5.19560
1309.70 3.81106
1309.76 2.92125
1309.88 1.86269
1310.00 1.28598
1310.12 0.943490
1310.37 0.571198
1310.61 0.383667
1310.85 0.277034
1311.33 0.166140
1311.82 0.112661
1312.30 0.0830099
1313.27 0.0533014
1314.24 0.0398706
1315.21 0.0332458
1317.15 0.0293772
1319.09 0.0338796
1320.06 0.0404428
1321.03 0.0529833
1322.00 0.0795649
1322.48 0.105419
1322.97 0.151247
1323.45 0.245592
1323.69 0.335656
1323.94 0.492696
1324.18 0.806465
1324.30 1.09411
1324.42 1.57326
1324.54 2.45766
1324.60 3.21587
1324.66 4.35674
1324.72 6.24743
1324.78 9.52464
1324.84 15.9759
1324.87 21.3659
1324.90 29.1017
1324.95 46.6412
1325.00 58.3744
1325.05 46.6400
1325.10 29.1007
1325.14 18.4225
1325.19 12.2368
1325.23 8.57348
1325.28 6.33072
1325.36 3.80275
1325.45 2.52487
1325.54 1.79120
1325.63 1.34247
1325.81 0.840006
1325.99 0.580148
1326.17 0.430886
1326.52 0.275711
1326.88 0.203384
1327.24 0.167298
1327.95 0.147324
1328.66 0.177435
1329.02 0.220215
1329.38 0.301856
1329.73 0.473938
1329.91 0.638704
1330.09 0.921027
1330.27 1.47196
1330.36 1.96187
1330.45 2.75178
1330.54 4.13949
1330.63 6.88555
1330.67 9.39126
1330.72 13.3020
1330.76 20.0144
1330.80 31.2315
1330.83 39.9341
1330.85 49.8661
1330.90 62.2599
1330.95 49.8654
1331.00 31.2317
1331.05 18.7174
1331.10 12.0424
1331.15 8.25830
1331.20 5.97222
1331.25 4.48244
1331.30 3.50082
1331.40 2.30706
1331.50 1.63606
1331.60 1.23131
1331.80 0.786718
1332.00 0.564505
1332.20 0.443653
1332.60 0.345207
1333.00 0.363813
1333.21 0.425485
1333.41 0.552788
1333.61 0.824057
1333.71 1.07537
1333.81 1.49125
1333.91 2.25449
1333.96 2.88316
1334.01 3.82154
1334.06 5.29730
1334.11 7.76791
1334.16 12.1920
1334.21 20.4145
1334.25 32.6622
1334.30 40.5588
1334.35 32.3834
1334.39 20.4105
1334.42 14.7347
1334.46 10.8625
1334.52 6.45202
1334.58 4.20497
1334.64 2.94194
1334.70 2.17126
1334.76 1.66955
1334.88 1.08051
1335.00 0.762190
1335.13 0.571224
1335.37 0.363341
1335.62 0.258190
1335.86 0.198126
1336.35 0.135559
1336.84 0.105997
1337.32 0.0909437
1338.30 0.0819963
1339.28 0.0932973
1339.77 0.109651
1340.26 0.140563
1340.74 0.205049
1340.99 0.266418
1341.23 0.372989
1341.48 0.584099
1341.60 0.778135
1341.72 1.10200
1341.84 1.70273
1341.90 2.21575
1341.96 3.00598
1342.03 4.30600
1342.09 6.63164
1342.15 11.2334
1342.18 15.3033
1342.21 21.0707
1342.25 33.6417
1342.30 42.0131
1342.35 33.6453
1342.39 21.0771
1342.45 11.9102
1342.50 7.30811
1342.56 4.86521
1342.61 3.45565
1342.67 2.58082
1342.72 2.00499
1342.83 1.32755
1342.94 0.956086
1343.05 0.734834
1343.27 0.501387
1343.49 0.393168
1343.71 0.343330
1344.15 0.335457
1344.59 0.433384
1344.81 0.548367
1345.03 0.756322
1345.25 1.17593
1345.36 1.56086
1345.47 2.19019
1345.58 3.34454
1345.63 4.31028
1345.68 5.73323
1345.74 8.03385
1345.79 11.9592
1345.85 19.1868
1345.90 32.7868
1345.93 42.2720
1345.95 52.6739
1346.00 65.6012
1346.05 52.2417
1346.10 32.7904
1346.15 18.6670
1346.21 11.6022
1346.27 7.73836
1346.32 5.53160
1346.38 4.12898
1346.44 3.21841
1346.55 2.13105
1346.66 1.53263
1346.77 1.17776
1347.00 0.798661
1347.22 0.624034
1347.45 0.544643
1347.90 0.541856
1348.35 0.730357
1348.57 0.948966
1348.80 1.34735
1349.02 2.14962
1349.14 2.88888
1349.25 4.09748
1349.36 6.30920
1349.42 8.13405
1349.47 10.8634
1349.53 15.2686
1349.59 22.5926
1349.64 35.8446
1349.67 46.3963
1349.70 60.8335
1349.72 78.1745
1349.75 97.1886
1349.80 121.380
1349.85 97.1818
1349.90 60.8236
1349.93 45.0858
1349.96 33.9814
1350.03 20.6455
1350.09 13.6178
1350.15 9.58091
1350.21 7.08171
1350.27 5.43836
1350.40 3.50204
1350.52 2.43625
1350.64 1.79860
1350.89 1.09839
1351.14 0.744713
1351.39 0.541584
1351.63 0.414244
1351.88 0.329205
1352.37 0.226435
1352.87 0.169574
1353.86 0.115207
1354.84 0.0999592
1355.83 0.123203
1356.33 0.170931
1356.57 0.220103
1356.82 0.308531
1357.07 0.488013
1357.19 0.655888
1357.31 0.935724
1357.44 1.46246
1357.50 1.91529
1357.56 2.60255
1357.62 3.75446
1357.69 5.83128
1357.72 7.52740
1357.75 9.98670
1357.78 13.6269
1357.81 18.7938
1357.85 30.0895
1357.90 37.6364
1357.95 30.0899
1357.99 18.7939
1358.03 12.5445
1358.07 8.75796
1358.10 6.36394
1358.14 4.79587
1358.22 2.95702
1358.29 2.00405
1358.37 1.44010
1358.44 1.08912
1358.59 0.687992
1358.74 0.475679
1358.89 0.350840
1359.18 0.217731
1359.48 0.151408
1359.78 0.113733
1360.37 0.0742833
1361.56 0.0440822
1362.75 0.0331622
1363.94 0.0294113
1365.13 0.0323226
1365.73 0.0396552
1366.32 0.0614236
1366.62 0.0903820
1366.92 0.164167
1367.07 0.253612
1367.21 0.456242
1367.29 0.673560
1367.36 1.08501
1367.40 1.44207
1367.44 1.99144
1367.47 2.86856
1367.51 4.28246
1367.56 6.84549
1367.60 8.55641
1367.65 6.84579
1367.69 4.28290
1367.73 2.86906
1367.76 2.01060
1367.84 1.10954
1367.91 0.694102
1367.98 0.474768
1368.12 0.264425
1368.27 0.172533
1368.56 0.0961682
1368.85 0.0668899
1369.42 0.0469072
1370.00 0.0450587
1370.58 0.0558268
1371.16 0.0942771
1371.44 0.146615
1371.73 0.280935
1371.88 0.443747
1372.02 0.811360
1372.09 1.19677
1372.17 1.92769
1372.20 2.55644
1372.24 3.51526
1372.27 5.02825
1372.31 7.43291
1372.36 11.8782
1372.40 14.8393
1372.45 11.8784
1372.49 7.43310
1372.52 5.18947
1372.56 3.72104
1372.59 2.75821
1372.62 2.12603
1372.69 1.34334
1372.75 0.924993
1372.88 0.511957
1373.01 0.326860
1373.27 0.169059
1373.54 0.105806
1374.06 0.0562867
1374.58 0.0376740
1375.63 0.0237029
1376.67 0.0187548
1378.76 0.0159322
1380.85 0.0168466
1382.94 0.0213578
1383.98 0.0262443
1385.03 0.0351712
1386.07 0.0539244
1386.60 0.0722459
1387.12 0.104919
1387.64 0.172704
1387.90 0.237870
1388.16 0.352246
1388.42 0.581506
1388.55 0.795120
1388.68 1.15143
1388.82 1.82366
1388.88 2.39837
1388.95 3.28913
1389.01 4.79685
1389.08 7.50118
1389.11 9.76603
1389.14 12.9718
1389.17 17.9130
1389.21 25.0634
1389.25 40.1616
1389.30 50.2559
1389.35 40.1604
1389.39 25.0620
1389.43 17.7301
1389.46 12.8507
1389.49 9.60277
1389.53 7.38832
1389.59 4.70840
1389.66 3.25550
1389.72 2.36724
1389.79 1.79656
1389.92 1.13913
1390.05 0.785528
1390.18 0.577147
1390.45 0.352025
1390.71 0.240405
1390.97 0.177414
1391.50 0.113558
1392.02 0.0845850
1392.55 0.0705821
1393.60 0.0641947
1394.65 0.0795186
1395.18 0.0998694
1395.70 0.138579
1396.23 0.220946
1396.49 0.300839
1396.75 0.440679
1397.02 0.721986
1397.15 0.984152
1397.28 1.42156
1397.41 2.24697
1397.48 2.95952
1397.54 4.04740
1397.61 5.88209
1397.67 9.15582
1397.71 11.8839
1397.74 15.8740
1397.77 21.8437
1397.81 30.4371
1397.83 39.0597
1397.85 48.9135
1397.90 60.9005
1397.95 48.5019
1398.00 30.4363
1398.03 21.8436
1398.06 16.1712
1398.12 9.51022
1398.18 6.14787
1398.25 4.29303
1398.31 3.14450
1398.37 2.40050
1398.50 1.53709
1398.62 1.06951
1398.75 0.793342
1399.00 0.495527
1399.25 0.350219
1399.50 0.271773
1400.00 0.207214
1400.50 0.215951
1400.76 0.252497
1401.01 0.329769
1401.26 0.497913
1401.38 0.658749
1401.51 0.929446
1401.63 1.44261
1401.70 1.88587
1401.76 2.56128
1401.82 3.69812
1401.88 5.71516
1401.92 7.41989
1401.95 9.82196
1401.98 13.3686
1402.01 18.5911
1402.05 29.6408
1402.10 36.9751
1402.15 29.6402
1402.19 18.5895
1402.25 10.6046
1402.30 6.59177
1402.35 4.41760
1402.41 3.14462
1402.46 2.33382
1402.51 1.80724
1402.62 1.17630
1402.73 0.826262
1402.83 0.616138
1403.04 0.384818
1403.26 0.266568
1403.47 0.198557
1403.89 0.126597
1404.74 0.0712299
1405.59 0.0508657
1407.30 0.0378497
1409.00 0.0389058
1410.70 0.0523379
1411.55 0.0679208
1412.40 0.0972222
1413.25 0.159983
1413.67 0.221591
1414.10 0.331638
1414.31 0.422609
1414.52 0.557871
1414.74 0.773945
1414.95 1.14611
1415.16 1.87839
1415.27 2.53699
1415.37 3.61133
1415.48 5.55650
1415.53 7.14400
1415.59 9.49451
1415.64 13.1538
1415.69 19.1981
1415.74 29.8249
1415.77 38.2499
1415.80 49.1313
1415.82 63.0495
1415.85 78.9570
1415.90 98.3512
1415.95 78.3419
1416.00 49.1276
1416.04 33.8662
1416.08 24.2300
1416.12 17.7936
1416.16 13.5971
1416.23 8.53651
1416.31 5.83983
1416.39 4.21600
1416.46 3.18175
1416.62 1.99920
1416.77 1.36900
1416.92 0.999159
1417.08 0.762722
1417.23 0.602715
1417.54 0.406425
1417.84 0.296476
1418.15 0.229873
1418.46 0.188033
1419.07 0.147734
1419.68 0.157860
1419.99 0.200563
1420.30 0.327263
1420.45 0.488372
1420.60 0.861161
1420.68 1.26287
1420.76 2.02941
1420.80 2.72102
1420.83 3.77131
1420.87 5.46488
1420.91 8.22543
1420.96 13.1096
1421.00 16.3574
1421.05 13.1087
1421.09 8.22322
1421.13 5.51840
1421.16 3.83683
1421.20 2.78209
1421.24 2.09585
1421.31 1.30418
1421.39 0.893724
1421.53 0.498948
1421.68 0.324407
1421.97 0.177511
1422.27 0.118688
1422.86 0.0715631
1423.45 0.0531308
1424.62 0.0395663
1425.80 0.0379060
1426.98 0.0460189
1428.15 0.0774286
1428.74 0.122317
1429.04 0.166335
1429.33 0.244484
1429.63 0.403848
1429.77 0.552964
1429.92 0.806487
1430.07 1.28893
1430.14 1.71511
1430.21 2.37951
1430.29 3.52923
1430.36 5.67136
1430.40 7.53079
1430.43 10.3640
1430.47 14.8271
1430.51 21.6617
1430.55 34.7688
1430.60 43.2465
1430.65 34.4706
1430.69 21.6601
1430.74 13.6768
1430.78 9.14176
1430.82 6.43265
1430.87 4.73278
1430.95 2.84005
1431.04 1.88160
1431.12 1.33531
1431.21 0.996177
1431.38 0.615899
1431.56 0.418473
1431.73 0.304344
1432.07 0.183584
1432.42 0.124281
1432.76 0.0910177
1433.45 0.0569039
1434.14 0.0407292
1434.83 0.0319766
1436.20 0.0239847
1437.58 0.0225013
1438.96 0.0282595
1439.65 0.0384509
1440.33 0.0674372
1440.68 0.106005
1441.02 0.205647
1441.19 0.328222
1441.37 0.615828
1441.45 0.929921
1441.54 1.55702
1441.58 2.12673
1441.62 3.04533
1441.67 4.60679
1441.71 7.32295
1441.76 11.7006
1441.80 14.6154
1441.85 11.7009
1441.89 7.32343
1441.94 4.20523
1441.99 2.60430
1442.05 1.74037
1442.10 1.24368
1442.20 0.714681
1442.30 0.465083
1442.51 0.243683
1442.72 0.152332
1443.13 0.0798997
1443.55 0.0527883
1444.37 0.0337559
1445.20 0.0298369
1446.03 0.0342977
1446.86 0.0545798
1447.27 0.0834929
1447.68 0.160694
1447.89 0.258185
1448.10 0.494814
1448.20 0.765560
1448.30 1.32915
1448.36 1.87587
1448.41 2.79140
1448.46 4.51481
1448.51 7.78287
1448.56 12.4301
1448.60 15.5218
1448.65 12.4304
1448.69 7.78323
1448.74 4.70123
1448.78 3.01620
1448.83 2.06314
1448.88 1.49815
1448.97 0.881284
1449.06 0.578351
1449.25 0.305097
1449.44 0.190037
1449.81 0.0970687
1450.18 0.0614337
1450.93 0.0344241
1451.67 0.0247043
1453.16 0.0182812
1454.65 0.0173727
1457.63 0.0260109
1458.38 0.0342781
1459.12 0.0550546
1459.49 0.0812797
1459.87 0.147779
1460.05 0.230021
1460.24 0.424032
1460.33 0.639031
1460.42 1.07720
1460.47 1.49001
1460.52 2.15750
1460.56 3.35838
1460.61 5.49269
1460.66 8.76079
1460.70 10.9344
1460.75 8.76149
1460.79 5.49391
1460.82 3.96577
1460.85 2.95300
1460.91 1.75409
1460.97 1.14490
1461.03 0.807800
1461.14 0.462391
1461.26 0.304637
1461.50 0.168903
1461.73 0.115135
1462.20 0.0754119
1462.67 0.0640222
1463.61 0.0668570
1464.54 0.0900316
1465.48 0.146443
1465.95 0.203155
1466.42 0.305316
1466.66 0.390178
1466.89 0.517572
1467.13 0.721298
1467.36 1.07472
1467.60 1.77684
1467.71 2.41539
1467.83 3.46913
1467.95 5.40824
1468.01 7.03698
1468.06 9.44978
1468.12 13.3670
1468.18 19.9470
1468.24 32.3172
1468.27 42.1950
1468.30 55.8695
1468.32 71.8105
1468.35 89.2895
1468.40 111.528
1468.45 89.2857
1468.50 55.8651
1468.55 36.3364
1468.59 24.6208
1468.64 17.4872
1468.68 13.0309
1468.77 7.90959
1468.86 5.27290
1468.95 3.75429
1469.04 2.80490
1469.22 1.73332
1469.39 1.17372
1469.57 0.848957
1469.75 0.642996
1469.93 0.504318
1470.29 0.334742
1470.64 0.239572
1471.00 0.180670
1471.35 0.141960
1472.07 0.0958547
1472.78 0.0708715
1473.49 0.0562931
1474.21 0.0476675
1475.63 0.0416802
1477.06 0.0524140
1477.77 0.0737137
1478.48 0.135777
1478.84 0.218884
1479.02 0.297892
1479.20 0.434248
1479.37 0.699541
1479.46 0.937391
1479.55 1.32258
1479.64 2.00352
1479.73 3.36427
1479.77 4.61910
1479.82 6.59925
1479.86 10.0506
1479.91 15.9328
1479.95 25.6219
1480.00 31.9102
1480.05 25.4025
1480.09 15.9335
1480.13 10.8968
1480.16 7.75448
1480.20 5.66839
1480.24 4.32013
1480.31 2.70281
1480.38 1.84721
1480.45 1.33341
1480.52 1.01083
1480.66 0.636982
1480.80 0.438237
1480.94 0.321849
1481.22 0.197130
1481.51 0.135239
1481.79 0.100471
1482.35 0.0653519
1483.48 0.0484893
1484.05 0.0775360
1484.33 0.173336
1484.47 0.377509
1484.54 0.669866
1484.61 1.37478
1484.66 2.19145
1484.70 2.71853
1484.75 2.17174
1484.79 1.37396
1484.85 0.727262
1484.91 0.434866
1485.03 0.204904
1485.27 0.0855337
1485.75 0.0393922
1486.72 0.0242235
1488.65 0.0234437
1489.61 0.0302645
1490.58 0.0518397
1491.06 0.0815500
1491.54 0.160889
1491.79 0.262736
1491.91 0.357167
1492.03 0.514013
1492.15 0.808332
1492.21 1.05815
1492.27 1.44260
1492.33 2.08776
1492.39 3.22632
1492.45 5.47502
1492.48 7.42154
1492.51 10.2695
1492.56 16.5031
1492.60 20.5409
1492.65 16.3591
1492.69 10.2700
1492.72 7.58063
1492.75 5.74977
1492.80 3.52793
1492.86 2.32660
1492.91 1.64636
1492.96 1.21587
1493.02 0.937416
1493.13 0.605282
1493.24 0.421927
1493.34 0.312258
1493.56 0.191720
1494.00 0.0958624
1494.43 0.0595162
1495.30 0.0320667
1496.17 0.0220656
1497.90 0.0148415
1499.64 0.0125392
1503.12 0.0120274
1506.59 0.0143468
1510.07 0.0207419
1511.80 0.0273857
1513.54 0.0395986
1514.41 0.0499187
1515.28 0.0656921
1516.15 0.0915571
1517.02 0.138322
1517.45 0.177526
1517.89 0.236828
1518.32 0.333274
1518.75 0.504841
1518.97 0.646827
1519.19 0.857908
1519.41 1.19297
1519.62 1.77164
1519.84 2.90062
1519.95 3.92239
1520.06 5.56879
1520.17 8.52709
1520.22 10.9236
1520.27 14.4461
1520.33 20.0028
1520.38 28.9384
1520.41 35.5645
1520.44 44.3785
1520.46 56.1704
1520.49 71.8052
1520.52 92.5165
1520.55 115.304
1520.60 143.599
1520.63 134.708
1520.66 114.455
1520.71 71.7992
1520.76 45.9110
1520.81 30.9407
1520.86 21.7520
1520.91 16.0791
1521.01 9.65862
1521.11 6.39674
1521.20 4.53398
1521.30 3.37620
1521.50 2.08117
1521.70 1.40683
1521.90 1.01581
1522.09 0.767067
1522.29 0.600698
1522.69 0.396984
1523.08 0.282741
1523.48 0.212194
1523.87 0.165623
1524.66 0.109909
1525.45 0.0792672
1526.24 0.0606814
1527.03 0.0486311
1528.61 0.0346757
1530.19 0.0275466
1533.35 0.0222898
1536.52 0.0242196
1538.10 0.0285297
1539.68 0.0373888
1541.26 0.0570390
1542.05 0.0766428
1542.84 0.112127
1543.63 0.186764
1544.02 0.259501
1544.42 0.388924
1544.62 0.495639
1544.81 0.653889
1545.01 0.906046
1545.21 1.33846
1545.41 2.18433
1545.51 2.94459
1545.60 4.16333
1545.70 6.34201
1545.75 8.13756
1545.80 10.7194
1545.85 14.7735
1545.90 21.2227
1545.95 32.2260
1545.97 40.7317
1546.00 51.4678
1546.02 66.2353
1546.05 82.4710
1546.10 103.194
1546.15 82.4679
1546.20 51.4642
1546.23 37.7364
1546.27 28.1824
1546.33 17.0186
1546.39 11.1133
1546.46 7.80297
1546.52 5.73179
1546.58 4.39695
1546.71 2.81558
1546.84 1.94927
1546.96 1.42942
1547.22 0.866251
1547.47 0.582399
1547.72 0.421068
1547.98 0.320542
1548.23 0.253889
1548.74 0.174241
1549.24 0.131348
1549.75 0.106752
1550.26 0.0929786
1551.27 0.0874203
1552.28 0.119485
1552.79 0.173930
1553.04 0.228425
1553.29 0.325424
1553.55 0.522283
1553.68 0.705601
1553.80 1.01120
1553.93 1.58678
1553.99 2.07741
1554.05 2.83546
1554.12 4.11324
1554.18 6.38747
1554.21 8.27861
1554.24 10.9330
1554.28 14.9896
1554.31 20.7879
1554.35 33.3180
1554.40 41.4079
1554.45 33.0350
1554.49 20.7886
1554.53 14.6858
1554.56 10.7300
1554.59 8.00264
1554.62 6.19492
1554.69 3.96024
1554.75 2.73146
1554.82 1.99293
1554.88 1.51744
1555.01 0.965460
1555.14 0.670674
1555.27 0.495407
1555.53 0.306554
1555.79 0.212507
1556.05 0.159093
1556.57 0.104185
1557.61 0.0648711
1558.65 0.0546471
1559.69 0.0577845
1560.73 0.0798181
1561.25 0.110750
1561.77 0.191479
1562.03 0.293129
1562.16 0.386915
1562.29 0.544331
1562.42 0.839194
1562.49 1.09377
1562.55 1.49047
1562.62 2.15402
1562.68 3.37104
1562.71 4.40145
1562.75 5.87463
1562.78 8.08746
1562.81 11.4114
1562.86 18.3147
1562.90 22.7885
1562.95 18.1569
1562.99 11.4156
1563.02 8.09286
1563.05 5.93743
1563.09 4.44706
1563.12 3.45856
1563.18 2.23391
1563.24 1.56792
1563.31 1.15981
1563.37 0.897704
1563.49 0.596889
1563.62 0.436834
1563.74 0.344559
1563.99 0.250985
1564.50 0.202039
1565.00 0.231392
1565.50 0.342006
1565.75 0.458453
1566.00 0.666057
1566.25 1.08573
1566.37 1.47188
1566.50 2.11542
1566.63 3.31512
1566.69 4.33644
1566.75 5.87172
1566.81 8.40856
1566.88 12.7911
1566.94 21.3569
1566.97 28.4670
1567.00 38.6051
1567.03 49.3460
1567.05 61.5886
1567.10 76.8422
1567.15 61.5857
1567.20 38.6013
1567.25 23.8035
1567.30 15.6188
1567.35 10.7723
1567.40 7.85843
1567.45 5.92881
1567.50 4.64271
1567.60 3.05883
1567.69 2.15608
1567.79 1.60537
1567.99 0.988031
1568.19 0.670804
1568.38 0.486743
1568.78 0.292597
1569.17 0.197647
1569.57 0.144210
1570.35 0.0893450
1571.14 0.0632338
1571.93 0.0489189
1573.51 0.0351647
1575.08 0.0305334
1576.66 0.0330059
1577.45 0.0399618
1578.23 0.0609761
1578.63 0.0893870
1579.02 0.164084
1579.22 0.257540
1579.42 0.482065
1579.52 0.736074
1579.61 1.25675
1579.66 1.76031
1579.71 2.59318
1579.76 4.09308
1579.81 6.90288
1579.86 11.0061
1579.90 13.7308
1579.95 11.0064
1579.99 6.90325
1580.02 4.92923
1580.05 3.63571
1580.11 2.14530
1580.17 1.39227
1580.23 0.971358
1580.35 0.547314
1580.47 0.354252
1580.71 0.187767
1580.95 0.120754
1581.44 0.0680769
1581.92 0.0485013
1582.88 0.0344326
1583.84 0.0302199
1585.77 0.0301450
1587.69 0.0360147
1589.62 0.0506191
1590.58 0.0652686
1591.55 0.0916999
1592.51 0.147106
1592.99 0.201308
1593.47 0.297936
1593.71 0.377920
1593.95 0.497828
1594.20 0.689450
1594.44 1.02191
1594.68 1.68284
1594.80 2.28473
1594.92 3.27946
1595.04 5.11383
1595.10 6.64287
1595.16 8.95310
1595.22 12.6508
1595.28 19.0030
1595.31 23.9506
1595.34 30.8207
1595.37 40.4787
1595.40 53.9659
1595.42 69.2133
1595.45 86.6192
1595.50 107.811
1595.53 101.364
1595.55 85.9469
1595.60 53.9622
1595.64 38.2709
1595.68 27.7899
1595.71 20.7931
1595.75 16.1232
1595.82 10.2725
1595.89 7.09549
1595.96 5.15577
1596.03 3.92345
1596.18 2.47969
1596.32 1.70832
1596.46 1.24967
1596.75 0.755605
1597.03 0.509725
1597.32 0.370134
1597.61 0.283506
1597.89 0.226359
1598.46 0.157849
1599.03 0.120500
1600.18 0.0843308
1601.32 0.0696597
1602.46 0.0643219
1604.75 0.0683022
1607.04 0.0894753
1608.18 0.110424
1609.32 0.145469
1610.47 0.211526
1611.04 0.270899
1611.61 0.370528
1612.18 0.565446
1612.47 0.746500
1612.75 1.05600
1613.04 1.66650
1613.18 2.22637
1613.32 3.16088
1613.47 4.89727
1613.54 6.39662
1613.61 8.68050
1613.68 12.5094
1613.75 19.3051
1613.79 24.9231
1613.82 32.8107
1613.86 44.7734
1613.89 61.8621
1613.92 79.4155
1613.95 98.6822
1614.00 123.166
1614.03 115.715
1614.05 98.6880
1614.11 61.8771
1614.15 42.8363
1614.19 30.7686
1614.22 22.8595
1614.26 17.5334
1614.34 11.1715
1614.42 7.72873
1614.50 5.68348
1614.58 4.37933
1614.73 2.88509
1614.89 2.10066
1615.04 1.65218
1615.36 1.20465
1615.67 1.03030
1615.98 0.989430
1616.61 1.16342
1617.23 1.74615
1617.54 2.33840
1617.86 3.36386
1618.17 5.34502
1618.33 7.08553
1618.48 9.84495
1618.64 14.5686
1618.72 18.2781
1618.79 23.5337
1618.87 31.2509
1618.95 43.0274
1619.03 61.6304
1619.11 91.2451
1619.20 146.447
1619.30 182.823
1619.40 145.826
1619.50 91.2211
1619.58 59.8439
1619.66 41.0081
1619.75 29.3767
1619.83 21.8960
1620.00 13.3279
1620.16 8.92375
1620.33 6.36361
1620.49 4.76939
1620.83 2.96303
1621.16 2.01758
1621.49 1.46398
1621.83 1.11235
1622.16 0.875779
1622.82 0.585343
1623.49 0.421355
1624.15 0.319535
1624.82 0.252242
1626.15 0.171709
1627.48 0.127780
1628.81 0.102026
1630.14 0.0867404
1632.81 0.0762657
1634.14 0.0807370
1635.47 0.0959114
1636.80 0.134735
1637.46 0.175166
1638.13 0.249220
1638.46 0.311403
1638.80 0.405549
1639.13 0.557643
1639.46 0.825554
1639.63 1.04541
1639.79 1.36859
1639.96 1.87447
1640.13 2.73065
1640.29 4.36285
1640.38 5.77814
1640.46 8.00099
1640.54 11.7590
1640.62 18.7615
1640.67 24.7636
1640.71 33.5404
1640.75 47.4192
1640.79 68.3896
1640.82 87.9319
1640.85 109.456
1640.90 136.855
1640.96 109.452
1641.01 68.3842
1641.05 47.0063
1641.09 33.5363
1641.14 24.5877
1641.18 18.7584
1641.26 11.7566
1641.34 7.99910
1641.43 5.77664
1641.51 4.36166
1641.67 2.74364
1641.84 1.88189
1642.00 1.37580
1642.34 0.831735
1642.67 0.562057
1643.00 0.410477
1643.33 0.317279
1643.66 0.256730
1644.32 0.189666
1644.99 0.170921
1645.32 0.186851
1645.65 0.252779
1645.81 0.342736
1645.98 0.557731
1646.06 0.794577
1646.15 1.26567
1646.19 1.69700
1646.23 2.36984
1646.27 3.49162
1646.31 5.39643
1646.36 8.58586
1646.40 10.7138
1646.45 8.58440
1646.49 5.39335
1646.52 3.82459
1646.55 2.78492
1646.62 1.63904
1646.68 1.06766
1646.74 0.759158
1646.87 0.451249
1647.00 0.310741
1647.25 0.189709
1647.51 0.139881
1648.01 0.0986340
1648.52 0.0817367
1649.54 0.0680989
1650.55 0.0643832
1651.57 0.0666607
1652.58 0.0782250
1653.09 0.0935962
1653.60 0.132555
1653.85 0.181108
1654.10 0.300459
1654.23 0.440100
1654.36 0.747528
1654.42 1.06288
1654.48 1.62975
1654.55 2.78150
1654.58 3.82683
1654.61 5.34276
1654.66 8.50207
1654.70 10.6064
1654.75 8.50305
1654.79 5.34456
1654.83 3.67345
1654.86 2.60813
1654.93 1.47398
1655.00 0.944700
1655.07 0.663506
1655.21 0.394069
1655.35 0.275346
1655.63 0.178036
1655.91 0.141917
1656.47 0.120053
1657.03 0.120075
1658.15 0.146138
1659.27 0.206516
1659.83 0.258945
1660.39 0.339145
1660.95 0.469699
1661.51 0.702464
1661.79 0.893830
1662.07 1.17889
1662.35 1.63016
1662.63 2.40633
1662.91 3.91081
1663.05 5.25515
1663.19 7.42505
1663.33 11.2429
1663.40 14.3264
1663.47 18.8152
1663.54 25.6459
1663.61 36.5788
1663.68 54.9762
1663.75 86.5801
1663.83 138.450
1663.90 172.999
1663.98 138.440
1664.05 86.5693
1664.10 63.1519
1664.15 47.2302
1664.24 28.2365
1664.34 18.4265
1664.43 12.8660
1664.53 9.45487
1664.62 7.22674
1664.81 4.60378
1665.00 3.18435
1665.19 2.33323
1665.57 1.40919
1665.95 0.945842
1666.33 0.681396
1666.71 0.516584
1667.09 0.407126
1667.85 0.275727
1668.61 0.203402
1669.37 0.160029
1670.13 0.132697
1671.65 0.104525
1673.17 0.0992789
1673.93 0.106915
1674.69 0.131498
1675.07 0.161989
1675.45 0.235307
1675.64 0.321784
1675.83 0.521748
1675.93 0.741096
1676.02 1.18722
1676.07 1.60830
1676.12 2.29248
1676.16 3.53201
1676.21 5.75862
1676.26 9.10535
1676.30 11.3268
1676.35 9.11193
1676.39 5.77166
1676.42 4.03944
1676.46 2.94572
1676.52 1.74536
1676.59 1.17008
1676.66 0.861560
1676.79 0.569952
1676.92 0.452098
1677.18 0.395737
1677.45 0.456190
1677.71 0.648395
1677.85 0.840011
1677.98 1.16858
1678.11 1.79590
1678.18 2.33554
1678.24 3.17526
1678.31 4.57466
1678.37 7.12378
1678.41 9.22724
1678.44 12.3074
1678.47 16.9231
1678.51 23.8329
1678.55 37.9640
1678.60 47.3389
1678.65 37.9622
1678.69 23.8302
1678.73 15.9336
1678.77 11.1391
1678.81 8.10720
1678.85 6.12175
1678.92 3.81625
1679.00 2.60162
1679.08 1.88449
1679.15 1.43883
1679.30 0.930873
1679.46 0.663300
1679.61 0.507763
1679.91 0.343348
1680.22 0.264188
1680.52 0.221896
1681.13 0.185454
1682.35 0.187270
1683.57 0.245581
1684.18 0.302525
1684.79 0.391939
1685.40 0.539497
1686.01 0.804490
1686.31 1.02351
1686.62 1.35063
1686.92 1.87004
1687.23 2.76292
1687.53 4.50676
1687.68 6.06700
1687.83 8.59498
1687.99 13.1082
1688.06 16.7596
1688.14 22.1088
1688.22 30.3179
1688.29 43.6097
1688.37 66.3341
1688.41 83.5240
1688.44 106.152
1688.52 170.134
1688.60 212.015
1688.68 169.258
1688.76 106.138
1688.83 68.7240
1688.90 46.4084
1688.97 32.8840
1689.04 24.4095
1689.18 14.7680
1689.31 9.82849
1689.45 6.99276
1689.59 5.22415
1689.87 3.23319
1690.15 2.19884
1690.43 1.60007
1690.71 1.22363
1690.98 0.974321
1691.54 0.688542
1692.10 0.587944
1692.37 0.625302
1692.65 0.823082
1692.79 1.09535
1692.86 1.34305
1692.93 1.73239
1693.00 2.40736
1693.07 3.65435
1693.10 4.72499
1693.14 6.33531
1693.17 8.82799
1693.21 12.5594
1693.25 19.8902
1693.30 24.7586
1693.35 19.8814
1693.39 12.5415
1693.44 7.97218
1693.48 5.38684
1693.52 3.81930
1693.57 2.86447
1693.65 1.79138
1693.74 1.24892
1693.83 0.938648
1693.91 0.744535
1694.09 0.523911
1694.44 0.332309
1694.78 0.249338
1695.48 0.172703
1696.17 0.135148
1697.56 0.0967839
1698.95 0.0780561
1700.34 0.0691702
1701.73 0.0689212
1703.12 0.0919331
1703.47 0.114814
1703.82 0.172839
1703.99 0.243782
1704.16 0.408551
1704.25 0.589361
1704.34 0.951671
1704.38 1.28705
1704.42 1.81789
1704.47 2.72009
1704.51 4.28940
1704.56 6.81890
1704.60 8.50357
1704.65 6.81975
1704.69 4.29099
1704.74 2.44218
1704.80 1.52853
1704.85 1.03940
1704.90 0.755438
1705.01 0.461554
1705.12 0.322732
1705.33 0.202200
1705.54 0.154282
1705.96 0.120656
1706.39 0.114059
1707.24 0.129166
1708.09 0.174605
1708.51 0.215480
1708.94 0.278452
1709.36 0.381719
1709.78 0.565777
1710.00 0.717902
1710.21 0.943432
1710.42 1.29989
1710.63 1.91136
1710.85 3.09925
1710.95 4.15285
1711.06 5.84581
1711.16 8.80463
1711.27 14.6108
1711.32 19.7891
1711.38 27.9801
1711.43 41.5471
1711.48 64.4071
1711.54 103.094
1711.60 128.908
1711.66 103.089
1711.72 64.4013
1711.76 44.2837
1711.81 31.3560
1711.85 23.0121
1711.90 17.4615
1711.99 10.9135
1712.08 7.41101
1712.17 5.34378
1712.26 4.02955
1712.44 2.52826
1712.62 1.73009
1712.80 1.26141
1712.98 0.960383
1713.16 0.757779
1713.51 0.508357
1713.87 0.367071
1714.23 0.279447
1714.59 0.221449
1715.31 0.152066
1716.03 0.114066
1717.46 0.0776428
1718.90 0.0655811
1720.34 0.0731754
1721.05 0.0933432
1721.77 0.153948
1722.13 0.235438
1722.31 0.313482
1722.49 0.447614
1722.67 0.710675
1722.76 0.947466
1722.85 1.32701
1722.94 2.00700
1722.98 2.56144
1723.03 3.37599
1723.07 4.63059
1723.12 6.67153
1723.16 10.1812
1723.21 16.1894
1723.25 25.8697
1723.30 32.3182
1723.35 25.8702
1723.39 16.1901
1723.44 9.59094
1723.49 6.12288
1723.54 4.17721
1723.59 3.01017
1723.64 2.25315
1723.69 1.75628
1723.79 1.15376
1723.89 0.815567
1723.98 0.611398
1724.18 0.385601
1724.38 0.269994
1724.57 0.203478
1724.97 0.134208
1725.75 0.0827748
1726.54 0.0657572
1728.11 0.0598600
1729.69 0.0717346
1731.26 0.106951
1732.05 0.143713
1732.83 0.210750
1733.23 0.266926
1733.62 0.351588
1734.01 0.488078
1734.41 0.729148
1734.60 0.926425
1734.80 1.21865
1735.00 1.67800
1735.19 2.45517
1735.39 3.94419
1735.49 5.24511
1735.59 7.30355
1735.68 10.8696
1735.78 17.5860
1735.83 23.3680
1735.88 32.1922
1735.93 46.1298
1735.98 68.3008
1736.04 109.081
1736.10 136.191
1736.16 109.077
1736.22 68.2980
1736.27 45.0748
1736.33 31.1030
1736.38 22.2603
1736.43 16.6665
1736.53 10.1932
1736.63 6.85804
1736.74 4.90489
1736.84 3.69125
1737.04 2.31043
1737.25 1.59435
1737.45 1.18087
1737.66 0.926022
1737.86 0.764651
1738.27 0.615231
1738.48 0.614375
1738.68 0.680964
1738.89 0.876053
1738.99 1.07501
1739.09 1.41138
1739.20 2.03820
1739.25 2.55738
1739.30 3.33338
1739.35 4.58387
1739.40 6.64500
1739.45 10.3309
1739.50 17.1753
1739.55 27.4395
1739.60 34.3122
1739.65 27.4308
1739.70 17.1577
1739.74 10.6003
1739.79 6.93638
1739.84 4.82636
1739.89 3.55807
1739.98 2.14463
1740.08 1.44946
1740.17 1.05209
1740.27 0.808446
1740.46 0.533072
1740.65 0.387307
1740.84 0.300265
1741.22 0.204030
1741.99 0.121639
1742.75 0.0854526
1744.27 0.0523988
1745.80 0.0371987
1747.33 0.0286826
1748.85 0.0233987
1751.90 0.0176042
1754.95 0.0152719
1758.01 0.0162005
1759.53 0.0195191
1761.06 0.0301118
1761.82 0.0449807
1762.58 0.0859058
1762.97 0.140129
1763.35 0.281100
1763.54 0.456844
1763.63 0.614934
1763.73 0.872935
1763.82 1.34107
1763.92 2.28923
1763.97 3.18320
1764.01 4.63090
1764.06 7.23854
1764.11 11.8892
1764.15 19.0515
1764.20 23.8409
1764.25 19.0519
1764.29 11.8897
1764.32 8.43792
1764.36 6.19066
1764.39 4.63133
1764.42 3.59395
1764.48 2.30423
1764.54 1.59131
1764.61 1.16129
1764.67 0.883728
1764.80 0.560722
1765.05 0.284880
1765.30 0.173814
1765.80 0.0869027
1766.31 0.0542993
1767.32 0.0299154
1768.32 0.0211920
1770.34 0.0152707
1772.35 0.0141481
1774.37 0.0156432
1776.38 0.0219766
1777.39 0.0309332
1778.40 0.0554768
1778.90 0.0881766
1779.40 0.174803
1779.65 0.285656
1779.91 0.561465
1780.03 0.885266
1780.10 1.16412
1780.16 1.59706
1780.22 2.31689
1780.28 3.62422
1780.32 4.72021
1780.35 6.26977
1780.38 8.56735
1780.41 11.9670
1780.46 19.1853
1780.50 23.8429
1780.55 19.0189
1780.59 11.9677
1780.63 8.13270
1780.66 5.70395
1780.70 4.15665
1780.73 3.16116
1780.81 1.97231
1780.88 1.33933
1780.95 0.962747
1781.02 0.727818
1781.16 0.458690
1781.45 0.232685
1781.73 0.143396
1782.30 0.0747419
1782.87 0.0497111
1784.01 0.0326086
1785.15 0.0289086
1786.29 0.0312838
1787.43 0.0420996
1788.00 0.0563484
1788.57 0.0928781
1788.86 0.138877
1789.14 0.253708
1789.28 0.391241
1789.43 0.699566
1789.50 1.02112
1789.57 1.62784
1789.60 2.15612
1789.64 2.93551
1789.68 4.19383
1789.71 6.12335
1789.76 9.76764
1789.80 12.1933
1789.85 9.76849
1789.89 6.12489
1789.92 4.51672
1789.95 3.39183
1790.00 2.07226
1790.06 1.36856
1790.11 0.973681
1790.22 0.565921
1790.33 0.375523
1790.56 0.211129
1790.78 0.145416
1791.22 0.0971562
1791.67 0.0837884
1792.55 0.0891969
1793.44 0.121366
1794.33 0.198368
1794.77 0.275544
1795.21 0.413619
1795.44 0.527755
1795.66 0.698256
1795.88 0.969089
1796.10 1.43420
1796.32 2.34420
1796.43 3.16246
1796.54 4.49198
1796.66 6.85395
1796.71 8.80105
1796.77 11.6109
1796.82 16.0215
1796.88 23.0699
1796.93 35.1380
1796.96 44.4682
1796.99 56.3134
1797.02 72.4565
1797.04 90.1992
1797.10 112.174
1797.16 89.5631
1797.21 56.3090
1797.26 38.1609
1797.30 26.9010
1797.35 19.6771
1797.39 14.8932
1797.48 9.27499
1797.57 6.28261
1797.66 4.50565
1797.74 3.39329
1797.92 2.11891
1798.10 1.44391
1798.27 1.04860
1798.45 0.795122
1798.63 0.624771
1798.98 0.415333
1799.33 0.296856
1799.68 0.223436
1800.04 0.174852
1800.74 0.116686
1801.45 0.0846898
1802.16 0.0654617
1802.86 0.0533137
1804.27 0.0410229
1805.69 0.0412274
1806.39 0.0499519
1807.10 0.0788368
1807.45 0.118548
1807.80 0.222572
1807.98 0.351738
1808.16 0.654276
1808.25 0.990384
1808.33 1.65856
1808.38 2.26815
1808.42 3.25549
1808.47 4.94452
1808.51 7.90778
1808.56 12.7120
1808.60 15.8286
1808.65 12.6008
1808.69 7.90802
1808.73 5.15094
1808.77 3.49728
1808.81 2.49008
1808.85 1.84914
1808.93 1.12580
1809.01 0.754922
1809.17 0.408967
1809.33 0.259223
1809.65 0.136240
1809.97 0.0884969
1810.61 0.0531807
1811.25 0.0431187
1811.89 0.0449437
1812.53 0.0648921
1812.85 0.0948076
1813.17 0.174032
1813.33 0.271531
1813.49 0.498204
1813.57 0.742396
1813.65 1.22096
1813.69 1.64689
1813.73 2.31886
1813.77 3.42689
1813.81 5.22166
1813.86 8.33521
1813.90 10.4068
1813.95 8.33520
1813.99 5.22151
1814.04 3.06257
1814.09 1.94226
1814.14 1.31017
1814.19 0.942877
1814.29 0.549996
1814.39 0.361880
1814.58 0.192858
1814.78 0.122233
1815.17 0.0652956
1815.57 0.0433588
1817.15 0.0200868
1820.30 0.0145279
1823.46 0.0210574
1824.24 0.0284001
1825.03 0.0479580
1825.43 0.0733648
1825.82 0.138876
1826.02 0.220219
1826.22 0.414975
1826.32 0.634975
1826.41 1.08563
1826.46 1.52133
1826.51 2.24185
1826.56 3.53929
1826.61 5.96965
1826.66 9.51866
1826.70 11.8753
1826.75 9.51924
1826.79 5.97065
1826.82 4.21871
1826.85 3.08464
1826.92 1.78452
1826.98 1.14440
1827.04 0.792709
1827.17 0.445765
1827.29 0.289421
1827.54 0.156480
1827.80 0.104527
1828.30 0.0686702
1828.80 0.0645380
1829.30 0.0813553
1829.81 0.142028
1830.06 0.223512
1830.31 0.428435
1830.43 0.670848
1830.56 1.19903
1830.62 1.73653
1830.68 2.71388
1830.72 3.53428
1830.75 4.69575
1830.78 6.42125
1830.81 8.98166
1830.86 14.4469
1830.90 17.9941
1830.95 14.3202
1830.99 8.98167
1831.04 5.23020
1831.09 3.29909
1831.14 2.23216
1831.19 1.59888
1831.29 0.929411
1831.39 0.606124
1831.59 0.318146
1831.79 0.198076
1832.19 0.101640
1832.59 0.0647934
1833.39 0.0369151
1834.20 0.0269464
1835.80 0.0206810
1837.40 0.0206118
1839.00 0.0247902
1840.60 0.0382204
1841.40 0.0563044
1842.21 0.104873
1842.61 0.168566
1843.01 0.333717
1843.21 0.540524
1843.31 0.727332
1843.41 1.03361
1843.51 1.58534
1843.56 2.04183
1843.61 2.72238
1843.66 3.79173
1843.71 5.58095
1843.76 8.78372
1843.81 14.7350
1843.85 23.5988
1843.90 29.3137
1843.95 23.3989
1843.99 14.7360
1844.04 9.22829
1844.08 6.07765
1844.13 4.23225
1844.17 3.09159
1844.22 2.34794
1844.26 1.84017
1844.35 1.21541
1844.44 0.862571
1844.53 0.644955
1844.71 0.403487
1844.89 0.278705
1845.07 0.206889
1845.43 0.131428
1846.15 0.0755106
1846.87 0.0571665
1848.30 0.0505508
1849.74 0.0616244
1850.46 0.0741301
1851.18 0.0943601
1851.90 0.128391
1852.62 0.190411
1852.98 0.242443
1853.33 0.320942
1853.69 0.447696
1854.05 0.671971
1854.23 0.855799
1854.41 1.12652
1854.59 1.55428
1854.77 2.27794
1854.95 3.66535
1855.04 4.88522
1855.13 6.79321
1855.22 10.0912
1855.31 16.3644
1855.35 21.7771
1855.40 30.0551
1855.44 43.1629
1855.49 63.4933
1855.52 81.3227
1855.54 101.729
1855.60 127.280
1855.63 119.758
1855.66 101.725
1855.71 63.4888
1855.75 44.6527
1855.79 32.4568
1855.83 24.3092
1855.87 18.7362
1855.95 11.9665
1856.03 8.23900
1856.10 5.99623
1856.18 4.55102
1856.34 2.87194
1856.49 1.97025
1856.65 1.43815
1856.96 0.864438
1857.28 0.577956
1857.59 0.415829
1857.90 0.315131
1858.21 0.248479
1858.84 0.168858
1859.46 0.125750
1860.09 0.100659
1860.71 0.0860169
1861.96 0.0768805
1863.21 0.0988047
1863.83 0.139936
1864.14 0.181928
1864.46 0.257604
1864.77 0.413389
1864.93 0.559976
1865.08 0.810226
1865.24 1.28898
1865.32 1.71057
1865.39 2.38043
1865.47 3.53189
1865.55 5.73294
1865.59 7.64223
1865.63 10.5784
1865.67 15.2632
1865.71 22.8085
1865.73 29.2687
1865.75 36.6512
1865.80 45.6319
1865.85 36.3424
1865.90 22.8069
1865.94 14.1083
1865.99 9.21043
1866.04 6.37512
1866.08 4.66631
1866.13 3.52979
1866.18 2.77147
1866.27 1.82748
1866.36 1.29482
1866.45 0.966369
1866.64 0.600340
1866.83 0.411428
1867.01 0.302523
1867.39 0.187592
1868.13 0.0997183
1868.87 0.0674644
1869.62 0.0523759
1870.36 0.0444996
1871.85 0.0384333
1873.34 0.0399222
1874.83 0.0517361
1875.58 0.0686643
1876.32 0.114065
1876.69 0.173318
1877.06 0.325892
1877.25 0.514253
1877.34 0.683893
1877.44 0.960184
1877.53 1.45307
1877.62 2.45311
1877.67 3.39048
1877.72 4.89801
1877.76 7.59050
1877.81 12.3369
1877.85 19.7783
1877.90 24.7646
1877.95 19.7790
1877.99 12.3380
1878.04 7.15280
1878.10 4.46407
1878.15 3.00131
1878.20 2.15552
1878.25 1.61133
1878.30 1.24998
1878.41 0.820734
1878.51 0.582058
1878.61 0.438831
1878.82 0.281078
1879.23 0.156377
1879.65 0.110250
1880.47 0.0787598
1881.30 0.0718338
1882.96 0.0813899
1884.61 0.113518
1885.44 0.142627
1886.27 0.187664
1887.09 0.261651
1887.92 0.394798
1888.33 0.505325
1888.75 0.671329
1889.16 0.937050
1889.57 1.39990
1889.99 2.32095
1890.20 3.16594
1890.40 4.56029
1890.61 7.12816
1890.71 9.30614
1890.82 12.5834
1890.92 17.9227
1891.02 27.1056
1891.07 34.4002
1891.13 44.4080
1891.18 58.8826
1891.23 78.8875
1891.31 126.065
1891.40 157.450
1891.49 126.054
1891.57 78.8769
1891.67 45.1025
1891.77 27.9483
1891.87 18.5957
1891.97 13.1936
1892.07 9.77759
1892.17 7.53683
1892.37 4.84525
1892.57 3.36884
1892.77 2.47563
1893.16 1.49790
1893.56 1.00385
1893.96 0.720448
1894.36 0.543167
1894.76 0.425068
1895.55 0.282754
1896.35 0.204006
1897.14 0.156525
1897.94 0.126517
1899.53 0.0962304
1901.12 0.0975787
1901.92 0.120687
1902.71 0.197113
1903.11 0.302775
1903.31 0.404636
1903.51 0.581992
1903.71 0.930932
1903.81 1.24918
1903.91 1.76510
1904.01 2.70205
1904.06 3.47719
1904.11 4.60386
1904.16 6.39914
1904.21 9.31360
1904.26 14.5682
1904.31 23.9592
1904.35 38.3835
1904.40 47.6970
1904.45 38.0626
1904.50 23.9573
1904.52 17.7488
1904.55 13.3712
1904.61 8.18417
1904.67 5.39240
1904.73 3.81407
1904.78 2.81802
1904.84 2.17396
1904.96 1.40211
1905.07 0.981409
1905.19 0.727890
1905.41 0.452055
1905.64 0.312133
1905.87 0.232149
1906.33 0.148241
1906.79 0.107388
1907.25 0.0845425
1908.17 0.0613233
1910.01 0.0460030
1911.84 0.0458545
1913.68 0.0584532
1914.60 0.0737670
1915.52 0.102943
1916.44 0.165943
1916.89 0.228016
1917.35 0.339098
1917.58 0.430999
1917.81 0.567772
1918.04 0.786290
1918.27 1.16296
1918.50 1.90411
1918.62 2.57472
1918.73 3.65934
1918.85 5.61688
1918.90 7.24517
1918.96 9.61831
1919.02 13.3880
1919.08 19.5223
1919.13 30.2861
1919.16 38.7897
1919.19 49.7818
1919.22 63.8176
1919.25 79.8302
1919.30 99.3459
1919.36 79.2559
1919.41 49.7784
1919.46 32.6492
1919.51 22.2666
1919.56 15.8909
1919.60 11.8782
1919.70 7.21020
1919.79 4.82592
1919.89 3.43528
1919.98 2.57417
1920.17 1.59864
1920.37 1.08758
1920.56 0.790225
1920.75 0.600617
1920.94 0.473672
1921.32 0.318503
1921.70 0.231531
1922.08 0.178420
1922.46 0.144235
1923.22 0.107596
1923.99 0.101467
1924.37 0.116669
1924.75 0.170806
1924.94 0.243612
1925.13 0.420300
1925.22 0.621159
1925.32 1.03050
1925.37 1.41831
1925.41 2.04910
1925.46 3.19210
1925.51 5.24658
1925.56 8.42868
1925.60 10.4988
1925.65 8.35404
1925.69 5.24509
1925.75 2.97635
1925.80 1.83591
1925.85 1.22922
1925.91 0.878331
1926.02 0.515820
1926.12 0.344151
1926.34 0.193012
1926.56 0.130171
1926.99 0.0790867
1927.42 0.0587320
1929.14 0.0354006
1930.87 0.0310592
1932.60 0.0327234
1934.32 0.0413221
1935.19 0.0508447
1936.05 0.0684217
1936.91 0.105469
1937.34 0.141640
1937.77 0.205862
1938.21 0.338002
1938.42 0.463993
1938.64 0.681246
1938.85 1.10978
1938.96 1.49872
1939.07 2.13724
1939.18 3.28964
1939.23 4.24488
1939.29 5.67149
1939.34 7.91833
1939.39 11.6891
1939.45 18.4650
1939.50 30.7936
1939.53 39.3781
1939.55 49.1725
1939.60 61.3905
1939.65 49.1713
1939.70 30.7925
1939.73 22.0538
1939.77 16.1451
1939.84 9.47801
1939.90 6.11974
1939.97 4.24637
1940.04 3.10945
1940.10 2.37243
1940.24 1.51129
1940.37 1.04612
1940.51 0.771193
1940.77 0.474303
1941.04 0.326197
1941.31 0.242929
1941.85 0.158533
1942.39 0.120985
1942.92 0.103748
1944.00 0.100093
1945.07 0.131440
1945.61 0.169632
1946.14 0.241533
1946.68 0.393643
1946.95 0.541126
1947.22 0.798628
1947.49 1.31369
1947.62 1.78576
1947.76 2.57084
1947.89 4.01536
1947.96 5.23691
1948.02 7.09846
1948.09 10.1137
1948.16 15.3837
1948.22 25.4441
1948.26 34.0205
1948.29 45.8705
1948.32 59.0954
1948.35 73.6461
1948.40 91.7137
1948.46 73.1051
1948.51 45.8675
1948.55 31.1609
1948.60 21.8514
1948.64 15.9206
1948.68 12.0153
1948.77 7.45602
1948.85 5.04183
1948.94 3.62631
1949.03 2.73051
1949.20 1.71191
1949.37 1.17251
1949.54 0.856797
1949.71 0.654438
1949.88 0.518569
1950.23 0.351803
1950.57 0.257861
1951.25 0.162287
1951.94 0.118422
1952.63 0.0965286
1954.00 0.0836735
1955.37 0.100282
1956.06 0.125080
1956.74 0.173710
1957.43 0.279158
1957.77 0.382432
1958.12 0.565535
1958.29 0.715639
1958.46 0.936463
1958.63 1.28492
1958.80 1.87273
1958.98 2.99511
1959.06 3.97731
1959.15 5.50495
1959.23 8.12730
1959.32 13.0583
1959.36 17.2620
1959.40 23.6141
1959.45 33.5155
1959.49 48.5704
1959.52 62.2801
1959.55 77.9302
1959.60 97.0176
1959.66 77.3687
1959.71 48.5671
1959.75 35.5949
1959.78 26.7831
1959.85 16.1283
1959.92 10.5752
1959.99 7.44414
1960.06 5.48099
1960.12 4.19596
1960.26 2.68805
1960.40 1.86301
1960.54 1.37088
1960.81 0.834509
1961.09 0.563935
1961.36 0.409564
1961.64 0.313503
1961.91 0.250099
1962.46 0.174390
1963.01 0.134012
1964.11 0.0998055
1965.21 0.100577
1965.76 0.115556
1966.31 0.149236
1966.86 0.226011
1967.13 0.302363
1967.40 0.437528
1967.68 0.711616
1967.82 0.965860
1967.95 1.39375
1968.09 2.20323
1968.16 2.90363
1968.23 3.97614
1968.30 5.78922
1968.37 9.04109
1968.40 11.8087
1968.43 15.7563
1968.47 21.6579
1968.50 30.4759
1968.53 39.2078
1968.55 48.7846
1968.60 61.0068
1968.65 48.7830
1968.70 30.4737
1968.75 18.4043
1968.80 11.8064
1968.85 8.07319
1968.90 5.82133
1968.95 4.37867
1969.00 3.40619
1969.11 2.23335
1969.21 1.57096
1969.31 1.16915
1969.51 0.721309
1969.71 0.492390
1969.92 0.360040
1970.32 0.220963
1970.73 0.153294
1971.14 0.115467
1971.95 0.0773068
1972.76 0.0601711
1973.57 0.0521713
1975.20 0.0502788
1976.82 0.0651956
1977.63 0.0838343
1978.45 0.119511
1979.26 0.196454
1979.66 0.272222
1980.07 0.407524
1980.27 0.518902
1980.48 0.684969
1980.68 0.948148
1980.88 1.40141
1981.08 2.28160
1981.19 3.07441
1981.29 4.34392
1981.39 6.60743
1981.49 11.0722
1981.54 15.1575
1981.59 21.7461
1981.64 32.9422
1981.67 41.1715
1981.69 51.8935
1981.72 66.5374
1981.75 83.2465
1981.80 103.597
1981.85 82.6253
1981.91 51.8901
1981.95 35.3320
1981.99 24.8167
1982.03 18.1005
1982.08 13.6696
1982.16 8.48699
1982.24 5.76233
1982.33 4.13907
1982.41 3.12168
1982.58 1.94869
1982.74 1.32789
1982.91 0.964683
1983.08 0.732953
1983.25 0.576211
1983.58 0.383570
1983.91 0.274876
1984.25 0.207264
1984.58 0.162616
1985.25 0.108960
1985.92 0.0793110
1986.59 0.0613480
1987.26 0.0498379
1988.60 0.0374038
1989.93 0.0347771
1991.27 0.0557657
1991.61 0.0793384
1991.94 0.141158
1992.11 0.217294
1992.28 0.395041
1992.36 0.589209
1992.44 0.968168
1992.53 1.86276
1992.57 2.78660
1992.61 4.31944
1992.66 6.94345
1992.70 8.64759
1992.75 6.88256
1992.79 4.31940
1992.85 2.37489
1992.90 1.44290
1992.96 0.948283
1993.02 0.671323
1993.13 0.385734
1993.24 0.253087
1993.47 0.136811
1993.69 0.0891888
1994.14 0.0514179
1994.59 0.0371881
1996.40 0.0241850
1998.20 0.0274960
1999.10 0.0338386
2000.00 0.0465988
2000.00 3.19151
2500.00 2.77839
3000.00 2.49011
3500.00 2.27673
4000.00 2.11190
5000.00 1.87265
6000.00 1.70589
7000.00 1.58169
8000.00 1.48458
10000.0 1.33995
12500.0 1.21125
15000.0 1.11521
17000.0 1.05358
20000.0 0.977026
25000.0 0.877095
30000.0 0.800566
35000.0 0.737732
40000.0 0.685408
50000.0 0.605145
60000.0 0.544941
70000.0 0.498292
80000.0 0.460936
99999.9 0.405220
100000 0.407320
150000 0.328515
200000 0.288958
250000 0.266571
300000 0.253076
339151 0.246390
339151 0.246390
379364 0.242729
419576 0.239483
500000 0.233937
602241 0.234410
671380 0.233755
700000 0.233504
800000 0.237417
835672 0.239381
871584 0.240657
900000 0.241873
941795 0.244107
949462 0.242138
1.00000E+06 0.236402
1.08746E+06 0.234689
1.08746E+06 0.234689
1.14244E+06 0.234662
1.14244E+06 0.234662
1.25000E+06 0.216947
1.30183E+06 0.214844
1.43045E+06 0.197749
1.46142E+06 0.193734
1.47534E+06 0.191067
1.49884E+06 0.187368
1.49884E+06 0.187366
1.50000E+06 0.186878
1.51317E+06 0.184407
1.63159E+06 0.166975
1.75000E+06 0.152247
1.87500E+06 0.138015
2.00000E+06 0.125909
2.05619E+06 0.120586
2.11237E+06 0.115622
2.16856E+06 0.110986
2.22475E+06 0.106647
2.28093E+06 0.102579
2.33712E+06 0.0987599
2.39330E+06 0.0951688
2.44949E+06 0.0917872
2.51830E+06 0.0879067
2.58712E+06 0.0842883
2.65593E+06 0.0809081
2.72475E+06 0.0777449
2.79356E+06 0.0747796
2.86237E+06 0.0719956
2.93119E+06 0.0693777
3.00000E+06 0.0669125
3.04811E+06 0.0647370
3.09621E+06 0.0626647
3.14432E+06 0.0606892
3.19243E+06 0.0588046
3.24053E+06 0.0570053
3.28864E+06 0.0552865
3.33674E+06 0.0536433
3.38485E+06 0.0520714
3.43296E+06 0.0505668
3.48106E+06 0.0491258
3.52917E+06 0.0477447
3.57728E+06 0.0464204
3.62538E+06 0.0451497
3.67349E+06 0.0439300
3.72159E+06 0.0427584
3.76970E+06 0.0416325
3.82728E+06 0.0403418
3.88485E+06 0.0391095
3.94243E+06 0.0379322
4.00000E+06 0.0368066
4.06806E+06 0.0349165
4.13612E+06 0.0331525
4.20418E+06 0.0315043
4.27224E+06 0.0299625
4.34030E+06 0.0285188
4.40836E+06 0.0271655
4.47642E+06 0.0258957
4.54448E+06 0.0247031
4.60142E+06 0.0237604
4.65836E+06 0.0228647
4.71530E+06 0.0220130
4.77224E+06 0.0212027
4.82918E+06 0.0204313
4.88612E+06 0.0196966
4.94306E+06 0.0189963
5.00000E+06 0.0183285
5.06250E+06 0.0174168
5.12500E+06 0.0165608
5.18750E+06 0.0157565
5.25000E+06 0.0150002
5.31250E+06 0.0142885
5.37500E+06 0.0136184
5.43750E+06 0.0129868
5.50000E+06 0.0123913
5.56250E+06 0.0118294
5.62500E+06 0.0112988
5.68750E+06 0.0107974
5.75000E+06 0.0103235
5.81250E+06 0.00987511
5.87500E+06 0.00945070
5.93750E+06 0.00904874
6.00000E+06 0.00866782
6.10936E+06 0.00794429
6.21872E+06 0.00729243
6.32808E+06 0.00670406
6.43744E+06 0.00617205
6.54679E+06 0.00569017
6.65615E+06 0.00525299
6.76551E+06 0.00485571
6.87487E+06 0.00449415
6.93744E+06 0.00430191
7.00000E+06 0.00411951
7.05373E+06 0.00397161
7.10746E+06 0.00383009
7.16119E+06 0.00369462
7.21492E+06 0.00356490
7.26864E+06 0.00344065
7.32237E+06 0.00332159
7.37610E+06 0.00320748
7.42983E+06 0.00309808
7.48331E+06 0.00299363
7.54790E+06 0.00288192
7.61248E+06 0.00277528
7.67707E+06 0.00267344
7.74166E+06 0.00257615
7.80624E+06 0.00248315
7.87083E+06 0.00239424
7.93541E+06 0.00230921
8.00000E+06 0.00222784
8.06066E+06 0.00217515
8.12132E+06 0.00212408
8.18198E+06 0.00207458
8.24264E+06 0.00202659
8.30330E+06 0.00198005
8.36396E+06 0.00193490
8.42462E+06 0.00189110
8.48528E+06 0.00184859
8.54962E+06 0.00181677
8.61396E+06 0.00178574
8.67830E+06 0.00175546
8.74264E+06 0.00172591
8.80698E+06 0.00169707
8.87132E+06 0.00166891
8.93566E+06 0.00164142
9.00000E+06 0.00161458
9.06024E+06 0.00159328
9.12048E+06 0.00157240
9.16029E+06 0.00155883
9.20011E+06 0.00154543
9.23992E+06 0.00153220
9.27973E+06 0.00151914
9.31954E+06 0.00150625
9.35936E+06 0.00149352
9.39917E+06 0.00148096
9.43898E+06 0.00146855
9.48683E+06 0.00145384
9.55098E+06 0.00144720
9.61512E+06 0.00144063
9.67927E+06 0.00143414
9.74342E+06 0.00142772
9.80756E+06 0.00142136
9.87171E+06 0.00141508
9.93585E+06 0.00140887
1.00000E+07 0.00140272
1.00610E+07 0.00138750
1.01220E+07 0.00137254
1.01830E+07 0.00135783
1.02441E+07 0.00134336
1.03051E+07 0.00132913
1.03661E+07 0.00131513
1.04271E+07 0.00130136
1.04881E+07 0.00128782
1.05000E+07 0.00128701
1.05610E+07 0.00128286
1.06220E+07 0.00127875
1.06829E+07 0.00127468
1.07439E+07 0.00127064
1.08049E+07 0.00126664
1.08659E+07 0.00126268
1.09268E+07 0.00125874
1.09878E+07 0.00125485
1.10000E+07 0.00125407
1.10611E+07 0.00124709
1.11223E+07 0.00124019
1.11834E+07 0.00123337
1.12446E+07 0.00122662
1.13057E+07 0.00121994
1.13668E+07 0.00121333
1.14280E+07 0.00120680
1.14891E+07 0.00120034
1.15000E+07 0.00119919
1.15625E+07 0.00119267
1.16250E+07 0.00118621
1.16875E+07 0.00117983
1.17500E+07 0.00117351
1.18125E+07 0.00116726
1.18750E+07 0.00116107
1.19375E+07 0.00115496
1.20000E+07 0.00114890
1.20625E+07 0.00114367
1.21250E+07 0.00113850
1.21875E+07 0.00113337
1.22500E+07 0.00112830
1.23125E+07 0.00112327
1.23750E+07 0.00111829
1.24375E+07 0.00111335
1.25000E+07 0.00110847
1.25625E+07 0.00110363
1.26250E+07 0.00109883
1.26875E+07 0.00109408
1.27500E+07 0.00108937
1.28125E+07 0.00108470
1.28750E+07 0.00108008
1.29375E+07 0.00107550
1.30000E+07 0.00107096
1.31250E+07 0.00106440
1.32500E+07 0.00105795
1.33750E+07 0.00105159
1.35000E+07 0.00104533
1.36693E+07 0.00103701
1.37106E+07 0.00103500
1.37520E+07 0.00103300
1.37933E+07 0.00103101
1.38347E+07 0.00102904
1.38760E+07 0.00102707
1.39173E+07 0.00102511
1.39587E+07 0.00102316
1.40000E+07 0.00102122
1.40358E+07 0.00102044
1.41519E+07 0.00101794
1.42679E+07 0.00101546
1.43840E+07 0.00101300
1.45000E+07 0.00101058
1.47500E+07 0.00100543
1.50000E+07 0.00100040
1.52500E+07 0.00100055
1.55000E+07 0.00100071
1.57500E+07 0.00100085
1.60000E+07 0.00100100
1.60581E+07 0.00100198
1.61161E+07 0.00100296
1.61742E+07 0.00100394
1.62323E+07 0.00100491
1.62903E+07 0.00100589
1.63484E+07 0.00100686
1.64064E+07 0.00100782
1.64645E+07 0.00100879
1.65000E+07 0.00100938
1.65625E+07 0.00101041
1.66250E+07 0.00101144
1.66875E+07 0.00101247
1.67500E+07 0.00101350
1.68125E+07 0.00101452
1.68750E+07 0.00101554
1.69375E+07 0.00101656
1.70000E+07 0.00101757
1.70625E+07 0.00101939
1.71250E+07 0.00102120
1.71875E+07 0.00102301
1.72500E+07 0.00102482
1.73125E+07 0.00102662
1.73750E+07 0.00102842
1.74375E+07 0.00103022
1.75000E+07 0.00103201
1.75625E+07 0.00103380
1.76250E+07 0.00103559
1.76875E+07 0.00103737
1.77500E+07 0.00103915
1.78125E+07 0.00104093
1.78750E+07 0.00104270
1.79375E+07 0.00104447
1.80000E+07 0.00104624
1.80625E+07 0.00104872
1.81250E+07 0.00105119
1.81875E+07 0.00105366
1.82500E+07 0.00105613
1.83125E+07 0.00105860
1.83750E+07 0.00106106
1.84375E+07 0.00106352
1.85000E+07 0.00106598
1.85625E+07 0.00106844
1.86250E+07 0.00107089
1.86875E+07 0.00107334
1.87500E+07 0.00107579
1.88125E+07 0.00107823
1.88750E+07 0.00108067
1.89375E+07 0.00108311
1.90000E+07 0.00108555
1.90625E+07 0.00108856
1.91250E+07 0.00109158
1.91875E+07 0.00109459
1.92500E+07 0.00109760
1.93125E+07 0.00110060
1.93750E+07 0.00110361
1.94375E+07 0.00110662
1.95000E+07 0.00110962
1.95625E+07 0.00111262
1.96250E+07 0.00111562
1.96875E+07 0.00111862
1.97500E+07 0.00112162
1.98125E+07 0.00112461
1.98750E+07 0.00112761
1.99375E+07 0.00113060
2.00000E+07 0.00113359