Sn-120(n,tot) ENDF/B-VII.1
Energy(eV) XS(b)
1.00000E-05 12.6316
1.25000E-05 11.8906
1.50000E-05 11.3436
2.00000E-05 10.5759
2.75000E-05 9.84533
3.50000E-05 9.36454
4.25000E-05 9.01746
5.00000E-05 8.75175
6.25000E-05 8.42037
7.50000E-05 8.17576
0.000100000 7.83240
0.000125000 7.59808
0.000150000 7.42511
0.000200000 7.18232
0.000275000 6.95130
0.000350000 6.79926
0.000425000 6.68951
0.000500000 6.60548
0.000625000 6.50069
0.000750000 6.42333
0.00100000 6.31475
0.00125000 6.24065
0.00150000 6.18595
0.00200000 6.10917
0.00275000 6.03612
0.00350000 5.98803
0.00425000 5.95332
0.00500000 5.92675
0.00625000 5.89360
0.00750000 5.86914
0.0100000 5.83479
0.0125000 5.81135
0.0150000 5.79404
0.0200000 5.76974
0.0253000 5.75231
0.0314750 5.73785
0.0376500 5.72711
0.0500000 5.71193
0.0625000 5.70140
0.0750000 5.69362
0.100000 5.68267
0.125000 5.67516
0.150000 5.66960
0.200000 5.66173
0.275000 5.65414
0.350000 5.64905
0.500000 5.64237
0.750000 5.63569
1.00000 5.63134
1.50000 5.62546
2.00000 5.62123
2.75000 5.61623
3.50000 5.61205
5.00000 5.60484
7.50000 5.59439
10.0000 5.58485
15.0000 5.56714
20.0000 5.55056
27.5000 5.52718
35.0000 5.50523
50.0000 5.46487
58.6408 5.44351
62.9611 5.43354
64.0412 5.43132
65.1213 5.42967
65.6614 5.42960
66.2014 5.43163
66.4714 5.43545
66.6065 5.43946
66.7415 5.44683
66.8765 5.46217
66.9440 5.47679
67.0115 5.50194
67.0790 5.55053
67.1127 5.59369
67.1465 5.66289
67.1803 5.78341
67.2140 6.01824
67.2309 6.22621
67.2478 6.55242
67.2646 7.08738
67.2815 7.97653
67.3008 9.50877
67.3200 10.5306
67.3393 9.50984
67.3585 7.97780
67.3744 7.12673
67.3904 6.60012
67.4063 6.27105
67.4223 6.05755
67.4541 5.81197
67.4860 5.68376
67.5179 5.60922
67.5498 5.56231
67.6135 5.50901
67.6773 5.48106
67.7410 5.46462
67.8685 5.44698
67.9960 5.43814
68.1235 5.43302
68.3786 5.42748
68.8886 5.42263
69.3986 5.42015
70.4187 5.41689
71.4387 5.41427
75.5189 5.40498
83.6793 5.38765
100.000 5.35552
124.981 5.31169
137.471 5.29191
143.716 5.28273
145.278 5.28070
146.839 5.27924
147.620 5.27925
148.400 5.28138
148.791 5.28527
149.181 5.29699
149.376 5.31309
149.474 5.32872
149.571 5.35617
149.669 5.41107
149.718 5.46170
149.766 5.54621
149.815 5.70249
149.840 5.83532
149.864 6.03877
149.888 6.37059
149.913 6.95639
149.937 8.09154
149.949 9.05576
149.962 10.4308
149.981 13.5315
150.000 15.5836
150.019 13.5153
150.039 10.4319
150.051 9.04734
150.063 8.08593
150.087 6.95382
150.112 6.36927
150.136 6.03797
150.161 5.83475
150.185 5.70200
150.234 5.54570
150.283 5.46108
150.331 5.41031
150.429 5.35511
150.527 5.32734
150.624 5.31141
150.819 5.29473
151.210 5.28185
151.600 5.27680
152.381 5.27240
153.161 5.27011
154.722 5.26704
156.284 5.26454
162.529 5.25560
175.019 5.23897
200.000 5.20847
241.284 5.16458
282.568 5.12713
303.211 5.11041
313.532 5.10252
323.853 5.09496
334.174 5.08782
344.495 5.08150
349.655 5.07921
352.236 5.07869
354.816 5.07919
357.396 5.08225
358.686 5.08616
359.976 5.09402
360.621 5.10096
361.267 5.11180
361.912 5.12990
362.557 5.16317
362.879 5.19126
363.202 5.23411
363.524 5.30412
363.847 5.43001
364.008 5.53452
364.169 5.69168
364.331 5.94369
364.492 6.38488
364.653 7.26558
364.734 8.07676
364.814 9.43027
364.895 11.9379
364.935 14.0683
364.976 17.3334
365.016 22.6640
365.056 32.0893
365.097 50.4007
365.117 66.0444
365.137 88.5156
365.168 138.561
365.200 171.917
365.232 138.572
365.263 88.5292
365.293 57.8882
365.323 40.1673
365.352 29.6251
365.382 23.0723
365.441 15.8048
365.500 12.1462
365.560 10.0688
365.619 8.78256
365.738 7.34472
365.856 6.60246
365.975 6.17102
366.093 5.89850
366.212 5.71564
366.449 5.49282
366.686 5.36758
366.923 5.29018
367.160 5.23906
367.635 5.17775
368.109 5.14375
368.583 5.12288
369.058 5.10913
370.006 5.09257
370.955 5.08323
372.852 5.07332
374.749 5.06810
376.646 5.06477
380.440 5.06040
384.235 5.05734
388.029 5.05488
395.618 5.05119
399.412 5.05005
403.206 5.04967
407.001 5.05065
410.795 5.05446
412.692 5.05849
414.589 5.06531
416.486 5.07730
418.383 5.10014
419.332 5.11979
420.281 5.15014
421.229 5.20025
422.178 5.29143
422.652 5.36786
423.126 5.48380
423.601 5.67184
424.075 6.00653
424.312 6.28169
424.549 6.69133
424.786 7.33999
425.023 8.45488
425.261 10.6157
425.379 12.5456
425.498 15.6553
425.616 21.1245
425.735 31.9397
425.794 41.6815
425.853 57.2403
425.913 83.3468
425.972 127.940
426.036 201.836
426.100 251.038
426.164 201.738
426.228 127.974
426.300 76.4447
426.372 49.6029
426.444 34.9217
426.516 26.2936
426.588 20.8537
426.660 17.2382
426.805 12.8988
426.949 10.5081
427.093 9.05736
427.381 7.46514
427.669 6.65779
427.957 6.19358
428.245 5.90253
428.534 5.70819
429.110 5.47277
429.686 5.34104
430.263 5.25990
430.839 5.20637
431.992 5.14221
433.144 5.10655
434.297 5.08458
435.450 5.06998
437.755 5.05216
440.060 5.04183
442.366 5.03506
444.671 5.03021
449.282 5.02347
453.893 5.01868
463.114 5.01147
472.336 5.00559
481.557 5.00028
500.000 4.99047
526.235 4.97744
552.469 4.96501
578.704 4.95294
604.939 4.94105
657.408 4.91715
709.877 4.89164
762.347 4.86146
788.582 4.84270
814.816 4.81934
841.051 4.78782
854.168 4.76685
867.285 4.74017
880.403 4.70460
886.962 4.68179
893.520 4.65419
900.079 4.62027
903.358 4.60044
906.637 4.57872
909.917 4.55626
911.557 4.54623
913.196 4.53978
914.836 4.54433
915.656 4.55769
916.475 4.59008
916.885 4.62092
917.295 4.67089
917.705 4.75649
918.115 4.91650
918.320 5.05265
918.525 5.26097
918.730 5.60195
918.935 6.21440
919.037 6.72189
919.140 7.48307
919.242 8.69893
919.345 10.8138
919.447 14.9949
919.499 18.8121
919.550 25.0964
919.601 36.5412
919.627 46.0793
919.652 60.4217
919.678 83.2264
919.704 122.032
919.729 193.229
919.755 330.067
919.777 525.888
919.800 655.657
919.823 524.971
919.845 330.074
919.859 244.442
919.873 184.436
919.901 112.969
919.929 75.6306
919.957 54.3041
919.985 41.1529
920.013 32.5302
920.069 22.3415
920.125 16.8076
920.181 13.4810
920.293 9.86003
920.405 8.03887
920.517 6.99647
920.629 6.34464
920.741 5.90990
920.965 5.38361
921.189 5.08844
921.413 4.90568
921.637 4.78407
922.085 4.63563
922.533 4.54987
922.981 4.49397
923.429 4.45403
924.325 4.39812
925.221 4.35721
927.013 4.29025
928.805 4.22588
930.597 4.15546
934.181 3.97494
935.973 3.85199
937.765 3.69367
939.556 3.48172
941.348 3.18381
942.244 2.98528
943.140 2.73876
944.036 2.42783
944.932 2.03484
945.380 1.80678
945.828 1.56931
946.276 1.36130
946.724 1.31087
946.948 1.45865
947.060 1.62269
947.172 1.88226
947.284 2.28090
947.396 2.88604
947.508 3.80548
947.564 4.43488
947.620 5.21829
947.732 7.43631
947.844 11.0351
947.956 17.1589
948.012 21.8534
948.068 28.3129
948.124 37.4386
948.180 50.7553
948.236 70.9879
948.292 103.338
948.348 158.564
948.404 261.135
948.432 346.607
948.460 472.287
948.488 661.067
948.516 943.410
948.558 1576.19
948.600 2053.99
948.642 1712.25
948.684 1115.48
948.734 659.499
948.784 422.706
948.835 293.110
948.885 216.238
948.935 167.192
948.985 134.166
949.085 93.6617
949.185 70.5654
949.286 56.0784
949.486 39.3916
949.687 30.3496
949.887 24.8162
950.087 21.1327
950.288 18.5319
950.689 15.1372
951.090 13.0446
951.491 11.6380
951.891 10.6330
952.693 9.30038
953.495 8.46151
954.297 7.88719
955.099 7.47030
956.702 6.90682
958.306 6.54443
959.910 6.29210
961.513 6.10643
964.720 5.85160
967.928 5.68497
971.135 5.56749
974.342 5.48017
980.757 5.35894
987.171 5.27864
993.586 5.22141
1000.00 5.17846
1008.85 5.13410
1017.69 5.10089
1035.38 5.05416
1053.07 5.02249
1070.77 4.99931
1106.15 4.96699
1141.53 4.94484
1176.91 4.92821
1212.29 4.91497
1229.98 4.90928
1247.68 4.90420
1265.37 4.90053
1269.79 4.90066
1274.21 4.90321
1276.42 4.90780
1278.64 4.92185
1279.74 4.94182
1280.29 4.96186
1280.85 4.99844
1281.40 5.07646
1281.68 5.15383
1281.95 5.29306
1282.09 5.41009
1282.23 5.58582
1282.37 5.86945
1282.51 6.37124
1282.57 6.78116
1282.64 7.38827
1282.71 8.34201
1282.78 9.96461
1282.85 13.0568
1282.89 15.8189
1282.92 20.0667
1282.95 27.5580
1282.99 41.3579
1283.01 53.9970
1283.02 72.3203
1283.04 101.077
1283.06 146.475
1283.08 233.084
1283.10 287.164
1283.12 228.884
1283.14 146.456
1283.16 101.059
1283.18 72.3050
1283.19 53.9834
1283.21 42.5054
1283.24 28.1299
1283.28 20.7130
1283.31 16.2132
1283.34 13.4446
1283.41 10.2189
1283.48 8.52028
1283.55 7.51969
1283.61 6.88180
1283.68 6.45598
1283.81 5.92510
1283.95 5.62668
1284.08 5.44005
1284.21 5.31731
1284.48 5.16880
1284.75 5.08680
1285.28 5.00367
1285.82 4.96442
1286.35 4.94287
1287.42 4.92110
1289.56 4.90508
1291.69 4.89910
1295.97 4.89415
1300.24 4.89176
1317.34 4.88652
1351.55 4.87908
1368.65 4.87598
1385.75 4.87376
1394.30 4.87373
1402.85 4.87669
1407.12 4.88230
1409.26 4.88835
1411.40 4.89980
1413.54 4.92497
1414.60 4.95039
1415.67 4.99707
1416.21 5.03671
1416.74 5.09739
1417.28 5.19751
1417.81 5.37943
1418.08 5.53296
1418.35 5.76595
1418.61 6.14593
1418.88 6.82829
1419.01 7.39668
1419.15 8.24442
1419.28 9.61354
1419.41 11.9923
1419.55 16.7718
1419.61 21.1844
1419.68 28.4180
1419.75 41.9622
1419.78 53.6984
1419.81 71.1640
1419.85 100.603
1419.88 151.140
1419.91 248.355
1419.93 333.391
1419.95 448.041
1419.97 721.193
1420.00 895.099
1420.03 710.483
1420.05 448.165
1420.07 321.758
1420.09 236.527
1420.11 179.119
1420.13 139.600
1420.16 91.2845
1420.20 64.5139
1420.23 48.3404
1420.27 37.8885
1420.34 25.8316
1420.41 19.2549
1420.48 15.3838
1420.56 12.8563
1420.63 11.1598
1420.77 9.03740
1420.91 7.83809
1421.06 7.09027
1421.20 6.59287
1421.49 5.99168
1421.77 5.65834
1422.06 5.45381
1422.34 5.31933
1422.92 5.15888
1423.49 5.07059
1424.06 5.01685
1424.64 4.98175
1425.78 4.94003
1426.93 4.91713
1429.22 4.89397
1431.51 4.88296
1433.80 4.87676
1438.38 4.87017
1447.54 4.86443
1456.71 4.86143
1475.03 4.85741
1493.36 4.85418
1530.01 4.84849
1566.66 4.84337
1603.32 4.83883
1639.97 4.83555
1658.29 4.83544
1667.46 4.83655
1676.62 4.83960
1685.78 4.84759
1690.37 4.85621
1694.95 4.87255
1697.24 4.88663
1699.53 4.90844
1701.82 4.94467
1704.11 5.01120
1705.26 5.06759
1706.40 5.15391
1707.55 5.29604
1708.69 5.55411
1709.26 5.77081
1709.84 6.10027
1710.41 6.63661
1710.98 7.59499
1711.27 8.39013
1711.56 9.57754
1711.84 11.4715
1712.13 14.7646
1712.41 21.2907
1712.56 27.2195
1712.70 36.9858
1712.84 54.6987
1712.92 69.5812
1712.99 91.6106
1713.06 127.069
1713.13 186.370
1713.20 296.285
1713.27 503.326
1713.34 803.604
1713.40 1004.26
1713.46 803.645
1713.53 503.420
1713.60 298.483
1713.67 189.810
1713.74 129.715
1713.81 94.0405
1713.88 71.4430
1713.95 56.3360
1714.09 38.1380
1714.23 28.0686
1714.37 21.9409
1714.65 15.1961
1714.93 11.7693
1715.21 9.79616
1715.49 8.55785
1715.77 7.73278
1716.33 6.72921
1716.89 6.16861
1717.45 5.82294
1718.01 5.59560
1719.12 5.32378
1720.24 5.17378
1721.36 5.08230
1722.48 5.02241
1724.72 4.95127
1726.96 4.91216
1729.20 4.88833
1731.43 4.87268
1735.91 4.85396
1740.39 4.84348
1749.34 4.83245
1758.29 4.82674
1767.24 4.82314
1785.15 4.81848
1820.96 4.81248
1856.76 4.80774
1928.38 4.79921
2000.00 4.79107
2096.57 4.78015
2193.14 4.76892
2386.28 4.74382
2482.85 4.72867
2579.42 4.71030
2627.70 4.69927
2675.99 4.68645
2700.13 4.67918
2724.27 4.67120
2748.42 4.66242
2760.49 4.65787
2766.52 4.65628
2769.54 4.65858
2771.05 4.67186
2771.80 4.72389
2771.99 4.77485
2772.18 4.90795
2772.28 5.07710
2772.37 5.48242
2772.42 5.94050
2772.46 6.89701
2772.49 7.83489
2772.51 9.36353
2772.54 12.2994
2772.56 17.9444
2772.58 25.7681
2772.60 31.2228
2772.62 25.7752
2772.64 17.9533
2772.66 13.8138
2772.67 11.2427
2772.70 8.34112
2772.73 6.96356
2772.77 6.22358
2772.83 5.50674
2772.89 5.18632
2773.01 4.91677
2773.14 4.81008
2773.63 4.69511
2774.62 4.66299
2776.60 4.65377
2780.56 4.64987
2788.47 4.64579
2804.29 4.63854
2820.12 4.63397
2824.08 4.63590
2828.03 4.64560
2830.01 4.66120
2831.99 4.70760
2832.98 4.77285
2833.47 4.83813
2833.97 4.95673
2834.46 5.20840
2834.71 5.45522
2834.96 5.89719
2835.08 6.26437
2835.21 6.81555
2835.33 7.69739
2835.45 9.22078
2835.58 12.2589
2835.64 15.0396
2835.70 19.5483
2835.76 27.8771
2835.79 34.8580
2835.82 45.3992
2835.85 62.2526
2835.89 91.1438
2835.92 144.665
2835.95 244.041
2835.97 387.587
2836.00 483.250
2836.03 387.640
2836.05 244.109
2836.07 177.089
2836.09 133.550
2836.12 82.0662
2836.16 54.7541
2836.19 39.7610
2836.23 30.2985
2836.26 24.3027
2836.33 17.1267
2836.40 13.2476
2836.47 10.9230
2836.61 8.41255
2836.74 7.14178
2836.88 6.41660
2837.02 5.96429
2837.16 5.66519
2837.43 5.30146
2837.71 5.09947
2838.26 4.89365
2838.81 4.79596
2839.36 4.74204
2840.46 4.68748
2842.66 4.64699
2844.87 4.63170
2849.27 4.61874
2853.68 4.61215
2871.30 4.59546
2888.92 4.57971
2906.55 4.56204
2924.17 4.54155
2941.79 4.51728
2977.04 4.45169
2994.66 4.40559
3012.28 4.34487
3029.90 4.26105
3047.53 4.13757
3056.34 4.05087
3065.15 3.93712
3073.96 3.78127
3082.77 3.55471
3087.18 3.39803
3091.58 3.19573
3095.99 2.92495
3100.39 2.54558
3102.60 2.29379
3104.80 1.98245
3107.00 1.59226
3109.21 1.10380
3110.31 0.822881
3111.41 0.533321
3112.51 0.282411
3113.06 0.210332
3113.61 0.221332
3114.16 0.391124
3114.44 0.578085
3114.71 0.869779
3114.99 1.31380
3115.26 1.97529
3115.54 2.96135
3115.81 4.44144
3116.09 6.70788
3116.37 10.2384
3116.64 15.9496
3116.92 25.6421
3117.19 43.2882
3117.33 57.6249
3117.47 78.1315
3117.60 108.805
3117.74 155.457
3117.88 229.445
3118.02 345.671
3118.21 599.148
3118.40 808.802
3118.59 696.368
3118.78 467.158
3118.96 316.272
3119.14 224.348
3119.32 167.296
3119.50 130.259
3119.85 87.0806
3120.21 63.9899
3120.57 50.0656
3120.92 41.0016
3121.64 30.1213
3122.35 23.9824
3123.06 20.1103
3123.78 17.4740
3124.49 15.5766
3125.91 13.0475
3127.34 11.4516
3128.77 10.3593
3130.19 9.56807
3133.04 8.50095
3135.90 7.81753
3138.75 7.34356
3141.60 6.99614
3147.30 6.52123
3153.01 6.21233
3158.71 5.99544
3164.41 5.83486
3175.82 5.61296
3187.23 5.46686
3198.63 5.36333
3210.04 5.28609
3232.85 5.17837
3255.67 5.10664
3278.48 5.05530
3301.29 5.01660
3346.92 4.96180
3392.55 4.92445
3483.80 4.87561
3575.06 4.84361
3620.69 4.83089
3666.31 4.81953
3711.94 4.80914
3757.57 4.79950
3803.20 4.79119
3826.01 4.79151
3831.71 4.79560
3837.42 4.80953
3840.27 4.83004
3843.12 4.88933
3844.55 4.97196
3845.26 5.05432
3845.97 5.20412
3846.68 5.52116
3847.04 5.83321
3847.40 6.39081
3847.58 6.85498
3847.75 7.54752
3847.93 8.65339
3848.11 10.5795
3848.29 14.3870
3848.38 17.8620
3848.47 23.5999
3848.56 34.0454
3848.60 42.9009
3848.64 55.9492
3848.69 77.2561
3848.73 112.873
3848.78 180.313
3848.82 311.696
3848.86 493.692
3848.90 618.382
3848.94 493.776
3848.98 311.408
3849.02 182.486
3849.06 116.228
3849.11 79.1826
3849.15 57.8959
3849.20 44.1779
3849.24 35.2604
3849.32 24.5108
3849.41 18.5045
3849.50 14.8978
3849.67 10.9049
3849.84 8.87906
3850.02 7.71351
3850.19 6.98244
3850.36 6.49409
3850.71 5.90273
3851.05 5.57198
3851.75 5.23442
3852.44 5.07417
3853.13 4.98588
3854.52 4.89671
3857.28 4.83158
3860.05 4.80809
3865.59 4.79037
3871.13 4.78333
3893.27 4.77285
3937.57 4.76150
3981.87 4.75050
4026.16 4.73829
4070.46 4.72394
4092.61 4.71556
4114.76 4.70605
4136.90 4.69507
4159.05 4.68219
4181.20 4.66736
4192.27 4.66240
4197.81 4.67508
4199.20 4.69218
4200.58 4.74295
4201.27 4.81413
4201.96 5.01335
4202.31 5.28300
4202.48 5.54559
4202.66 6.01125
4202.83 6.95803
4202.92 7.85520
4203.00 9.36868
4203.09 12.3032
4203.13 14.8645
4203.18 18.9316
4203.22 26.1366
4203.26 39.7105
4203.28 51.8535
4203.31 69.7192
4203.33 99.7286
4203.35 146.300
4203.37 231.265
4203.40 288.279
4203.43 231.344
4203.45 146.398
4203.48 85.7224
4203.51 54.7567
4203.54 37.6438
4203.57 28.0582
4203.60 21.8860
4203.63 17.9452
4203.70 13.1651
4203.76 10.5535
4203.82 8.97764
4203.94 7.25651
4204.06 6.38831
4204.18 5.89058
4204.43 5.37141
4204.92 4.97988
4205.40 4.83679
4206.38 4.73077
4207.35 4.69210
4209.30 4.66262
4211.25 4.65072
4219.05 4.63192
4234.65 4.60771
4250.25 4.57950
4265.85 4.54251
4281.45 4.49089
4289.25 4.45640
4297.05 4.41314
4304.85 4.35722
4308.75 4.32268
4312.65 4.28235
4316.55 4.23494
4320.45 4.17987
4324.35 4.12916
4325.33 4.13137
4326.30 4.17476
4326.79 4.25345
4327.28 4.49038
4327.52 4.81749
4327.64 5.13569
4327.76 5.68989
4327.89 6.80539
4327.95 7.83468
4328.01 9.55300
4328.07 12.7310
4328.10 15.4862
4328.13 19.5683
4328.16 26.4556
4328.19 38.2086
4328.22 60.6993
4328.24 79.5976
4328.25 107.903
4328.28 170.822
4328.30 211.887
4328.32 170.922
4328.35 108.028
4328.38 65.1972
4328.40 42.8867
4328.43 30.0570
4328.45 22.7316
4328.48 17.9095
4328.51 14.8075
4328.56 10.9861
4328.61 8.87226
4328.67 7.58586
4328.77 6.17815
4328.88 5.45281
4328.98 5.03730
4329.19 4.59610
4329.62 4.25326
4330.04 4.11957
4330.88 4.00340
4331.73 3.94269
4335.11 3.77441
4336.80 3.68523
4338.49 3.58249
4341.86 3.31287
4343.55 3.12921
4345.24 2.89512
4346.93 2.58707
4348.62 2.16655
4349.47 1.89558
4350.31 1.57135
4351.16 1.18607
4352.00 0.751263
4352.84 0.376054
4353.27 0.360948
4353.48 0.477873
4353.69 0.754779
4353.90 1.30891
4354.11 2.34722
4354.22 3.17032
4354.32 4.28973
4354.43 5.85562
4354.53 8.03270
4354.64 11.1723
4354.74 15.7142
4354.85 22.6044
4354.96 33.2240
4355.06 50.6473
4355.17 80.1492
4355.27 133.871
4355.38 232.564
4355.49 410.392
4355.60 560.899
4355.71 488.692
4355.82 332.366
4355.90 248.342
4355.98 189.881
4356.06 149.521
4356.14 121.403
4356.30 85.4003
4356.45 64.6645
4356.61 51.4855
4356.77 42.6528
4357.08 31.7294
4357.40 25.3758
4357.71 21.3162
4358.03 18.5143
4358.34 16.4901
4358.97 13.7697
4359.60 12.0439
4360.23 10.8592
4360.86 9.99902
4362.12 8.83766
4363.37 8.09406
4364.63 7.57829
4365.89 7.20016
4368.41 6.68352
4370.92 6.34783
4373.44 6.11232
4375.95 5.93805
4380.99 5.69745
4386.02 5.53926
4391.05 5.42733
4396.09 5.34394
4406.15 5.22791
4416.22 5.15095
4426.28 5.09610
4436.35 5.05497
4456.48 4.99726
4476.61 4.95854
4516.87 4.90945
4557.13 4.87918
4597.39 4.85831
4677.91 4.83070
4758.43 4.81261
4798.70 4.80557
4838.96 4.79951
4879.22 4.79435
4919.48 4.79025
4959.74 4.78827
4979.87 4.78956
5000.00 4.79732
5005.50 4.80374
5011.01 4.81806
5013.76 4.83450
5016.51 4.87420
5017.89 4.92328
5019.26 5.04929
5019.95 5.21090
5020.64 5.63238
5020.98 6.17090
5021.16 6.67541
5021.33 7.53793
5021.50 9.20425
5021.59 10.6940
5021.67 13.1066
5021.76 17.3839
5021.80 20.8712
5021.84 26.0001
5021.89 33.9197
5021.93 46.8631
5021.97 69.2940
5022.01 108.410
5022.06 169.418
5022.10 209.687
5022.14 167.531
5022.19 106.058
5022.23 66.4441
5022.27 44.2276
5022.32 31.6332
5022.36 24.1722
5022.40 19.2629
5022.45 15.9624
5022.54 12.0029
5022.62 9.77609
5022.71 8.43576
5022.88 6.95947
5023.06 6.20917
5023.23 5.78328
5023.58 5.34222
5024.28 5.01939
5024.98 4.90776
5026.37 4.83289
5027.77 4.81060
5030.56 4.80052
5033.36 4.80243
5038.94 4.81750
5044.53 4.84784
5047.32 4.87375
5050.11 4.91361
5052.90 4.97951
5055.70 5.09987
5057.09 5.20130
5058.49 5.35572
5059.88 5.60753
5061.28 6.05890
5061.98 6.43275
5062.68 6.99192
5063.38 7.88312
5064.07 9.42977
5064.77 12.4670
5065.12 15.2171
5065.47 19.7175
5065.82 27.7955
5065.99 34.4752
5066.17 44.3344
5066.34 59.8274
5066.52 85.3867
5066.69 130.878
5066.87 213.709
5067.03 340.059
5067.20 423.975
5067.37 339.837
5067.54 214.453
5067.66 150.558
5067.78 108.936
5067.91 81.7523
5068.03 63.6187
5068.28 41.8741
5068.52 30.1088
5068.77 23.1103
5069.02 18.6358
5069.51 13.4749
5070.01 10.7301
5070.50 9.10764
5071.00 8.06837
5071.49 7.36315
5072.48 6.49439
5073.47 6.00079
5074.45 5.69332
5075.44 5.48882
5077.42 5.24194
5079.40 5.10419
5081.37 5.01935
5083.35 4.96339
5087.30 4.89624
5091.26 4.85889
5099.16 4.82059
5107.07 4.80206
5114.97 4.79150
5130.79 4.78013
5146.60 4.77416
5162.41 4.77075
5178.23 4.77129
5186.13 4.78453
5188.11 4.79933
5190.09 4.84195
5191.08 4.90134
5192.06 5.06772
5192.56 5.29425
5192.80 5.51616
5193.05 5.91239
5193.30 6.72699
5193.42 7.50657
5193.55 8.84413
5193.67 11.4827
5193.73 13.8692
5193.79 17.6897
5193.85 24.6122
5193.89 30.2997
5193.92 38.7182
5193.95 51.8157
5193.98 73.4205
5194.01 111.299
5194.04 177.412
5194.07 282.559
5194.10 350.300
5194.13 282.671
5194.16 177.555
5194.18 125.454
5194.21 90.3287
5194.23 67.5965
5194.25 52.9958
5194.30 35.1205
5194.34 25.4637
5194.39 19.6268
5194.43 15.9961
5194.52 11.8075
5194.61 9.56489
5194.70 8.25429
5194.88 6.83991
5195.07 6.13876
5195.25 5.74116
5195.61 5.33043
5196.33 5.02405
5197.06 4.91296
5198.50 4.83156
5199.95 4.80235
5205.74 4.77299
5217.32 4.76416
5240.49 4.75966
5286.82 4.75468
5379.47 4.74679
5564.78 4.73288
5750.09 4.71958
5935.40 4.70604
6120.71 4.69160
6213.36 4.68381
6306.02 4.67548
6398.67 4.66645
6491.33 4.65653
6583.98 4.64572
6630.31 4.64159
6641.89 4.64226
6653.47 4.64728
6659.26 4.65585
6665.05 4.68184
6667.95 4.71869
6670.84 4.82281
6672.29 4.96528
6673.02 5.10526
6673.74 5.35546
6674.46 5.87248
6674.83 6.36686
6675.19 7.22616
6675.55 8.91901
6675.73 10.4580
6675.91 12.9883
6676.09 17.5640
6676.18 21.3897
6676.27 27.0511
6676.36 36.0953
6676.45 51.1677
6676.54 78.3420
6676.63 130.006
6676.72 204.854
6676.80 255.421
6676.88 204.934
6676.97 130.031
6677.04 85.7879
6677.11 59.3354
6677.19 43.3400
6677.26 33.3271
6677.41 21.9607
6677.55 16.1462
6677.70 12.8107
6677.85 10.7311
6678.14 8.38967
6678.44 7.17153
6678.73 6.46349
6679.32 5.71281
6679.91 5.34380
6680.50 5.13622
6681.67 4.92280
6682.85 4.82078
6684.03 4.76424
6686.38 4.70680
6691.08 4.66439
6695.79 4.64876
6705.20 4.63642
6714.61 4.63100
6752.26 4.62051
6827.56 4.60387
6865.21 4.59437
6902.86 4.58364
6940.51 4.57312
6949.92 4.57254
6959.33 4.57798
6964.04 4.58925
6968.74 4.62521
6971.09 4.67691
6972.27 4.72885
6973.45 4.82345
6974.62 5.02371
6975.21 5.21981
6975.80 5.56984
6976.39 6.29055
6976.68 6.97539
6976.98 8.15893
6977.27 10.4699
6977.42 12.5508
6977.57 15.9375
6977.71 21.9689
6977.79 26.9408
6977.86 34.1669
6977.93 45.5002
6978.01 63.7930
6978.08 95.9850
6978.15 152.669
6978.23 242.179
6978.30 300.782
6978.37 240.931
6978.45 152.625
6978.52 98.3760
6978.58 67.1912
6978.65 48.3673
6978.72 36.7737
6978.86 23.7984
6978.99 17.2886
6979.13 13.5536
6979.27 11.2403
6979.54 8.65851
6979.82 7.32050
6980.09 6.54504
6980.64 5.72376
6981.18 5.32179
6981.73 5.09561
6982.82 4.86353
6983.92 4.75257
6985.01 4.69097
6987.20 4.62804
6991.57 4.58051
6995.94 4.56178
7004.69 4.54430
7013.44 4.53364
7030.94 4.51500
7048.43 4.49300
7065.93 4.46159
7074.68 4.43878
7083.43 4.40667
7092.18 4.35629
7096.55 4.31764
7100.93 4.26133
7105.30 4.17037
7107.49 4.09947
7109.67 3.99557
7111.86 3.82801
7112.95 3.69847
7114.05 3.51151
7115.14 3.21789
7115.69 2.99879
7116.23 2.69617
7116.78 2.25578
7117.33 1.59979
7117.60 1.21237
7117.88 1.11677
7117.94 1.30955
7118.01 1.74067
7118.08 2.62623
7118.15 4.42448
7118.22 8.29737
7118.25 11.7448
7118.29 17.1017
7118.32 25.7351
7118.35 40.2535
7118.39 65.7354
7118.42 112.249
7118.46 202.444
7118.50 282.233
7118.54 252.181
7118.58 174.507
7118.62 112.275
7118.67 77.1555
7118.72 57.0127
7118.76 44.8175
7118.81 36.5798
7118.85 30.8629
7118.94 23.6615
7119.04 19.3190
7119.13 16.5149
7119.31 13.1217
7119.49 11.1658
7119.68 9.91307
7119.86 9.04746
7120.04 8.41888
7120.41 7.56121
7120.77 7.01014
7121.50 6.34335
7122.23 5.95633
7122.96 5.70393
7124.43 5.39479
7125.89 5.21256
7127.35 5.09227
7130.27 4.94282
7133.20 4.85312
7136.12 4.79286
7141.97 4.71592
7147.82 4.66760
7153.67 4.63327
7165.36 4.58475
7177.06 4.54833
7188.75 4.51623
7212.15 4.45027
7235.54 4.36149
7247.23 4.29645
7258.93 4.20311
7264.78 4.13834
7270.63 4.05371
7276.47 3.93792
7282.32 3.76916
7285.25 3.65187
7288.17 3.49944
7291.09 3.29329
7294.02 2.99934
7295.48 2.80024
7296.94 2.54847
7298.40 2.22153
7299.87 1.78484
7300.60 1.51077
7301.33 1.19216
7302.79 0.462946
7303.52 0.257355
7303.89 0.409827
7304.25 1.07191
7304.44 1.80980
7304.62 3.06742
7304.80 5.23186
7304.98 9.03817
7305.08 12.0384
7305.17 16.1406
7305.26 21.9822
7305.35 30.2939
7305.44 42.6742
7305.53 61.1473
7305.62 89.4872
7305.71 132.995
7305.86 240.655
7306.00 337.989
7306.14 302.207
7306.29 209.987
7306.38 161.920
7306.48 127.515
7306.66 84.8959
7306.85 61.6212
7307.04 47.7719
7307.23 38.7776
7307.42 32.6381
7307.80 24.8904
7308.17 20.3035
7308.55 17.3310
7309.30 13.7505
7310.06 11.6980
7310.81 10.3828
7311.57 9.47094
7312.32 8.80509
7313.83 7.89888
7315.34 7.31320
7316.85 6.90439
7318.36 6.60320
7321.38 6.18950
7324.39 5.91894
7327.41 5.72825
7330.43 5.58664
7336.47 5.39017
7342.50 5.26023
7348.54 5.16779
7354.57 5.09857
7366.64 5.00151
7378.72 4.93641
7402.86 4.85380
7427.00 4.80277
7451.14 4.76768
7475.29 4.74329
7487.36 4.74126
7493.39 4.77283
7494.90 4.80951
7496.41 4.91531
7497.17 5.06178
7497.92 5.46699
7498.30 6.00944
7498.49 6.53459
7498.67 7.45137
7498.86 9.29593
7498.96 10.9926
7499.05 13.8292
7499.15 19.1688
7499.19 23.6950
7499.24 30.6621
7499.29 42.1082
7499.33 62.5383
7499.38 102.833
7499.41 138.593
7499.43 190.821
7499.46 301.105
7499.50 376.876
7499.54 301.265
7499.57 190.760
7499.61 122.142
7499.64 82.2336
7499.67 58.7577
7499.71 44.2000
7499.74 34.6860
7499.78 28.1775
7499.84 20.1529
7499.91 15.6106
7499.98 12.8041
7500.12 9.67090
7500.25 8.05775
7500.39 7.12086
7500.66 6.13464
7501.20 5.37780
7501.75 5.09879
7502.83 4.89149
7503.92 4.81629
7506.09 4.76029
7508.27 4.73927
7516.96 4.71390
7534.35 4.69757
7569.12 4.67678
7603.89 4.65999
7638.67 4.64527
7708.21 4.61937
7742.99 4.60743
7760.37 4.60168
7769.07 4.59921
7773.41 4.59955
7775.59 4.60600
7776.67 4.63344
7777.22 4.73545
7777.49 5.07933
7777.62 6.05666
7777.69 8.14451
7777.73 11.1570
7777.76 18.3982
7777.78 26.6715
7777.80 32.2312
7777.82 26.6881
7777.84 18.4188
7777.87 12.7134
7777.89 9.61460
7777.94 6.99569
7778.03 5.48641
7778.22 4.87241
7778.60 4.67310
7779.35 4.61602
7780.86 4.60024
7783.87 4.59523
7789.90 4.59219
7801.96 4.58793
7826.07 4.57993
7874.30 4.56401
7970.76 4.53127
8018.99 4.51458
8067.22 4.49962
8091.33 4.49576
8103.39 4.49699
8115.44 4.50363
8127.50 4.52417
8133.53 4.54746
8139.56 4.59232
8142.57 4.63112
8145.59 4.69108
8148.60 4.79008
8151.62 4.96978
8153.12 5.11996
8154.63 5.34672
8156.14 5.71224
8157.65 6.35691
8158.40 6.88197
8159.15 7.65541
8159.91 8.86507
8160.66 10.9026
8161.41 14.7383
8161.79 18.0565
8162.17 23.2150
8162.54 31.8653
8162.92 47.7316
8163.11 60.9621
8163.30 80.3706
8163.49 109.691
8163.67 154.018
8163.94 244.188
8164.20 304.109
8164.46 243.919
8164.73 154.153
8164.95 104.104
8165.16 73.3234
8165.38 54.0176
8165.60 41.5590
8166.04 27.1979
8166.47 19.7175
8166.91 15.3601
8167.35 12.6253
8168.22 9.51579
8169.09 7.88785
8169.97 6.93399
8170.84 6.32734
8171.71 5.91788
8173.46 5.41637
8175.21 5.13278
8176.95 4.95662
8178.70 4.83973
8182.19 4.69862
8185.69 4.61951
8189.18 4.57037
8192.67 4.53746
8199.66 4.49671
8206.64 4.47251
8220.61 4.44411
8234.59 4.42630
8248.56 4.41254
8276.50 4.38932
8332.39 4.34523
8388.27 4.29616
8444.16 4.23765
8500.04 4.16496
8527.98 4.12106
8555.93 4.07022
8583.87 4.01103
8597.84 3.98422
8604.83 4.00311
8606.57 4.03824
8608.32 4.14673
8609.19 4.30007
8610.07 4.72729
8610.50 5.30028
8610.72 5.85106
8610.94 6.81489
8611.16 8.74593
8611.27 10.5164
8611.38 13.4637
8611.49 18.8946
8611.54 23.5451
8611.59 30.5123
8611.65 42.0372
8611.70 61.8637
8611.76 100.618
8611.79 132.654
8611.81 178.473
8611.86 283.100
8611.90 353.100
8611.94 283.233
8611.99 178.641
8612.01 134.239
8612.04 101.760
8612.10 62.9832
8612.15 42.6895
8612.20 31.0900
8612.26 23.9345
8612.31 19.2420
8612.42 13.7329
8612.53 10.7048
8612.63 8.89897
8612.85 6.91912
8613.06 5.92198
8613.28 5.35071
8613.71 4.75475
8614.57 4.30412
8615.43 4.13768
8617.15 4.01134
8618.87 3.96192
8625.75 3.89172
8639.51 3.80746
8646.39 3.75004
8649.83 3.71043
8653.27 3.65645
8656.72 3.57423
8658.44 3.51246
8660.16 3.42389
8661.88 3.28354
8663.60 3.02243
8664.46 2.78233
8665.32 2.35747
8665.75 2.00049
8666.18 1.47087
8666.39 1.16035
8666.61 1.08597
8666.71 1.59020
8666.82 3.73614
8666.88 6.78541
8666.93 13.7748
8666.96 20.6126
8666.98 32.0776
8667.01 52.1075
8667.04 87.2094
8667.07 156.150
8667.10 220.115
8667.12 218.895
8667.13 196.036
8667.16 136.741
8667.20 91.1001
8667.23 64.1782
8667.27 48.1466
8667.30 38.0152
8667.33 31.2317
8667.37 26.4617
8667.43 20.3949
8667.50 16.6773
8667.57 14.2685
8667.70 11.3173
8667.84 9.60988
8667.98 8.52279
8668.25 7.22023
8668.52 6.47153
8668.79 5.99092
8669.33 5.40979
8669.87 5.07152
8670.41 4.85101
8671.49 4.57979
8672.57 4.41894
8673.65 4.31190
8675.81 4.17691
8677.97 4.09373
8680.14 4.03603
8684.46 3.95825
8688.78 3.90509
8693.11 3.86388
8701.76 3.79842
8719.05 3.69109
8736.35 3.58765
8770.94 3.34960
8805.53 3.02453
8822.83 2.80711
8840.12 2.53345
8857.42 2.17919
8874.72 1.70690
8883.36 1.41060
8892.01 1.06585
8900.66 0.674113
8909.31 0.269064
8913.63 0.101530
8915.79 0.0445794
8917.96 0.0195821
8920.12 0.0439189
8922.28 0.144318
8924.44 0.362784
8925.52 0.536030
8926.60 0.767107
8928.77 1.47025
8930.93 2.66788
8933.09 4.71518
8935.25 8.29426
8937.41 14.8064
8938.50 20.0149
8939.58 27.3592
8940.66 37.9102
8941.74 53.3443
8942.82 76.2178
8943.90 110.039
8945.80 203.080
8947.70 289.966
8949.60 262.567
8951.50 184.383
8952.83 141.202
8954.16 110.419
8955.49 88.7500
8956.82 73.2410
8959.49 53.2938
8962.15 41.4874
8964.81 33.8982
8967.47 28.7039
8972.79 22.1709
8978.12 18.3039
8983.44 15.7830
8988.76 14.0237
8994.09 12.7328
9004.73 10.9750
9015.38 9.84095
9026.03 9.05179
9036.67 8.47247
9057.97 7.68071
9079.26 7.16625
9089.91 6.97146
9100.55 6.80627
9111.20 6.66689
9116.52 6.61630
9119.18 6.63969
9119.85 6.68713
9120.51 6.83189
9120.85 7.03327
9121.18 7.57712
9121.35 8.28501
9121.51 10.0548
9121.59 12.1510
9121.68 16.8110
9121.72 21.6610
9121.76 30.3923
9121.78 37.8639
9121.80 49.0055
9121.82 66.0791
9121.84 91.2151
9121.87 142.681
9121.90 175.891
9121.93 142.762
9121.96 91.3166
9121.98 60.5149
9122.01 42.6796
9122.04 31.9938
9122.06 25.2754
9122.11 17.7805
9122.17 13.9784
9122.27 10.4605
9122.37 8.94700
9122.58 7.70648
9122.79 7.22188
9123.21 6.84787
9123.62 6.70671
9125.29 6.55119
9128.61 6.48077
9135.27 6.40696
9148.59 6.28934
9161.90 6.18880
9175.21 6.10090
9201.84 5.95417
9228.47 5.83652
9281.73 5.65961
9334.99 5.53335
9388.24 5.44006
9414.87 5.40328
9441.50 5.37349
9468.13 5.35419
9481.44 5.35225
9494.76 5.36194
9501.41 5.37539
9508.07 5.39991
9514.73 5.44489
9521.39 5.53241
9524.71 5.60820
9528.04 5.72509
9531.37 5.91726
9534.70 6.26288
9536.36 6.54886
9538.03 6.97620
9539.69 7.65499
9541.36 8.82622
9543.02 11.1055
9543.85 13.1461
9544.69 16.4459
9545.52 22.2645
9546.35 33.8374
9546.77 44.3045
9547.18 61.1008
9547.60 89.4626
9548.01 138.404
9548.46 218.748
9548.90 272.368
9549.34 218.950
9549.79 138.917
9550.12 98.2328
9550.44 71.7142
9550.77 54.3850
9551.10 42.7722
9551.75 28.8821
9552.41 21.3854
9553.07 16.9218
9553.72 14.0735
9555.03 10.7879
9556.34 9.04174
9557.65 8.00680
9558.96 7.34372
9560.27 6.89384
9562.90 6.33900
9565.52 6.02321
9568.14 5.82936
9569.45 5.77306
9570.10 5.80162
9570.43 5.99445
9570.60 6.61019
9570.68 8.06102
9570.72 10.4063
9570.76 17.0768
9570.80 28.4646
9570.84 17.0830
9570.87 11.9608
9570.89 9.46600
9570.95 7.42009
9571.05 6.29878
9571.26 5.85870
9571.68 5.70718
9572.52 5.63946
9574.19 5.57855
9577.55 5.49896
9584.25 5.40230
9590.96 5.34575
9597.66 5.30885
9611.08 5.26316
9624.49 5.23503
9637.90 5.21497
9651.31 5.19925
9678.13 5.17469
9704.95 5.15508
9731.78 5.13825
9785.42 5.10964
9839.07 5.08543
9892.71 5.06428
10000.0 5.02852
10080.7 5.00583
10161.4 4.98577
10242.1 4.96789
10282.5 4.96141
10302.6 4.96894
10307.7 4.98147
10312.7 5.02100
10315.2 5.07842
10317.8 5.24300
10319.0 5.46885
10319.6 5.68995
10320.3 6.08295
10320.9 6.88195
10321.2 7.64678
10321.5 8.90524
10321.9 11.3772
10322.0 13.5576
10322.2 16.7522
10322.3 22.4934
10322.5 33.3450
10322.6 42.6348
10322.6 56.7144
10322.7 78.7116
10322.8 109.499
10322.9 174.957
10323.0 215.143
10323.1 175.678
10323.2 110.422
10323.3 64.6493
10323.5 41.9627
10323.6 29.7048
10323.7 22.5365
10323.8 17.7450
10323.9 14.8534
10324.2 11.3755
10324.4 9.39096
10324.7 8.24103
10325.2 6.96820
10325.6 6.30682
10326.1 5.93312
10327.1 5.53499
10328.1 5.33887
10329.0 5.22959
10331.0 5.11644
10334.9 5.03053
10338.8 4.99827
10346.5 4.97279
10354.3 4.96227
10369.9 4.95232
10385.4 4.94672
10447.6 4.93267
10509.8 4.92155
10540.9 4.91629
10556.4 4.91376
10564.2 4.91347
10568.1 4.91861
10570.0 4.94440
10571.0 5.04875
10571.5 5.43377
10571.7 6.61061
10571.8 9.44964
10571.9 14.2670
10571.9 19.7394
10571.9 33.9360
10572.0 49.1780
10572.0 63.7912
10572.0 49.4464
10572.1 34.2476
10572.1 20.0107
10572.1 13.2855
10572.2 8.45282
10572.4 6.18387
10572.7 5.29565
10573.3 5.02326
10574.5 4.94358
10577.0 4.92080
10581.9 4.91346
10591.7 4.90986
10611.3 4.90613
10650.5 4.89996
10728.9 4.88870
10807.3 4.87998
10826.9 4.87994
10846.5 4.88497
10856.4 4.89439
10866.2 4.92329
10871.1 4.96416
10873.5 5.00498
10876.0 5.07922
10878.4 5.23619
10879.6 5.39114
10880.9 5.66651
10882.1 6.24159
10882.7 6.78969
10883.3 7.74535
10883.6 8.53005
10883.9 9.68449
10884.2 11.4818
10884.5 14.3727
10884.8 19.8829
10885.0 24.4090
10885.1 31.2711
10885.3 43.2802
10885.5 63.2322
10885.6 101.331
10885.7 135.924
10885.8 185.883
10885.9 294.861
10886.0 366.620
10886.1 294.662
10886.2 185.639
10886.3 125.743
10886.4 88.2601
10886.5 64.8726
10886.6 50.9736
10886.8 32.9342
10887.0 23.9424
10887.2 18.4083
10887.4 15.0953
10887.8 11.2049
10888.2 9.16756
10888.6 7.97182
10889.0 7.21159
10889.4 6.70976
10890.1 6.07772
10890.9 5.72148
10892.5 5.35726
10894.0 5.18228
10895.6 5.08606
10898.7 4.98859
10904.9 4.91719
10911.1 4.89141
10923.5 4.87180
10935.9 4.86374
10985.6 4.85007
11085.0 4.83149
11184.4 4.81135
11209.2 4.80677
11234.0 4.80558
11246.5 4.81047
11258.9 4.83218
11265.1 4.86661
11268.2 4.90243
11271.3 4.96881
11274.4 5.11248
11276.0 5.25497
11277.5 5.51254
11278.3 5.72881
11279.1 6.05599
11279.9 6.58461
11280.6 7.50392
11281.0 8.26070
11281.4 9.37902
11281.8 11.1298
11282.2 13.9923
11282.6 19.4840
11282.8 24.3861
11283.0 31.6474
11283.2 44.4681
11283.3 66.7734
11283.4 86.2172
11283.5 111.677
11283.6 153.896
11283.7 213.439
11283.9 336.960
11284.0 422.736
11284.1 337.360
11284.3 213.943
11284.4 154.383
11284.5 112.123
11284.6 84.3205
11284.7 65.5616
11284.9 43.1219
11285.1 30.9608
11285.3 23.7227
11285.5 19.0944
11285.9 13.7569
11286.3 10.9238
11286.7 9.24576
11287.1 8.17162
11287.5 7.44319
11288.3 6.54720
11289.1 6.03796
11289.9 5.72102
11290.7 5.51036
11292.3 5.25627
11293.9 5.11442
11297.1 4.96956
11300.3 4.89978
11303.5 4.86062
11309.8 4.81923
11322.6 4.78428
11335.4 4.76646
11361.0 4.74017
11386.6 4.71132
11412.1 4.66954
11424.9 4.63831
11437.7 4.59329
11450.5 4.52088
11456.9 4.46448
11463.3 4.38159
11466.5 4.32327
11469.6 4.24687
11472.8 4.14148
11476.0 3.98772
11479.2 3.74015
11480.8 3.55009
11482.4 3.27990
11484.0 2.86040
11484.8 2.55342
11485.6 2.13837
11486.4 1.56028
11487.2 0.783769
11487.6 0.436290
11487.8 0.412728
11488.0 0.719350
11488.2 1.90845
11488.3 3.27500
11488.4 5.72946
11488.5 10.2734
11488.6 13.9354
11488.6 19.1137
11488.7 26.5584
11488.7 37.4326
11488.8 53.4872
11488.8 75.9732
11488.9 143.657
11489.0 207.412
11489.1 191.576
11489.2 136.284
11489.3 96.0730
11489.4 72.6267
11489.4 55.7133
11489.5 45.7229
11489.7 32.8542
11489.9 25.7000
11490.0 21.2652
11490.2 18.2925
11490.5 14.6139
11490.9 12.4582
11491.2 11.0560
11491.6 10.0765
11491.9 9.35609
11492.6 8.37093
11493.3 7.73111
11493.9 7.28323
11494.6 6.95687
11496.0 6.50052
11497.3 6.20194
11498.7 5.99149
11500.0 5.83622
11502.8 5.61924
11505.5 5.47640
11508.2 5.37451
11510.9 5.29857
11516.3 5.19208
11521.8 5.12083
11532.6 5.03060
11543.5 4.97483
11554.3 4.93599
11576.1 4.88295
11597.8 4.84505
11619.5 4.81310
11641.2 4.78339
11652.1 4.77447
11657.5 4.79865
11660.2 4.92691
11660.9 5.06114
11661.6 5.43286
11661.9 5.92740
11662.2 7.22345
11662.4 8.84150
11662.6 12.7124
11662.7 17.3882
11662.8 25.8955
11662.8 33.5704
11662.8 45.8855
11662.9 66.7810
11662.9 113.600
11663.0 180.209
11663.0 221.732
11663.0 180.572
11663.1 114.062
11663.1 74.5464
11663.2 55.2881
11663.2 42.5525
11663.2 33.8846
11663.3 23.3842
11663.3 17.6049
11663.5 11.5813
11663.6 9.10924
11663.8 6.91220
11664.1 6.03844
11664.6 5.35852
11665.1 5.10304
11666.1 4.91033
11667.1 4.83922
11671.1 4.76108
11679.0 4.72640
11695.0 4.68470
11710.9 4.63589
11726.9 4.56748
11734.9 4.52021
11742.8 4.45857
11750.8 4.37398
11758.8 4.25022
11762.8 4.16353
11766.8 4.05005
11770.7 3.89494
11774.7 3.67072
11776.7 3.51531
11778.7 3.31605
11780.7 3.05022
11782.7 2.67916
11783.7 2.43238
11784.7 2.12754
11785.7 1.74543
11786.7 1.26990
11787.7 0.693856
11788.7 0.249550
11788.9 0.291272
11789.2 0.523538
11789.4 1.12691
11789.7 2.48493
11789.8 3.74660
11789.9 5.48497
11790.1 8.34293
11790.2 12.4174
11790.3 19.4328
11790.4 29.9915
11790.5 47.3209
11790.7 75.9063
11790.8 143.345
11791.0 208.988
11791.2 193.063
11791.3 138.078
11791.5 102.456
11791.6 78.3304
11791.8 62.1334
11791.9 51.6340
11792.2 37.4575
11792.4 29.5790
11792.7 24.3957
11793.0 20.9998
11793.5 16.6544
11794.1 14.0843
11794.6 12.4046
11795.2 11.2282
11795.7 10.3755
11796.8 9.18453
11797.9 8.41146
11799.0 7.87077
11800.1 7.47517
11802.3 6.92614
11804.5 6.56871
11806.7 6.31675
11808.9 6.12964
11813.3 5.86993
11817.7 5.69865
11822.1 5.57716
11826.4 5.48664
11835.2 5.36006
11844.0 5.27590
11852.8 5.21565
11861.5 5.17037
11879.1 5.10652
11896.6 5.06340
11931.7 5.00824
11966.8 4.97383
12001.9 4.94984
12072.1 4.91764
12142.3 4.89604
12212.5 4.87975
12282.7 4.86647
12317.8 4.86085
12335.4 4.85957
12344.2 4.86479
12348.6 4.89091
12350.7 4.99520
12351.3 5.10078
12351.8 5.39069
12352.1 5.78595
12352.4 6.78554
12352.5 8.08551
12352.7 10.9285
12352.7 14.2913
12352.8 21.3007
12352.8 29.2148
12352.9 39.1938
12352.9 55.7107
12352.9 88.6782
12353.0 143.827
12353.0 172.577
12353.0 143.901
12353.1 88.7767
12353.1 63.5667
12353.1 49.3044
12353.2 32.1018
12353.2 22.9490
12353.2 17.6444
12353.3 12.1496
12353.4 9.54193
12353.6 7.16462
12353.7 6.26164
12354.1 5.52106
12354.4 5.24778
12355.7 4.95925
12358.3 4.88150
12363.5 4.86043
12373.9 4.85351
12394.7 4.84892
12436.3 4.84230
12519.5 4.82985
12602.7 4.81685
12644.3 4.80983
12665.2 4.80644
12675.6 4.80598
12680.8 4.81067
12683.4 4.83176
12684.7 4.91279
12685.3 5.20736
12685.6 6.22563
12685.7 7.09054
12685.8 9.04994
12685.9 15.0002
12685.9 23.4778
12685.9 31.5781
12686.0 44.4968
12686.0 73.5170
12686.0 84.6208
12686.1 44.4210
12686.1 26.9855
12686.1 20.5745
12686.2 12.6706
12686.2 8.06693
12686.4 5.89444
12686.8 5.11936
12687.5 4.88644
12688.9 4.82269
12691.8 4.80574
12697.6 4.80055
12709.1 4.79719
12732.2 4.79187
12778.4 4.78044
12824.6 4.77062
12836.1 4.77261
12847.7 4.78732
12853.4 4.81277
12859.2 4.89051
12862.1 5.00095
12863.5 5.11084
12865.0 5.30987
12866.4 5.73101
12867.2 6.13788
12867.9 6.85608
12868.2 7.44102
12868.6 8.30441
12869.0 9.65405
12869.3 11.9329
12869.7 16.2231
12869.9 19.9385
12870.0 25.7398
12870.2 35.4641
12870.4 53.3471
12870.5 68.2527
12870.6 90.2971
12870.7 123.762
12870.8 175.348
12870.9 282.034
12871.0 346.790
12871.1 282.335
12871.2 175.738
12871.3 128.815
12871.4 93.6988
12871.5 70.5985
12871.6 55.0230
12871.8 36.4140
12872.0 26.7715
12872.1 20.6231
12872.3 16.7094
12872.7 12.3051
12873.0 9.89367
12873.4 8.50483
12873.7 7.58921
12874.1 6.98549
12874.8 6.23008
12875.5 5.80067
12876.9 5.35563
12878.3 5.14117
12879.8 5.02133
12882.6 4.89866
12888.3 4.80549
12893.9 4.76910
12905.3 4.73615
12916.6 4.71685
12939.3 4.68305
12962.0 4.64035
12984.7 4.57327
12996.0 4.52096
13007.3 4.44378
13018.7 4.31774
13024.3 4.21889
13030.0 4.07369
13032.9 3.97194
13035.7 3.83947
13038.5 3.65850
13041.4 3.39893
13042.8 3.22077
13044.2 2.99307
13045.6 2.69271
13047.0 2.28447
13048.4 1.69788
13049.9 0.854805
13050.6 0.389683
13050.9 0.244326
13051.1 0.246990
13051.3 0.339913
13051.6 1.15145
13051.8 2.22456
13052.0 4.13041
13052.2 8.01376
13052.3 11.2611
13052.3 15.3590
13052.4 22.0265
13052.5 32.0342
13052.6 47.2396
13052.7 67.2084
13052.9 130.646
13053.0 188.709
13053.1 191.454
13053.2 173.947
13053.3 126.064
13053.5 85.6487
13053.7 61.6718
13053.8 47.2135
13054.0 37.9715
13054.2 31.7169
13054.3 27.2747
13054.7 21.6170
13055.0 18.0295
13055.3 15.6457
13056.0 12.7451
13056.7 11.0190
13057.4 9.91104
13058.0 9.13323
13058.7 8.55864
13060.1 7.76403
13061.4 7.24620
13062.8 6.88265
13064.1 6.61538
13066.8 6.24364
13069.5 6.00035
13072.2 5.82774
13074.9 5.69978
13080.3 5.52172
13085.7 5.40394
13091.0 5.32025
13096.4 5.25780
13107.2 5.17044
13118.0 5.11234
13139.5 5.03958
13161.1 4.99568
13182.6 4.96616
13225.7 4.92861
13268.8 4.90539
13311.9 4.88934
13398.1 4.86802
13484.3 4.85395
13570.5 4.84355
13656.8 4.83527
13699.9 4.83169
13721.4 4.83006
13732.2 4.82962
13737.6 4.83091
13740.3 4.83777
13741.6 4.86576
13742.3 4.96991
13742.6 5.33592
13742.8 6.44077
13742.9 8.73095
13742.9 12.0321
13743.0 21.0606
13743.0 32.3996
13743.0 37.1500
13743.0 32.4338
13743.0 21.1090
13743.1 13.4801
13743.1 10.0678
13743.2 7.01014
13743.3 5.55501
13743.6 5.04731
13744.1 4.88822
13745.2 4.84441
13747.4 4.83244
13751.8 4.82898
13760.5 4.82748
13778.0 4.82599
13813.0 4.82354
13848.0 4.82137
13865.5 4.82086
13874.2 4.82282
13878.6 4.83269
13880.8 4.87259
13881.9 5.02355
13882.4 5.56966
13882.5 6.09068
13882.7 7.26205
13882.7 8.69631
13882.8 11.8348
13882.9 20.6600
13882.9 29.7632
13882.9 52.1228
13883.0 77.4258
13883.0 100.211
13883.0 77.4662
13883.1 52.1703
13883.1 34.3837
13883.1 26.1187
13883.2 15.6298
13883.2 9.35857
13883.3 7.13830
13883.4 6.28355
13883.8 5.24822
13884.5 4.93595
13886.0 4.84972
13889.0 4.82673
13894.9 4.82045
13906.8 4.81820
13930.5 4.81639
13978.0 4.81360
14073.0 4.80859
14168.0 4.80404
14215.4 4.80222
14239.2 4.80272
14251.0 4.80858
14257.0 4.83380
14260.0 4.93306
14261.4 5.30407
14261.8 5.66232
14262.2 6.59563
14262.4 7.80186
14262.5 10.5261
14262.6 13.9702
14262.7 20.4940
14262.8 27.4563
14262.8 36.6948
14262.9 57.5137
14262.9 95.9216
14263.0 152.938
14263.0 187.533
14263.0 152.973
14263.1 95.9673
14263.1 70.9103
14263.1 52.1727
14263.2 31.5524
14263.3 21.6385
14263.3 16.9790
14263.4 11.3413
14263.5 9.00398
14263.8 6.89328
14264.0 6.04761
14264.5 5.38799
14264.9 5.14073
14266.8 4.88951
14270.4 4.82262
14277.7 4.80500
14292.4 4.79991
14321.7 4.79749
14380.3 4.79471
14497.5 4.78990
14614.7 4.78552
14673.2 4.78406
14702.5 4.78605
14717.2 4.79789
14724.5 4.84619
14726.3 4.89525
14728.2 5.03079
14729.1 5.21368
14730.0 5.69507
14730.5 6.31685
14730.9 7.87069
14731.2 9.70342
14731.3 11.3728
14731.4 13.7562
14731.5 18.1201
14731.6 25.4322
14731.7 39.9360
14731.8 54.0059
14731.8 74.2303
14731.9 116.713
14732.0 143.677
14732.1 116.739
14732.2 74.2642
14732.2 54.0388
14732.3 41.9108
14732.3 32.0474
14732.4 26.3880
14732.5 18.6366
14732.6 14.6443
14732.8 10.3269
14733.0 8.31405
14733.2 7.18388
14733.4 6.54290
14733.9 5.84305
14734.7 5.28388
14735.6 5.07313
14737.3 4.91514
14739.0 4.85767
14745.8 4.80035
14759.3 4.78506
14786.5 4.78027
14840.9 4.77733
14949.6 4.77323
15058.3 4.76945
15112.6 4.76765
15139.8 4.76692
15153.4 4.76708
15160.2 4.76906
15163.6 4.77711
15165.3 4.80781
15166.1 4.92221
15166.5 5.31582
15166.7 6.51202
15166.9 9.67726
15166.9 14.6721
15166.9 21.7181
15167.0 31.6349
15167.0 50.3840
15167.0 58.4440
15167.0 50.3287
15167.0 31.5577
15167.1 21.6463
15167.1 14.6123
15167.2 9.08983
15167.3 6.36299
15167.5 5.25768
15167.9 4.89841
15168.8 4.79938
15170.6 4.77376
15174.2 4.76727
15181.4 4.76555
15195.7 4.76476
15224.4 4.76376
15281.8 4.76188
15396.5 4.75823
15511.2 4.75482
15568.6 4.75335
15597.3 4.75295
15611.6 4.75357
15618.8 4.75635
15622.4 4.76608
15624.2 4.80027
15625.1 4.92209
15625.5 5.33749
15625.7 6.53503
15625.8 9.25074
15625.9 14.1840
15625.9 19.8264
15625.9 28.1365
15626.0 40.6108
15626.0 51.0365
15626.0 40.4045
15626.1 27.8905
15626.1 15.4824
15626.2 10.2072
15626.3 6.85764
15626.5 5.41001
15626.8 4.93507
15627.6 4.79700
15629.2 4.76114
15632.3 4.75282
15638.6 4.75110
15651.1 4.75068
15676.2 4.75024
15726.3 4.74946
15826.5 4.74920
15876.6 4.75063
15926.7 4.75459
15976.8 4.76464
16001.9 4.77509
16014.4 4.78321
16020.7 4.78902
16023.8 4.79470
16025.4 4.80619
16026.2 4.84156
16026.6 4.95713
16026.8 5.31800
16026.9 6.22911
16026.9 7.87531
16027.0 13.2450
16027.0 21.5746
16027.0 13.1368
16027.1 7.30507
16027.2 5.86470
16027.3 5.17969
16027.5 4.90417
16028.0 4.82272
16028.9 4.80152
16030.7 4.79814
16034.3 4.80127
16041.5 4.81093
16055.9 4.83853
16070.4 4.88433
16084.8 4.96795
16092.1 5.03828
16099.3 5.14490
16106.5 5.31795
16113.7 5.62473
16117.4 5.87654
16121.0 6.24877
16124.6 6.83331
16128.2 7.82610
16131.8 9.71040
16133.6 11.3609
16135.4 13.9441
16137.2 18.3474
16139.0 26.5309
16139.9 33.5466
16140.8 43.9790
16141.7 60.1037
16142.6 85.1267
16143.8 133.649
16145.0 166.182
16146.2 134.024
16147.4 85.6147
16148.5 56.1403
16149.6 39.0934
16150.7 28.8414
16151.8 22.4807
16154.0 15.3722
16156.2 11.7900
16158.4 9.73758
16160.6 8.46843
16165.0 7.03945
16169.4 6.29919
16173.9 5.86719
16178.3 5.59332
16182.7 5.40881
16191.5 5.18325
16200.3 5.05582
16209.1 4.97738
16213.5 4.95093
16215.8 4.94589
16216.9 4.96481
16217.4 5.04471
16217.7 5.31362
16217.8 6.07323
16217.9 7.70369
16217.9 9.59572
16218.0 15.2991
16218.0 25.4823
16218.0 15.0991
16218.1 9.42875
16218.1 7.18760
16218.2 5.78487
16218.4 5.20134
16218.7 4.99588
16219.3 4.93400
16220.5 4.91413
16222.9 4.90088
16227.8 4.88251
16237.5 4.85455
16257.0 4.81866
16276.5 4.79738
16296.0 4.78390
16335.0 4.76908
16374.0 4.76319
16413.0 4.76350
16452.0 4.77120
16471.5 4.77958
16491.0 4.79336
16510.5 4.81676
16520.2 4.83463
16525.1 4.84620
16527.5 4.85568
16528.7 4.87598
16529.4 4.95051
16529.7 5.20751
16529.8 5.94127
16529.9 7.68327
16529.9 10.3858
16530.0 15.8476
16530.0 27.1661
16530.0 16.1726
16530.1 10.6690
16530.1 7.90344
16530.2 6.20702
16530.3 5.31880
16530.6 5.00486
16531.2 4.90896
16532.4 4.88355
16534.8 4.88294
16539.6 4.89960
16549.2 4.95295
16558.7 5.04086
16568.3 5.19754
16573.1 5.32709
16577.9 5.52090
16582.7 5.83113
16587.4 6.37544
16589.8 6.81757
16592.2 7.46989
16594.6 8.49108
16597.0 10.2234
16599.4 13.5185
16600.6 16.4248
16601.8 20.9932
16603.0 28.8996
16604.2 43.8614
16604.8 56.9353
16605.4 77.0781
16606.0 109.295
16606.6 160.223
16607.3 253.752
16608.0 314.423
16608.7 250.762
16609.5 158.225
16610.3 94.4074
16611.1 60.8362
16611.9 42.3878
16612.7 31.4895
16613.5 24.6134
16614.3 20.0320
16615.9 14.5362
16617.5 11.5109
16619.1 9.67841
16622.3 7.67362
16625.5 6.66343
16628.7 6.08629
16631.9 5.72685
16635.1 5.48844
16641.5 5.20260
16647.9 5.04492
16654.3 4.94917
16660.7 4.88686
16673.5 4.81352
16686.3 4.77385
16699.1 4.75435
16705.5 4.77774
16707.1 4.81393
16708.7 4.92591
16709.5 5.08506
16710.3 5.52533
16710.7 6.10115
16711.1 7.55265
16711.3 9.26618
16711.5 13.0332
16711.6 16.8296
16711.7 23.6834
16711.7 29.2854
16711.8 37.4149
16711.8 49.4697
16711.9 68.2049
16711.9 109.086
16712.0 133.125
16712.1 110.274
16712.1 69.7427
16712.2 50.9409
16712.3 36.8513
16712.3 27.9734
16712.4 22.9986
16712.5 15.9117
16712.6 12.4700
16712.8 8.96671
16713.1 7.40809
16713.5 6.09453
16714.0 5.56701
16714.9 5.14982
16715.8 4.99012
16717.7 4.86365
16719.5 4.81453
16726.8 4.75695
16741.5 4.73206
16770.8 4.71640
16800.2 4.70938
16829.5 4.70546
16888.2 4.70253
16946.8 4.70563
16976.2 4.71089
17005.5 4.72089
17034.8 4.73988
17064.1 4.77812
17078.8 4.81211
17093.5 4.86563
17108.2 4.95562
17122.8 5.12169
17130.2 5.26227
17137.5 5.47619
17144.8 5.82389
17152.1 6.44230
17155.8 6.94946
17159.5 7.70121
17163.2 8.88155
17166.8 10.8768
17170.5 14.6594
17172.3 17.9370
17174.1 23.0636
17176.0 31.7339
17177.8 47.6500
17178.7 61.0256
17179.6 80.6126
17180.6 110.708
17181.5 155.989
17182.7 247.750
17184.0 308.766
17185.3 248.270
17186.5 157.639
17187.8 98.9206
17189.1 66.0310
17190.3 47.0697
17191.6 35.4759
17192.9 27.9729
17194.2 22.8756
17196.7 16.6497
17199.2 13.1277
17201.8 10.9653
17206.8 8.54734
17211.9 7.29923
17217.0 6.57410
17222.0 6.11446
17227.1 5.80449
17237.3 5.42401
17247.4 5.20755
17257.6 5.07157
17267.7 4.97994
17288.0 4.86510
17308.3 4.79306
17328.6 4.73020
17338.7 4.68873
17343.8 4.70121
17345.1 4.76248
17346.3 4.99717
17347.0 5.37094
17347.6 6.44747
17347.9 7.91493
17348.1 9.30559
17348.2 11.4747
17348.4 15.7111
17348.5 19.3053
17348.5 24.7728
17348.6 33.5664
17348.7 48.6976
17348.8 76.7417
17348.9 128.308
17348.9 207.615
17349.0 260.503
17349.1 214.846
17349.1 137.476
17349.2 101.888
17349.2 80.3815
17349.3 50.8915
17349.4 35.4488
17349.5 27.3725
17349.6 21.6011
17349.7 18.1674
17349.8 13.6926
17350.0 11.0745
17350.2 9.56667
17350.5 7.86199
17350.9 6.94333
17351.2 6.41418
17351.9 5.83139
17353.3 5.34623
17354.6 5.14640
17357.4 4.97619
17360.1 4.90248
17365.6 4.83468
17371.1 4.80179
17382.1 4.76687
17393.0 4.74635
17415.0 4.71760
17425.9 4.70210
17431.4 4.69409
17434.2 4.72005
17435.5 4.90355
17435.9 5.11528
17436.2 5.69133
17436.4 6.43231
17436.6 8.22888
17436.7 10.4014
17436.7 14.3225
17436.8 25.2275
17436.9 35.8073
17436.9 56.6207
17437.0 91.5621
17437.0 111.876
17437.0 93.8860
17437.1 59.6537
17437.1 42.3701
17437.2 29.8865
17437.2 18.7822
17437.3 13.6071
17437.4 10.8412
17437.5 8.03540
17437.7 6.87786
17438.0 5.84885
17438.2 5.42984
17439.4 4.95520
17441.7 4.79967
17446.3 4.74323
17455.6 4.71766
17474.1 4.70022
17511.0 4.68173
17584.9 4.65606
17658.9 4.63273
17732.8 4.60591
17806.7 4.56863
17880.6 4.50324
17917.6 4.44236
17936.1 4.39520
17954.6 4.32602
17973.0 4.21364
17982.3 4.12575
17991.5 3.99674
17996.1 3.90651
18000.8 3.78855
18005.4 3.62773
18010.0 3.39562
18012.3 3.23630
18014.6 3.03203
18016.9 2.76123
18019.2 2.38692
18021.5 1.84297
18022.7 1.47276
18023.9 1.02304
18025.0 0.505809
18026.2 0.182091
18026.7 0.525806
18027.0 1.12164
18027.3 2.34898
18027.6 4.83539
18027.8 7.02597
18027.9 9.99908
18028.1 14.7035
18028.2 21.2650
18028.3 31.0321
18028.5 46.0191
18028.7 91.2713
18029.0 136.922
18029.1 140.838
18029.3 130.609
18029.5 95.5258
18029.7 74.2485
18029.9 58.5590
18030.1 47.5958
18030.3 40.1299
18030.7 29.9965
18031.1 24.1300
18031.5 20.2366
18031.9 17.6186
18032.7 14.2721
18033.5 12.2308
18034.3 10.8835
18035.0 9.93287
18035.8 9.23638
18037.4 8.26328
18039.0 7.63051
18040.5 7.18479
18042.1 6.85431
18045.3 6.39649
18048.4 6.09658
18051.6 5.88388
18054.7 5.72611
18061.0 5.50632
18067.3 5.36115
18073.6 5.25791
18079.9 5.18065
18092.5 5.07248
18105.0 5.00023
18130.2 4.90895
18155.4 4.85282
18180.5 4.81387
18205.7 4.78470
18218.3 4.77753
18224.6 4.80563
18227.7 4.96202
18228.5 5.13114
18229.3 5.59721
18229.7 6.23577
18230.1 7.85642
18230.3 9.90135
18230.5 14.3562
18230.6 19.3223
18230.7 29.0532
18230.7 37.6911
18230.8 51.2490
18230.8 73.3749
18230.9 103.499
18230.9 161.645
18231.0 203.670
18231.1 163.083
18231.1 105.273
18231.2 69.6738
18231.2 49.4712
18231.3 36.9489
18231.3 28.8636
18231.4 19.5943
18231.5 14.7618
18231.7 10.0415
18231.9 8.09524
18232.3 6.42938
18232.7 5.78236
18233.6 5.26509
18234.4 5.06733
18236.0 4.91440
18237.6 4.85554
18244.1 4.78841
18257.1 4.75968
18283.0 4.73689
18309.0 4.72118
18322.0 4.71485
18328.4 4.71527
18331.7 4.73147
18333.3 4.80461
18334.1 5.08015
18334.5 6.00863
18334.7 8.43524
18334.8 13.0774
18334.9 19.0406
18334.9 36.0114
18335.0 52.2993
18335.0 67.5429
18335.0 52.5962
18335.1 36.3588
18335.1 19.3333
18335.2 12.5472
18335.3 7.92716
18335.5 5.82502
18336.0 5.04253
18337.0 4.80374
18338.8 4.73495
18342.6 4.71379
18350.0 4.70461
18365.0 4.69618
18394.9 4.68315
18454.8 4.65983
18574.5 4.61279
18634.3 4.58488
18694.2 4.54998
18724.1 4.52806
18754.0 4.50138
18784.0 4.46771
18798.9 4.44991
18806.4 4.45731
18810.2 4.54042
18811.1 4.63477
18812.0 4.90072
18812.5 5.26468
18813.0 6.23828
18813.2 7.51566
18813.4 10.5080
18813.6 14.0791
18813.7 20.8556
18813.7 27.8348
18813.8 39.9342
18813.8 62.7128
18813.9 106.905
18814.0 169.164
18814.0 209.846
18814.1 170.170
18814.1 108.174
18814.1 75.7087
18814.2 58.8875
18814.2 43.7595
18814.2 35.9936
18814.3 24.6532
18814.4 19.0980
18814.5 12.7859
18814.6 9.81006
18814.9 7.13939
18815.2 6.09070
18815.7 5.23463
18816.2 4.90644
18817.3 4.65431
18818.3 4.55932
18822.6 4.45277
18831.0 4.40612
18847.9 4.35412
18864.9 4.29439
18881.8 4.21084
18890.2 4.15340
18898.7 4.07878
18907.2 3.97720
18915.6 3.82999
18919.8 3.72780
18924.1 3.59505
18928.3 3.41539
18932.5 3.15844
18934.6 2.98315
18936.8 2.76127
18938.9 2.46901
18941.0 2.07368
18943.1 1.51339
18945.2 0.730702
18946.3 0.313883
18946.8 0.194488
18947.1 0.201731
18947.3 0.290599
18947.9 0.981150
18948.1 1.86632
18948.4 3.42251
18948.7 6.40342
18948.8 8.68534
18948.9 11.8323
18949.0 16.2135
18949.2 22.3643
18949.3 31.0357
18949.4 43.1896
18949.7 86.3212
18950.0 129.450
18950.2 133.066
18950.3 122.980
18950.6 90.7586
18950.9 64.5544
18951.1 48.5423
18951.4 38.0261
18951.7 31.3059
18952.0 26.4701
18952.3 23.0906
18952.8 18.5679
18953.4 15.6859
18954.0 13.7714
18955.1 11.3497
18956.2 9.91114
18957.4 8.96487
18958.5 8.29773
18959.6 7.80320
18961.9 7.12060
18964.1 6.67259
18966.4 6.35630
18968.7 6.12115
18973.2 5.79421
18977.7 5.57834
18982.2 5.42452
18986.8 5.30905
18995.8 5.14620
19004.8 5.03594
19022.9 4.89246
19041.0 4.79863
19059.1 4.72792
19095.3 4.61367
19131.4 4.50049
19149.5 4.43330
19167.6 4.35079
19185.7 4.24149
19203.8 4.08315
19212.8 3.97143
19221.9 3.82310
19230.9 3.61543
19235.4 3.47841
19237.7 3.40558
19238.8 3.39548
19239.4 3.49726
19239.7 3.88649
19239.8 4.96064
19239.9 7.12143
19239.9 10.7154
19240.0 18.5800
19240.0 33.7563
19240.0 18.4624
19240.1 8.41376
19240.2 5.50933
19240.3 4.03907
19240.5 3.50072
19241.0 3.31124
19241.9 3.22097
19243.8 3.11204
19247.5 2.87429
19251.3 2.56561
19255.0 2.14631
19258.8 1.55402
19260.6 1.16753
19262.5 0.717522
19264.4 0.263849
19265.3 0.120658
19266.2 0.192998
19266.7 0.410438
19267.2 0.862644
19267.6 1.71902
19268.1 3.24994
19268.3 4.49426
19268.6 6.12031
19268.8 8.45201
19269.0 11.5466
19269.3 16.0633
19269.5 22.1606
19269.7 30.7217
19270.0 42.6702
19270.5 85.6715
19271.0 129.976
19271.3 134.175
19271.5 124.361
19272.0 91.9831
19272.6 64.6311
19273.1 48.0385
19273.7 37.6865
19274.2 30.9013
19274.7 26.2217
19275.3 22.8485
19276.4 18.3815
19277.4 15.6026
19278.5 13.7296
19280.7 11.3924
19282.8 10.0093
19285.0 9.10469
19289.3 8.01544
19291.5 7.67568
19293.7 7.43074
19295.8 7.27226
19298.0 7.22067
19300.1 7.36343
19301.2 7.59204
19302.3 8.06021
19303.4 9.08365
19303.9 10.0687
19304.5 11.7547
19305.0 14.9516
19305.3 17.7236
19305.5 22.0446
19305.8 29.2548
19306.1 42.3974
19306.2 53.7276
19306.3 69.1249
19306.5 94.0165
19306.6 129.596
19306.8 205.592
19307.0 254.370
19307.2 206.866
19307.4 131.197
19307.5 91.2798
19307.7 65.0729
19307.9 48.6756
19308.0 38.0321
19308.3 25.7818
19308.7 19.3770
19309.0 15.6465
19309.3 13.2924
19309.9 10.6036
19310.6 9.18123
19311.2 8.33443
19311.9 7.78618
19312.5 7.41315
19313.8 6.93098
19315.0 6.64281
19317.6 6.31004
19320.1 6.11912
19322.7 5.99018
19327.8 5.81732
19332.9 5.69915
19338.0 5.60963
19348.2 5.47789
19358.4 5.38285
19368.6 5.31004
19378.8 5.25192
19389.0 5.20432
19409.4 5.13045
19429.8 5.07544
19470.7 4.99808
19511.5 4.94539
19552.3 4.90641
19593.1 4.87549
19613.5 4.86173
19623.7 4.85669
19628.8 4.86673
19631.4 4.93338
19632.7 5.22496
19633.0 5.52323
19633.3 6.33216
19633.5 7.37624
19633.6 9.97694
19633.7 13.0115
19633.8 19.5829
19633.8 26.0865
19633.9 37.5546
19633.9 59.5643
19633.9 93.6872
19634.0 154.049
19634.0 184.940
19634.0 155.152
19634.1 95.1607
19634.1 69.3404
19634.1 53.8657
19634.2 35.0920
19634.2 23.2953
19634.2 18.1269
19634.3 12.1969
19634.4 9.50451
19634.6 7.20945
19634.8 6.28294
19635.1 5.55169
19635.5 5.27758
19636.9 4.97879
19639.8 4.89079
19645.5 4.86144
19656.9 4.84685
19679.8 4.83271
19725.6 4.81203
19817.0 4.77943
19908.5 4.75256
20000.0 4.72853
20243.8 4.66617
20365.7 4.62951
20487.6 4.58233
20609.5 4.51258
20670.4 4.46053
20731.3 4.38573
20761.8 4.33383
20792.3 4.26608
20822.8 4.17335
20853.2 4.03793
20868.5 3.94347
20883.7 3.82030
20898.9 3.65258
20914.2 3.41106
20921.8 3.24539
20929.4 3.03315
20937.0 2.75201
20944.6 2.36436
20948.5 2.11056
20952.3 1.80092
20956.1 1.41942
20959.9 0.951528
20963.7 0.414700
20965.6 0.169591
20967.5 0.0514901
20968.5 0.115109
20969.4 0.348430
20970.4 0.888794
20971.3 2.00130
20971.8 2.93456
20972.3 4.22701
20972.7 6.10454
20973.2 8.73986
20973.7 12.6387
20974.2 18.2212
20974.6 26.6129
20975.1 38.6380
20976.1 78.2899
20977.0 120.178
20977.5 124.478
20978.0 115.846
20978.9 86.0165
20979.8 63.7547
20980.6 48.9241
20981.5 39.1403
20982.3 32.5349
20984.0 24.2975
20985.8 19.6079
20987.5 16.6180
20989.2 14.5909
20992.6 12.0312
20996.0 10.4951
20999.5 9.48090
21002.9 8.76418
21006.3 8.23343
21013.2 7.49748
21020.0 7.01467
21026.9 6.67321
21033.7 6.41980
21047.4 6.06819
21061.2 5.83604
21074.9 5.67126
21088.6 5.54826
21116.0 5.37642
21143.4 5.26190
21198.2 5.11802
21253.1 5.03051
21280.5 4.99833
21307.9 4.97147
21335.3 4.94917
21362.7 4.93237
21376.4 4.92830
21390.2 4.93447
21397.0 4.95100
21403.9 5.00480
21407.3 5.08159
21410.7 5.29338
21412.4 5.57531
21413.3 5.84446
21414.1 6.30370
21415.0 7.20993
21415.4 8.02733
21415.9 9.31968
21416.3 11.6617
21416.5 13.6287
21416.7 16.3917
21416.9 20.8685
21417.1 27.8417
21417.4 39.7397
21417.6 61.2186
21417.8 94.5900
21418.0 117.527
21418.2 94.6074
21418.4 61.2418
21418.7 39.0312
21418.9 27.0321
21419.1 19.9045
21419.3 15.7900
21419.6 13.0287
21419.8 11.2483
21420.2 9.06242
21420.7 7.80820
21421.1 7.05574
21422.0 6.20904
21422.9 5.77193
21423.8 5.52234
21425.6 5.25922
21429.1 5.05742
21432.7 4.98212
21439.9 4.92429
21447.0 4.90121
21461.3 4.88003
21475.5 4.86827
21532.7 4.83902
21589.8 4.81707
21646.9 4.79813
21704.0 4.78128
21761.1 4.76677
21789.6 4.76153
21818.2 4.76164
21832.5 4.76920
21846.7 4.79863
21853.9 4.84348
21857.5 4.88921
21861.0 4.97299
21864.6 5.14980
21866.4 5.32229
21868.2 5.62463
21870.0 6.23495
21870.8 6.79671
21871.7 7.73532
21872.6 9.47223
21873.1 10.9687
21873.5 13.2085
21874.0 16.9444
21874.4 23.3787
21874.9 36.1070
21875.1 46.6637
21875.3 61.7737
21875.7 96.8215
21876.0 119.525
21876.4 96.1590
21876.7 62.2446
21877.0 41.8252
21877.3 30.0105
21877.7 22.5950
21878.0 18.0334
21878.6 12.7902
21879.2 10.1354
21879.9 8.57935
21880.5 7.60873
21881.7 6.52060
21883.0 5.94882
21884.2 5.61647
21886.8 5.26048
21889.3 5.08429
21891.8 4.98409
21896.8 4.87975
21906.8 4.79929
21916.9 4.76798
21936.9 4.74125
21957.0 4.72812
21997.1 4.71181
22037.3 4.69926
22117.5 4.67694
22157.7 4.66887
22177.7 4.67768
22182.8 4.69160
22187.8 4.73386
22190.3 4.79370
22192.8 4.96172
22194.0 5.19063
22195.3 5.80272
22195.9 6.60213
22196.2 7.33863
22196.5 8.58174
22196.9 11.0294
22197.0 13.1959
22197.2 16.3826
22197.3 22.1450
22197.5 32.2001
22197.6 41.2432
22197.6 55.0133
22197.7 76.6916
22197.8 109.966
22197.9 174.051
22198.0 215.782
22198.1 174.195
22198.2 110.148
22198.3 64.7628
22198.4 41.3823
22198.6 28.9540
22198.7 22.2464
22198.8 17.6162
22198.9 14.5773
22199.1 11.0921
22199.4 9.09419
22199.6 7.93708
22200.1 6.65533
22200.5 5.98928
22201.0 5.60770
22201.9 5.21261
22203.8 4.91132
22205.7 4.80058
22209.4 4.71817
22213.2 4.68775
22228.1 4.65399
22258.0 4.63673
22317.9 4.61420
22377.7 4.59101
22437.5 4.56496
22497.3 4.53478
22557.2 4.49896
22617.0 4.45634
22646.9 4.43645
22661.8 4.44432
22669.3 4.51505
22671.2 4.58853
22673.1 4.78840
22674.0 5.05296
22674.9 5.73397
22675.4 6.59324
22675.9 8.60672
22676.1 10.9861
22676.3 15.7701
22676.5 20.5603
22676.6 27.9810
22676.7 42.8130
22676.8 70.7259
22676.9 111.203
22677.0 136.626
22677.1 110.628
22677.2 70.0001
22677.3 42.1557
22677.4 28.3196
22677.5 20.6054
22677.7 15.9963
22677.9 11.0956
22678.1 8.71872
22678.5 6.59817
22679.0 5.71545
22679.9 5.00691
22680.7 4.74206
22682.5 4.54242
22684.3 4.47006
22691.4 4.39555
22705.5 4.36624
22719.7 4.36375
22726.8 4.43215
22728.5 4.51139
22730.3 4.73780
22731.2 5.04800
22732.1 5.86956
22732.5 6.91516
22732.7 7.87840
22732.9 9.48346
22733.2 12.4430
22733.3 14.9501
22733.4 18.7762
22733.5 24.9854
22733.6 35.8690
22733.7 56.7517
22733.8 76.2974
22733.8 101.803
22733.9 158.898
22734.0 199.440
22734.1 159.376
22734.2 102.395
22734.3 69.4517
22734.3 50.0424
22734.4 36.3059
22734.5 28.6054
22734.6 19.0868
22734.8 14.1776
22734.9 11.3473
22735.1 9.57646
22735.4 7.62208
22736.0 5.95425
22736.5 5.29394
22737.7 4.77795
22738.9 4.58550
22741.3 4.43782
22743.6 4.38136
22753.1 4.31166
22772.0 4.26223
22809.9 4.17364
22847.7 4.05792
22885.6 3.89099
22923.4 3.62548
22942.3 3.42311
22961.2 3.13483
22970.7 2.93953
22980.2 2.69229
22989.6 2.37025
22999.1 1.93692
23008.5 1.33603
23013.3 0.953541
23018.0 0.522974
23022.7 0.123937
23025.1 0.0335505
23027.5 0.182756
23028.7 0.447978
23029.8 0.942717
23031.0 1.81765
23032.2 3.33496
23033.4 6.00169
23034.6 10.6813
23035.7 19.1119
23036.9 34.3721
23038.5 70.3309
23040.0 109.452
23040.8 113.967
23041.5 106.646
23043.1 79.7535
23044.1 63.7468
23045.2 51.8036
23046.3 43.0982
23047.3 36.7421
23049.4 28.2406
23051.5 23.0157
23053.6 19.5588
23055.8 17.1347
23060.0 14.0016
23064.2 12.0896
23068.4 10.8129
23076.9 9.22745
23085.3 8.28844
23093.7 7.67024
23110.6 6.90894
23127.5 6.45960
23144.4 6.16452
23178.1 5.80478
23195.0 5.69093
23211.9 5.60715
23228.8 5.55148
23245.7 5.53116
23254.1 5.54186
23262.6 5.57680
23271.0 5.65444
23279.4 5.81807
23283.7 5.96326
23287.9 6.18843
23292.1 6.55733
23296.3 7.21244
23300.5 8.52729
23302.6 9.73821
23304.8 11.7502
23306.9 15.4371
23307.9 18.5551
23309.0 23.2305
23310.0 30.8037
23311.1 43.7191
23312.1 68.0583
23313.2 115.448
23314.1 182.542
23315.0 226.995
23315.9 182.502
23316.8 116.391
23317.4 87.1991
23317.9 67.0487
23319.0 42.6872
23320.1 29.8966
23321.2 22.6140
23322.4 18.0589
23323.5 15.0654
23325.7 11.5289
23327.9 9.58886
23330.1 8.42201
23334.5 7.14074
23339.0 6.48659
23343.4 6.10753
23347.8 5.86584
23352.2 5.70176
23361.1 5.49598
23369.9 5.37367
23378.8 5.29250
23387.6 5.23402
23405.3 5.15297
23423.0 5.09634
23458.4 5.01331
23529.2 4.87996
23546.9 4.85014
23564.6 4.83786
23573.5 4.86208
23577.9 4.89950
23582.3 4.97890
23586.8 5.16217
23589.0 5.34617
23591.2 5.67421
23593.4 6.33755
23594.5 6.94963
23595.6 7.95557
23596.7 9.81115
23597.3 11.3538
23597.8 13.6781
23598.4 17.4696
23598.9 23.8629
23599.5 35.6743
23600.0 58.5883
23600.5 91.0147
23601.0 112.641
23601.5 90.9962
23602.0 58.5639
23602.5 36.5418
23603.0 24.7829
23603.5 18.2468
23604.0 14.3524
23604.6 11.8785
23605.1 10.2206
23606.1 8.23090
23607.2 7.11104
23608.2 6.42594
23610.3 5.66589
23612.3 5.26744
23614.4 5.02970
23618.6 4.75663
23622.7 4.59320
23626.9 4.46926
23635.1 4.24092
23643.4 3.94812
23647.6 3.73826
23651.7 3.44589
23655.9 3.00034
23658.0 2.67576
23660.0 2.24012
23662.1 1.62863
23664.2 0.786193
23665.2 0.341200
23666.3 0.284422
23666.8 0.910012
23667.0 1.68073
23667.3 3.05254
23667.6 5.48280
23667.8 9.83975
23668.1 17.7926
23668.3 32.1357
23668.5 46.3426
23668.7 65.8335
23669.0 103.915
23669.2 108.593
23669.3 101.794
23669.7 76.8181
23670.0 54.5971
23670.4 40.7428
23670.8 32.1697
23671.1 26.7050
23671.5 22.8250
23671.9 20.0997
23672.6 16.4216
23673.3 14.1231
23674.1 12.5666
23675.5 10.6117
23677.0 9.44391
23678.4 8.67165
23679.9 8.12459
23681.4 7.71736
23684.3 7.15238
23687.2 6.77938
23690.1 6.51481
23693.0 6.31736
23698.9 6.04176
23704.7 5.85888
23716.4 5.63000
23728.1 5.49160
23739.8 5.39835
23763.2 5.27921
23786.5 5.20505
23809.9 5.15350
23856.6 5.08468
23903.4 5.03913
23950.1 5.00592
23996.8 4.98492
24008.5 4.98694
24020.2 5.00728
24026.1 5.04384
24031.9 5.15790
24034.8 5.32111
24036.3 5.48406
24037.7 5.77799
24039.2 6.38575
24039.9 6.96427
24040.7 7.96047
24041.4 9.88657
24041.8 11.6274
24042.1 14.3397
24042.5 19.1885
24042.8 28.3312
24043.0 36.8621
24043.2 49.5343
24043.4 69.9826
24043.6 103.840
24043.8 164.961
24044.0 204.236
24044.2 166.260
24044.4 105.485
24044.6 68.7109
24044.8 47.5336
24045.0 34.9200
24045.2 27.0206
24045.6 18.2353
24046.0 13.7861
24046.4 11.1978
24046.8 9.63514
24047.6 7.87308
24048.5 6.94649
24049.3 6.41105
24050.9 5.83805
24052.5 5.55142
24054.1 5.38792
24057.3 5.21700
24063.7 5.08417
24070.1 5.03234
24083.0 4.98922
24095.9 4.96974
24121.6 4.94906
24147.3 4.93612
24198.7 4.91737
24250.1 4.90261
24353.0 4.87867
24404.4 4.86828
24430.2 4.86421
24443.0 4.87019
24449.4 4.91443
24451.1 4.96516
24452.7 5.11230
24453.5 5.31965
24454.3 5.88242
24454.7 6.61604
24455.1 8.46998
24455.3 10.6733
24455.5 15.5742
24455.6 20.5858
24455.7 29.7946
24455.7 37.4570
24455.8 48.7637
24455.8 65.8703
24455.9 91.7722
24455.9 144.398
24456.0 179.905
24456.1 145.473
24456.1 93.1172
24456.2 67.1555
24456.2 49.9353
24456.3 32.0771
24456.4 22.7926
24456.5 17.4882
24456.7 11.8628
24456.9 9.39811
24457.3 7.18274
24457.6 6.29388
24458.4 5.56194
24459.1 5.28447
24460.6 5.06895
24462.0 4.98796
24467.9 4.90098
24479.6 4.87328
24503.1 4.86178
24550.0 4.85423
24596.9 4.85189
24643.8 4.85581
24667.3 4.86217
24690.7 4.87414
24714.2 4.89646
24737.6 4.94027
24749.3 4.97833
24761.1 5.03709
24772.8 5.13358
24784.5 5.30651
24790.4 5.44920
24796.3 5.66130
24802.1 5.99687
24808.0 6.56990
24813.9 7.67077
24816.8 8.64053
24819.7 10.1831
24822.6 12.8378
24825.6 17.9185
24827.0 22.3483
24828.5 29.1188
24830.0 40.0067
24831.4 57.4400
24833.2 89.3205
24835.0 110.530
24836.8 89.3242
24838.6 57.6945
24839.9 41.3990
24841.3 30.8491
24842.6 23.9950
24843.9 19.4111
24846.6 13.9729
24849.3 11.0468
24852.0 9.31238
24854.7 8.20607
24860.0 6.93421
24865.4 6.25814
24870.7 5.85823
24876.1 5.60142
24881.4 5.42725
24892.1 5.21183
24902.9 5.08868
24913.6 5.01130
24924.3 4.95924
24945.7 4.89502
24967.1 4.85767
24988.6 4.83338
25010.0 4.81627
25052.8 4.79353
25095.7 4.78055
25117.1 4.77944
25138.5 4.79146
25149.2 4.81571
25159.9 4.89307
25165.3 5.00478
25168.0 5.11691
25170.7 5.31939
25173.3 5.74340
25174.7 6.15171
25176.0 6.86435
25177.4 8.27250
25178.0 9.55389
25178.7 11.6596
25179.4 15.4591
25179.7 18.6614
25180.0 23.2939
25180.4 30.7969
25180.7 42.9592
25181.0 64.4840
25181.4 105.263
25181.7 165.177
25182.0 206.852
25182.3 166.067
25182.6 106.371
25183.0 65.5002
25183.3 43.3551
25183.7 30.9885
25184.0 23.5959
25184.3 18.8885
25184.7 15.7283
25185.3 11.9444
25186.0 9.79971
25186.7 8.50551
25188.0 7.05693
25189.4 6.31429
25190.7 5.88326
25193.4 5.42733
25196.1 5.20294
25198.8 5.07562
25204.2 4.94297
25209.6 4.87801
25215.0 4.84086
25225.8 4.80113
25247.5 4.76764
25269.1 4.75183
25312.3 4.73353
25355.5 4.72084
25398.7 4.71144
25441.9 4.71086
25463.5 4.72399
25474.3 4.74176
25485.1 4.77877
25495.9 4.86484
25501.3 4.95345
25506.7 5.11592
25509.4 5.25172
25512.1 5.45587
25514.8 5.78111
25517.5 6.34171
25520.2 7.42270
25521.5 8.37821
25522.9 9.89760
25524.2 12.5048
25525.6 17.4575
25526.3 21.7551
25526.9 28.2027
25527.6 38.5079
25528.3 54.6014
25529.1 85.3091
25530.0 106.358
25530.9 86.5795
25531.7 56.1926
25532.6 35.6048
25533.6 24.5603
25534.5 18.2713
25535.4 14.5285
25536.3 12.1047
25537.2 10.4875
25539.0 8.50541
25540.9 7.39429
25542.7 6.71034
25546.4 5.94783
25550.0 5.55132
25553.7 5.31917
25557.3 5.17021
25561.0 5.06898
25568.3 4.94256
25575.6 4.86869
25590.2 4.78797
25604.8 4.74500
25619.5 4.71783
25648.7 4.68326
25707.2 4.63936
25765.7 4.60178
25824.2 4.56067
25882.7 4.51039
25941.2 4.44602
25970.4 4.41863
25977.7 4.42449
25985.0 4.46466
25988.7 4.53249
25992.3 4.73366
25994.2 5.01132
25995.1 5.28381
25996.0 5.75944
25996.9 6.72640
25997.4 7.62567
25997.8 9.09561
25998.3 11.8822
25998.5 14.2688
25998.7 17.7513
25999.0 23.6704
25999.2 34.1993
25999.4 54.8007
25999.5 71.5151
25999.6 95.5641
25999.8 150.299
26000.0 187.216
26000.2 150.717
26000.4 96.0871
26000.5 68.5099
26000.6 50.5225
26000.8 37.9330
26000.9 30.1369
26001.2 20.4884
26001.4 15.4618
26001.7 12.3497
26002.0 10.3737
26002.5 8.13941
26003.0 6.93186
26003.6 6.23038
26004.6 5.47203
26005.7 5.08918
26006.8 4.87059
26008.9 4.64232
26013.2 4.46362
26017.4 4.39130
26026.0 4.32326
26034.5 4.28262
26068.7 4.14612
26085.7 4.06361
26102.8 3.96102
26119.9 3.82803
26128.4 3.74546
26132.7 3.70056
26134.8 3.68446
26135.9 3.70821
26136.4 3.83810
26136.7 4.30347
26136.8 5.52921
26136.9 8.22794
26137.0 18.5206
26137.0 33.5232
26137.0 18.6720
26137.1 10.1395
26137.1 7.16572
26137.2 5.11013
26137.4 4.13882
26137.7 3.78349
26138.4 3.67112
26139.7 3.62471
26142.3 3.58057
26147.6 3.49954
26158.2 3.30791
26168.7 3.05286
26179.3 2.69698
26184.5 2.46084
26189.8 2.16843
26195.1 1.79978
26200.4 1.33002
26210.9 0.132985
26213.6 0.0773175
26214.9 0.298321
26216.2 0.911847
26216.9 1.47993
26217.5 2.32981
26218.2 3.59534
26218.9 5.48340
26219.5 8.31757
26220.2 12.6048
26220.8 19.1220
26221.5 28.7865
26222.1 42.3224
26222.7 60.2326
26224.0 95.4095
26224.6 100.090
26225.3 94.2923
26226.5 71.3429
26227.6 55.0734
26228.6 43.7017
26229.6 35.7601
26230.7 30.2056
26232.7 23.0870
26234.8 18.8779
26236.9 16.1557
26238.9 14.2731
26243.1 11.8716
26247.2 10.4136
26251.4 9.44367
26259.6 8.24359
26267.9 7.53684
26272.0 7.28741
26276.2 7.08977
26280.3 6.94426
26284.4 6.89054
26286.5 6.96030
26288.6 7.27866
26289.6 7.75812
26290.1 8.23075
26290.7 9.03974
26291.2 10.6549
26291.4 12.1113
26291.7 14.3601
26291.9 18.4467
26292.2 26.5559
26292.3 33.8630
26292.5 45.5333
26292.6 65.0944
26292.7 97.5024
26292.9 153.111
26293.0 189.438
26293.1 153.770
26293.3 98.3268
26293.4 72.1009
26293.5 53.9880
26293.7 34.4309
26293.9 24.1837
26294.1 18.8108
26294.3 15.3911
26294.5 13.2931
26294.8 10.8139
26295.2 9.43608
26295.6 8.62899
26296.4 7.72992
26297.2 7.26473
26297.9 6.99502
26299.5 6.69703
26302.6 6.43169
26305.6 6.29821
26311.8 6.13754
26318.0 6.02677
26330.3 5.86353
26342.7 5.74194
26355.1 5.64585
26367.4 5.56767
26392.1 5.44812
26416.8 5.36297
26441.5 5.30909
26453.9 5.30391
26460.1 5.31568
26466.2 5.35042
26472.4 5.44210
26475.5 5.53992
26478.6 5.72019
26481.7 6.09815
26483.2 6.45932
26484.8 7.07317
26486.3 8.25096
26487.1 9.27306
26487.8 10.8754
26488.6 13.5704
26489.4 18.5379
26489.8 22.7463
26490.2 28.8086
26490.5 38.2519
26490.9 52.2285
26491.5 81.1972
26492.0 101.046
26492.5 82.2645
26493.1 53.5608
26493.7 34.3633
26494.2 24.0554
26494.8 18.1868
26495.3 14.6258
26495.9 12.2987
26496.5 10.7545
26497.6 8.86394
26498.7 7.79113
26499.8 7.13540
26502.1 6.39740
26504.3 6.01391
26506.6 5.78810
26511.1 5.54408
26515.6 5.41888
26520.1 5.34462
26529.1 5.26078
26538.1 5.21384
26547.0 5.18275
26565.0 5.14148
26601.0 5.09075
26619.0 5.07236
26628.0 5.06478
26632.5 5.06367
26634.7 5.07287
26635.8 5.11419
26636.4 5.26618
26636.7 5.76239
26636.8 7.10017
26636.9 9.75064
26636.9 14.0491
26637.0 21.8449
26637.0 38.6651
26637.0 21.8485
26637.1 10.5011
26637.2 7.57301
26637.3 5.96572
26637.5 5.32332
26638.0 5.12928
26639.0 5.07370
26641.0 5.05773
26644.9 5.05086
26652.8 5.04380
26668.6 5.03218
26700.1 5.01208
26763.2 4.97992
26826.3 4.95542
26889.4 4.93735
26952.5 4.92749
26984.1 4.92831
27015.6 4.93781
27047.2 4.96852
27063.0 5.00349
27078.7 5.07059
27086.6 5.12840
27094.5 5.21737
27102.4 5.36338
27110.3 5.62531
27114.2 5.84227
27118.2 6.16559
27122.1 6.68011
27126.1 7.56455
27130.0 9.28541
27132.0 10.8195
27134.0 13.2921
27135.9 17.6303
27137.9 26.1892
27138.9 33.9103
27139.9 46.0596
27140.9 66.5249
27141.8 100.902
27142.9 158.561
27144.0 197.085
27145.1 158.938
27146.2 101.386
27147.2 65.9248
27148.2 45.3828
27149.2 33.2240
27150.2 25.7080
27152.3 17.2992
27154.3 13.0854
27156.3 10.6785
27158.4 9.19423
27162.4 7.52926
27166.5 6.66578
27170.6 6.16349
27174.6 5.84430
27178.7 5.62970
27186.8 5.36627
27195.0 5.21692
27203.1 5.12357
27211.2 5.06100
27227.5 4.98406
27243.8 4.93939
27276.3 4.88950
27308.8 4.86063
27341.3 4.84023
27357.6 4.83365
27373.9 4.83856
27382.0 4.86044
27390.1 4.94631
27394.2 5.08276
27396.2 5.22473
27398.2 5.48784
27400.3 6.04918
27401.3 6.59331
27402.3 7.52942
27403.3 9.37100
27403.8 11.0171
27404.3 13.5952
27404.9 18.1388
27405.4 26.9067
27405.6 34.7460
27405.9 46.3835
27406.1 64.8525
27406.4 95.1725
27406.7 151.506
27407.0 189.625
27407.3 154.747
27407.6 99.2470
27407.8 73.6416
27408.0 56.3579
27408.4 35.6084
27408.9 24.9973
27409.3 19.0090
27409.7 15.3388
27410.1 12.9382
27410.9 10.1004
27411.7 8.55160
27412.5 7.61348
27414.2 6.57880
27415.8 6.04737
27417.5 5.73643
27420.7 5.40282
27424.0 5.23339
27427.3 5.13466
27433.8 5.02721
27440.4 4.97137
27446.9 4.93771
27460.0 4.89910
27486.3 4.86272
27512.5 4.84360
27564.9 4.81985
27617.3 4.80192
27722.1 4.76597
27774.5 4.74165
27800.7 4.72488
27813.8 4.71506
27820.4 4.71799
27823.6 4.76724
27825.3 5.00004
27826.1 5.89177
27826.3 6.75424
27826.5 8.76220
27826.6 11.0075
27826.7 15.6097
27826.8 27.0354
27826.9 39.6774
27826.9 66.2865
27827.0 101.841
27827.0 129.679
27827.1 103.120
27827.1 67.8370
27827.2 37.8606
27827.2 24.8431
27827.4 13.6417
27827.5 9.69508
27827.6 7.89105
27827.9 6.34182
27828.1 5.71078
27829.2 5.01293
27831.2 4.80249
27835.4 4.73503
27843.7 4.70585
27860.2 4.67780
27876.8 4.64789
27893.4 4.60645
27910.0 4.54033
27918.3 4.48877
27926.5 4.41295
27934.8 4.28928
27939.0 4.19263
27943.1 4.05095
27947.3 3.82236
27949.3 3.64687
27951.4 3.39493
27953.5 3.00384
27955.5 2.32212
27956.6 1.75828
27957.6 0.949011
27958.6 0.219447
27958.9 0.579891
27959.2 2.14668
27959.3 4.05216
27959.4 7.59602
27959.6 14.2744
27959.7 25.7114
27959.8 39.1162
27959.8 55.1380
27960.0 86.3718
27960.1 90.9410
27960.2 86.3973
27960.3 65.4513
27960.5 50.2894
27960.6 39.7783
27960.8 32.1546
27960.9 27.2225
27961.2 20.7908
27961.5 17.0507
27961.8 14.6555
27962.1 13.0091
27962.6 10.9426
27963.2 9.66960
27963.8 8.82484
27964.9 7.78582
27966.1 7.16422
27967.3 6.75763
27969.6 6.25416
27971.9 5.95402
27974.2 5.75631
27978.8 5.51030
27983.4 5.36360
27988.0 5.26612
27997.2 5.14448
28006.4 5.07136
28015.7 5.02252
28034.1 4.96108
28071.0 4.89911
28107.9 4.86994
28144.8 4.86088
28163.2 4.86690
28181.7 4.88794
28200.1 4.94545
28209.3 5.00762
28218.6 5.12395
28227.8 5.37118
28232.4 5.61033
28237.0 6.02677
28241.6 6.84193
28243.9 7.57590
28246.2 8.75748
28248.5 10.8449
28250.8 14.9482
28252.0 18.6587
28253.1 24.5021
28254.3 34.2048
28255.4 50.6020
28256.7 78.7578
28258.0 97.7509
28259.3 79.4378
28260.6 51.7473
28261.5 37.5742
28262.5 28.3115
28263.4 22.2440
28264.4 18.1586
28266.3 13.2743
28268.2 10.6341
28270.1 9.04815
28272.0 8.03089
28275.8 6.85394
28279.6 6.22209
28283.3 5.84547
28290.9 5.43519
28298.5 5.22670
28306.1 5.10570
28321.3 4.97585
28336.4 4.90978
28351.6 4.87081
28366.8 4.84597
28374.4 4.83805
28378.2 4.83831
28380.1 4.84978
28381.0 4.89274
28381.5 5.03449
28381.7 5.48279
28381.8 6.66694
28381.9 8.96402
28382.0 16.5284
28382.0 27.9251
28382.0 16.2039
28382.1 8.13221
28382.2 6.15747
28382.3 5.24632
28382.6 4.94044
28383.1 4.85057
28384.2 4.82840
28386.4 4.82253
28390.8 4.81889
28399.6 4.81363
28417.1 4.80787
28434.6 4.81113
28452.1 4.83167
28460.8 4.85501
28469.6 4.89549
28478.3 4.96816
28487.1 5.10835
28491.5 5.22945
28495.8 5.41518
28500.2 5.71915
28504.6 6.25777
28509.0 7.34367
28511.1 8.34612
28513.3 10.0040
28515.5 13.0525
28516.6 15.6270
28517.7 19.4810
28518.8 25.6991
28519.9 36.2431
28521.0 55.6612
28522.1 93.1448
28523.0 147.321
28524.0 183.589
28525.0 148.277
28525.9 95.0895
28526.6 69.4719
28527.2 52.3772
28527.9 40.6347
28528.6 32.6473
28529.9 22.7511
28531.2 17.2392
28532.5 13.8932
28533.8 11.7208
28536.4 9.17329
28539.0 7.79465
28541.7 6.96424
28544.3 6.42395
28546.9 6.05242
28552.1 5.58026
28557.4 5.29763
28562.6 5.10794
28567.8 4.96717
28578.3 4.74420
28588.8 4.50029
28594.0 4.31282
28599.3 3.98509
28601.9 3.68671
28604.5 3.14849
28605.8 2.67490
28607.1 1.89409
28608.4 0.585503
28608.8 0.326049
28609.1 0.654674
28609.2 1.63505
28609.4 4.02026
28609.6 9.95746
28609.6 15.7650
28609.7 25.2660
28609.8 36.9855
28609.9 53.0365
28610.0 85.1513
28610.1 89.7255
28610.1 84.7930
28610.3 64.7873
28610.4 48.5363
28610.6 37.1479
28610.7 29.8147
28610.8 25.1992
28611.1 19.1164
28611.4 15.7864
28611.7 13.6002
28611.9 12.1625
28612.5 10.3052
28613.0 9.18944
28613.6 8.44913
28614.7 7.53160
28615.8 6.98691
28616.9 6.62665
28619.1 6.17949
28621.3 5.91244
28623.5 5.73447
28627.9 5.51102
28636.7 5.28368
28645.5 5.16628
28663.1 5.04265
28680.6 4.97625
28715.8 4.90332
28751.0 4.86176
28786.2 4.83318
28821.4 4.81104
28891.7 4.77548
28962.1 4.74310
29032.4 4.70746
29102.8 4.66512
29120.4 4.65848
29138.0 4.67254
29146.8 4.71340
29151.2 4.76209
29155.6 4.85858
29160.0 5.07646
29162.2 5.29677
29164.4 5.69279
29166.6 6.50963
29167.7 7.27813
29168.8 8.58006
29169.9 11.0272
29170.4 13.1341
29171.0 16.3949
29171.5 21.7793
29172.1 31.4320
29172.6 50.5223
29172.9 66.6763
29173.2 90.6497
29173.6 143.806
29174.0 179.675
29174.4 146.174
29174.8 93.6226
29175.2 67.4017
29175.5 49.8200
29175.8 38.2532
29176.1 30.4397
29176.7 21.0673
29177.3 15.9630
29177.9 12.9085
29178.6 10.9443
29179.8 8.67349
29181.0 7.44131
29182.3 6.70323
29183.5 6.22524
29184.7 5.89936
29187.2 5.48743
29189.7 5.24772
29194.6 4.98768
29199.6 4.85293
29204.5 4.77064
29214.4 4.67161
29234.2 4.55452
29254.0 4.44940
29273.8 4.30685
29283.7 4.20152
29293.6 4.05052
29303.5 3.81061
29308.5 3.62728
29313.4 3.36562
29318.3 2.95999
29320.8 2.66104
29323.3 2.25515
29325.8 1.67588
29328.2 0.842925
29329.5 0.352728
29330.7 0.0994277
29331.3 0.447412
29332.0 1.95903
29332.3 3.77839
29332.6 7.12247
29332.9 13.3324
29333.2 24.7538
29333.4 36.6591
29333.6 52.3489
29334.0 84.6305
29334.2 89.3077
29334.4 84.4850
29334.8 64.6930
29335.1 50.5519
29335.5 40.3772
29335.8 33.2787
29336.1 28.3627
29336.8 21.8325
29337.4 17.9977
29338.1 15.4632
29338.7 13.7298
29340.0 11.4976
29341.4 10.1275
29342.7 9.21916
29344.0 8.56662
29345.3 8.08280
29347.9 7.40460
29350.5 6.95811
29353.1 6.64130
29355.7 6.40500
29360.9 6.07568
29366.2 5.85795
29376.6 5.58687
29387.1 5.42469
29397.5 5.31651
29418.4 5.18066
29460.2 5.04239
29502.0 4.97055
29543.8 4.92527
29585.6 4.89398
29606.5 4.88313
29627.4 4.88044
29637.9 4.89009
29648.3 4.93272
29653.5 5.00033
29658.8 5.19777
29661.4 5.46578
29662.7 5.72406
29664.0 6.16702
29665.3 7.03204
29665.9 7.79494
29666.6 9.01212
29667.3 11.1544
29667.9 15.2180
29668.2 18.8148
29668.6 24.1783
29668.9 33.0052
29669.2 46.7673
29669.6 72.4072
29670.0 89.9178
29670.4 73.4322
29670.8 47.9975
29671.2 31.3384
29671.6 22.0561
29672.0 16.7384
29672.4 13.5622
29672.8 11.4493
29673.3 10.0169
29674.1 8.27998
29674.9 7.28698
29675.7 6.68074
29677.3 5.99607
29679.0 5.64041
29680.6 5.43152
29683.8 5.20706
29690.4 5.02853
29696.9 4.95796
29709.9 4.89940
29722.9 4.87365
29749.0 4.84773
29775.1 4.83247
29827.2 4.81120
29879.3 4.79430
30087.9 4.73312
30192.1 4.69568
30296.4 4.64264
30348.5 4.60403
30400.7 4.54957
30426.7 4.51239
30452.8 4.46451
30478.9 4.39996
30491.9 4.35838
30498.4 4.33647
30501.7 4.33796
30503.3 4.40021
30504.1 4.67120
30504.5 5.63900
30504.7 8.30403
30504.8 13.7029
30504.9 21.0117
30504.9 39.1921
30505.0 62.9828
30505.0 74.8432
30505.0 63.5411
30505.1 39.9456
30505.1 21.6560
30505.2 13.2956
30505.3 8.11974
30505.5 5.57976
30506.0 4.70035
30506.9 4.42188
30508.7 4.33225
30512.3 4.29074
30519.5 4.24591
30533.9 4.15218
30548.4 4.02691
30562.8 3.84540
30570.0 3.71949
30577.2 3.55659
30584.4 3.33731
30591.6 3.02679
30595.2 2.81761
30598.8 2.55468
30602.5 2.21582
30606.1 1.76877
30609.7 1.16520
30613.3 0.402629
30615.1 0.0815941
30616.0 0.0545559
30616.9 0.275621
30617.8 1.06128
30618.2 1.87519
30618.7 3.19008
30619.1 5.30809
30619.6 8.73415
30620.0 14.3020
30620.5 23.2925
30620.9 35.0382
30621.2 50.3762
30622.0 81.2152
30622.4 85.9596
30622.8 81.5301
30623.5 62.5976
30624.3 46.1323
30625.1 35.5314
30625.9 28.5964
30626.6 23.9976
30627.4 20.7228
30628.2 18.3578
30629.7 15.1494
30631.3 13.1174
30632.8 11.7287
30635.9 9.97342
30639.0 8.91215
30642.1 8.20688
30645.2 7.70561
30648.3 7.33267
30654.5 6.81229
30660.7 6.46870
30666.9 6.22443
30673.1 6.04244
30685.5 5.78877
30697.9 5.62052
30710.3 5.50071
30722.6 5.41106
30747.4 5.28549
30772.2 5.20166
30821.7 5.09615
30871.3 5.03190
30920.9 4.98822
30970.4 4.95620
30995.2 4.94305
31007.6 4.93704
31013.8 4.93468
31016.9 4.93659
31018.4 4.95135
31019.2 5.01305
31019.6 5.24191
31019.8 5.92845
31019.9 7.69893
31019.9 10.8062
31020.0 18.3681
31020.0 32.0089
31020.0 18.5498
31020.1 10.0315
31020.2 7.47652
31020.3 5.91849
31020.5 5.23892
31020.9 5.02066
31021.7 4.95683
31023.4 4.93813
31026.7 4.93141
31033.4 4.92692
31046.8 4.92091
31073.5 4.91066
31127.0 4.89321
31180.5 4.87848
31207.2 4.87179
31220.6 4.86846
31227.3 4.86697
31230.6 4.86826
31232.3 4.87944
31233.1 4.92944
31233.5 5.11598
31233.7 5.69960
31233.8 6.97563
31233.9 8.91978
31233.9 15.4939
31234.0 26.3607
31234.1 15.7469
31234.1 9.11956
31234.2 6.89802
31234.3 5.62753
31234.5 5.11988
31235.0 4.94301
31235.9 4.88947
31237.8 4.87320
31241.6 4.86739
31249.0 4.86407
31264.0 4.86030
31294.0 4.85412
31354.0 4.84334
31473.9 4.82716
31533.8 4.82468
31563.8 4.82776
31593.8 4.83839
31623.7 4.86898
31638.7 4.90351
31653.7 4.97040
31661.2 5.02867
31668.7 5.11897
31676.2 5.26858
31683.7 5.53903
31687.4 5.76366
31691.2 6.09987
31694.9 6.63352
31698.7 7.54742
31702.4 9.30946
31704.3 10.8610
31706.2 13.3256
31708.0 17.5830
31709.9 25.6479
31710.9 32.6418
31711.8 43.2005
31712.7 60.0529
31713.7 86.5561
31714.8 136.418
31716.0 169.786
31717.2 137.291
31718.4 88.2177
31719.7 53.0453
31721.1 34.8421
31722.4 24.9550
31723.8 19.1527
31725.1 15.5028
31726.5 13.0722
31729.1 10.1556
31731.8 8.52376
31734.5 7.50425
31737.2 6.75972
31738.6 6.35848
31739.3 6.09030
31739.6 6.17638
31739.8 7.44382
31739.9 10.5622
31739.9 14.9524
31739.9 29.3537
31740.0 63.5161
31740.0 56.7819
31740.1 40.7263
31740.1 24.5352
31740.2 18.4169
31740.2 12.9797
31740.4 9.53876
31740.7 7.78480
31741.4 6.96417
31742.7 6.50051
31745.3 6.12371
31750.6 5.73814
31755.8 5.51274
31761.0 5.36378
31771.5 5.18143
31782.0 5.07697
31792.5 5.01070
31803.0 4.96568
31824.0 4.90917
31844.9 4.87550
31865.9 4.85315
31907.8 4.82473
31949.8 4.80643
31991.7 4.79274
32033.7 4.78277
32054.7 4.78854
32065.1 4.83978
32067.8 4.89679
32070.4 5.05801
32071.7 5.27388
32073.0 5.83626
32073.7 6.53486
32074.3 8.13306
32074.6 9.87648
32075.0 13.2983
32075.1 16.4591
32075.3 21.1456
32075.5 28.7428
32075.6 41.6203
32075.8 63.7195
32076.0 79.0999
32076.2 64.3052
32076.4 42.2503
32076.5 30.0445
32076.7 22.1315
32076.9 17.2334
32077.0 14.2410
32077.3 10.6374
32077.6 8.74251
32078.3 6.91597
32078.9 6.12420
32080.1 5.45406
32081.4 5.18803
32083.9 4.97656
32086.4 4.89571
32091.3 4.83249
32096.3 4.80772
32116.3 4.77756
32156.2 4.76040
32236.0 4.73867
32315.9 4.71568
32395.7 4.68602
32475.5 4.64148
32515.4 4.60785
32555.3 4.55913
32595.3 4.48052
32615.2 4.41913
32635.2 4.32889
32655.1 4.18227
32665.1 4.06799
32675.1 3.90135
32680.1 3.78545
32685.1 3.63491
32690.1 3.43162
32695.0 3.14237
32700.0 2.69994
32702.5 2.37886
32705.0 1.95101
32707.5 1.36058
32710.0 0.574931
32711.3 0.187485
32711.9 0.0893598
32712.5 0.187484
32713.1 0.772099
32713.8 2.53826
32714.1 4.38254
32714.4 7.45467
32714.7 12.5896
32715.0 21.1457
32715.3 32.0605
32715.5 46.2382
32716.0 74.9887
32716.3 79.6800
32716.5 76.0665
32717.0 58.6392
32717.4 47.3819
32717.7 38.7264
32718.1 32.4463
32718.5 27.8451
32719.2 21.7601
32720.0 18.0343
32720.7 15.5701
32721.4 13.8397
32722.9 11.5956
32724.4 10.2185
32725.9 9.29408
32728.8 8.13837
32731.8 7.44854
32734.8 6.99160
32737.7 6.66716
32740.7 6.42580
32746.6 6.08870
32752.5 5.86549
32764.3 5.58871
32776.2 5.42496
32788.0 5.32273
32793.9 5.29406
32799.8 5.30185
32802.8 5.35096
32805.8 5.52563
32807.2 5.77950
32808.7 6.47561
32809.5 7.36889
32809.8 8.19125
32810.2 9.55579
32810.6 12.0480
32810.8 14.2028
32810.9 17.2762
32811.1 22.4487
32811.3 30.7771
32811.5 45.7660
32811.7 75.4008
32811.8 117.206
32812.0 147.209
32812.2 118.470
32812.3 76.9618
32812.5 50.7648
32812.6 36.0670
32812.8 26.6982
32813.0 21.1992
32813.3 14.8289
32813.6 11.6784
32813.9 9.80404
32814.2 8.63961
32814.8 7.34446
32816.0 6.25743
32817.3 5.82398
32819.7 5.47861
32822.2 5.34143
32827.1 5.22480
32832.0 5.17117
32841.8 5.11370
32851.7 5.07830
32871.3 5.03010
32891.0 4.99561
32930.3 4.94733
32950.0 4.94712
32954.9 4.96959
32959.8 5.05233
32962.2 5.17944
32964.7 5.54666
32965.9 6.04550
32966.5 6.52839
32967.2 7.34811
32967.8 8.95864
32968.1 10.3910
32968.4 12.5877
32968.7 16.4706
32969.0 23.5496
32969.2 30.0255
32969.3 39.2571
32969.5 53.5416
32969.6 75.9237
32969.8 119.473
32970.0 149.585
32970.2 121.575
32970.4 78.5479
32970.5 58.4977
32970.7 43.9369
32970.8 34.2018
32971.0 27.5452
32971.2 19.4633
32971.5 15.0112
32971.8 12.3277
32972.1 10.5935
32972.6 8.59375
32973.2 7.49065
32973.7 6.82908
32974.9 6.11086
32977.1 5.52816
32979.3 5.29961
32983.8 5.11632
32988.2 5.04301
32997.1 4.98099
33006.0 4.95314
33023.9 4.92507
33041.7 4.90910
33077.3 4.88885
33095.1 4.88124
33104.0 4.87721
33108.5 4.87535
33110.7 4.88081
33111.8 4.91909
33112.4 5.08714
33112.7 5.67998
33112.8 7.32671
33112.9 10.5883
33112.9 23.1906
33113.0 42.2410
33113.1 23.9533
33113.1 13.2491
33113.1 9.72492
33113.2 6.88923
33113.4 5.60743
33113.7 5.11829
33114.4 4.95579
33115.8 4.90476
33118.6 4.88733
33124.0 4.88021
33135.0 4.87630
33157.0 4.87568
33179.0 4.88420
33190.0 4.89501
33195.5 4.90351
33198.2 4.91219
33199.6 4.93658
33200.3 5.03477
33200.6 5.38023
33200.8 6.36622
33200.9 8.66211
33200.9 11.6122
33200.9 21.4643
33201.0 38.5825
33201.1 22.0601
33201.1 11.0896
33201.2 7.85601
33201.3 6.10267
33201.5 5.32591
33201.9 5.05206
33202.8 4.96653
33204.6 4.94460
33208.2 4.94864
33215.3 4.98306
33222.4 5.04578
33229.5 5.16211
33233.0 5.25957
33236.6 5.40619
33240.1 5.64004
33243.7 6.04390
33247.2 6.82582
33249.0 7.52289
33250.8 8.63151
33252.5 10.5624
33254.3 14.2630
33255.2 17.5124
33256.1 22.5448
33257.0 30.6395
33257.9 43.6050
33258.9 67.1817
33260.0 83.1839
33261.1 67.9299
33262.1 44.5451
33262.8 34.2413
33263.5 27.0803
33264.8 18.4460
33266.1 13.8457
33267.4 11.2155
33268.7 9.56893
33270.0 8.49105
33272.6 7.20523
33275.2 6.49661
33277.8 6.06822
33283.0 5.59494
33288.2 5.35240
33293.4 5.21152
33303.8 5.06099
33314.3 4.98526
33324.7 4.94112
33345.5 4.89268
33366.4 4.86656
33387.2 4.84964
33408.1 4.83722
33418.5 4.83270
33423.7 4.83355
33426.3 4.84562
33427.6 4.89610
33428.3 5.08131
33428.6 5.70788
33428.8 7.36161
33428.9 10.5970
33428.9 14.8537
33428.9 26.3222
33429.0 47.8932
33429.1 26.3867
33429.1 11.4261
33429.2 7.62507
33429.4 5.82570
33429.7 5.12266
33430.3 4.90841
33431.5 4.84847
33434.0 4.83186
33439.0 4.82691
33448.9 4.83203
33453.8 4.84890
33458.8 4.91049
33461.2 5.00592
33463.7 5.28565
33464.9 5.67150
33466.2 6.68518
33466.8 7.95474
33467.1 9.09612
33467.4 10.9424
33467.7 14.1879
33468.0 20.5839
33468.2 26.5256
33468.3 35.3273
33468.5 49.6412
33468.6 75.1139
33468.8 117.105
33469.0 147.931
33469.2 119.172
33469.4 77.6604
33469.5 50.8082
33469.7 35.2805
33469.9 26.1566
33470.0 20.7659
33470.2 16.9745
33470.4 14.3823
33470.7 11.2533
33471.0 9.40973
33471.4 8.29526
33472.0 7.01324
33472.7 6.34267
33473.4 5.94714
33474.7 5.52298
33477.4 5.18252
33480.1 5.04981
33485.4 4.94350
33490.8 4.90066
33501.5 4.86435
33512.1 4.84816
33554.9 4.82336
33640.5 4.80452
33726.1 4.79268
33811.6 4.78303
33982.8 4.76633
34068.4 4.75830
34111.2 4.75384
34132.5 4.75088
34143.2 4.74874
34148.6 4.74963
34151.3 4.76637
34152.6 4.85302
34153.3 5.20512
34153.6 6.36577
34153.8 9.56803
34153.9 15.1640
34153.9 35.9463
34154.0 68.0860
34154.1 36.9236
34154.1 17.2062
34154.2 11.0378
34154.4 7.23370
34154.6 5.55963
34155.2 5.00136
34156.4 4.83066
34158.7 4.77837
34163.3 4.76106
34172.6 4.75418
34191.2 4.75011
34228.3 4.74572
34302.5 4.73839
34451.0 4.72339
34599.4 4.70564
34673.7 4.69463
34710.8 4.68823
34729.3 4.68509
34738.6 4.68585
34743.3 4.69750
34745.6 4.74973
34746.7 4.94878
34747.3 5.61537
34747.6 7.44689
34747.8 10.9107
34747.8 15.3700
34747.9 27.3726
34748.0 50.3185
34748.1 27.6202
34748.2 15.5804
34748.3 11.0817
34748.4 7.43354
34748.7 5.65870
34749.3 4.98278
34750.4 4.76784
34752.8 4.70571
34757.4 4.68716
34766.8 4.67997
34785.4 4.67397
34822.8 4.66331
34897.4 4.63303
34934.7 4.60681
34972.1 4.55879
34990.7 4.51309
35009.4 4.42432
35018.7 4.33728
35028.0 4.16691
35032.7 4.00101
35037.4 3.68419
35039.7 3.38486
35042.0 2.84305
35043.2 2.36714
35044.4 1.60508
35045.5 0.406659
35046.1 0.639479
35046.4 3.57697
35046.6 8.48003
35046.7 18.8965
35046.8 29.0974
35046.9 41.2710
35047.0 67.9848
35047.1 72.4582
35047.2 69.2186
35047.3 53.7441
35047.4 41.6377
35047.6 32.6737
35047.7 26.6845
35047.9 22.5677
35048.1 17.4545
35048.4 14.4946
35049.0 11.2985
35049.5 9.66160
35050.1 8.64948
35050.6 7.98595
35051.7 7.15058
35052.9 6.64960
35054.0 6.32165
35056.2 5.91555
35058.4 5.67412
35060.6 5.51616
35065.1 5.32304
35074.0 5.14683
35082.9 5.09070
35091.8 5.12294
35096.2 5.19070
35100.7 5.33046
35105.1 5.63278
35107.4 5.92210
35109.6 6.41266
35111.8 7.34527
35112.9 8.15153
35114.0 9.41128
35115.2 11.5247
35116.3 15.4174
35116.8 18.7035
35117.4 23.4855
35117.9 30.8983
35118.5 41.9938
35119.2 64.1985
35120.0 78.8679
35120.8 63.8134
35121.5 41.5121
35122.2 28.2815
35122.9 20.4929
35123.6 15.8210
35124.3 12.9163
35125.7 9.62000
35127.0 7.95923
35128.4 7.00400
35129.8 6.41452
35132.5 5.75022
35135.3 5.40249
35138.0 5.19780
35143.5 4.97290
35149.0 4.85385
35154.5 4.79182
35157.2 4.79982
35160.0 4.92044
35161.4 5.14180
35162.7 5.78969
35163.4 6.62678
35164.1 8.52396
35164.4 10.5467
35164.8 14.1444
35165.1 21.3232
35165.3 27.5550
35165.5 36.6918
35165.7 57.9773
35166.0 73.9840
35166.3 62.3674
35166.5 42.1176
35166.7 31.4999
35166.9 24.3814
35167.1 19.6427
35167.3 16.4059
35167.7 12.4639
35168.1 10.2718
35168.9 8.05559
35169.7 7.01700
35171.3 6.06896
35172.9 5.65293
35176.1 5.28814
35179.3 5.12737
35185.6 4.98064
35192.0 4.91124
35204.7 4.84198
35217.4 4.80564
35242.9 4.76529
35268.3 4.74145
35319.2 4.71097
35370.1 4.68920
35573.7 4.61460
35675.4 4.56597
35726.3 4.53371
35777.2 4.49212
35828.1 4.43504
35853.6 4.39713
35879.0 4.34950
35904.5 4.28737
35929.9 4.20240
35955.3 4.07957
35968.1 4.00670
35974.4 4.02811
35976.0 4.09495
35977.6 4.31045
35978.4 4.61540
35979.2 5.41508
35979.6 6.41961
35980.0 8.78580
35980.2 11.3629
35980.4 16.4654
35980.5 21.0491
35980.6 28.3439
35980.7 40.5118
35980.8 60.9121
35980.9 95.8868
35981.0 119.386
35981.1 96.9321
35981.2 62.2201
35981.3 45.0747
35981.4 34.7742
35981.5 22.5776
35981.7 16.2163
35981.8 12.5764
35982.1 8.84287
35982.4 7.08157
35982.9 5.51419
35983.5 4.87597
35984.6 4.34953
35985.7 4.13834
35990.2 3.86683
35999.2 3.66352
36008.2 3.46152
36017.2 3.18898
36021.8 3.00615
36026.3 2.77592
36030.8 2.47635
36035.3 2.07249
36039.8 1.50652
36044.3 0.716558
36046.5 0.278535
36048.8 0.101356
36049.9 0.469916
36050.5 0.960111
36051.0 1.83653
36051.6 3.39788
36052.1 6.06284
36052.7 10.6753
36053.3 18.5907
36053.7 28.2588
36054.1 41.0459
36055.0 67.7647
36055.4 72.3378
36055.9 69.2155
36056.7 53.7910
36057.3 44.9872
36057.8 38.1132
36058.8 28.6910
36059.9 22.9379
36060.9 19.2133
36062.0 16.6589
36063.0 14.8204
36065.1 12.3807
36067.2 10.8533
36069.2 9.81561
36073.4 8.50522
36077.6 7.71511
36081.7 7.19068
36085.9 6.81701
36090.0 6.53741
36098.4 6.14652
36106.7 5.88660
36115.0 5.70049
36123.3 5.56054
36140.0 5.36251
36156.6 5.22750
36173.3 5.12764
36181.6 5.08620
36185.8 5.06850
36187.9 5.06890
36188.9 5.10903
36189.4 5.27908
36189.7 5.83532
36189.8 7.24647
36189.9 10.1213
36189.9 21.4055
36190.0 38.1558
36190.1 21.8230
36190.1 9.75028
36190.2 7.24257
36190.4 5.82286
36190.6 5.29802
36191.2 5.12182
36192.4 5.06501
36194.7 5.03957
36199.4 5.01610
36208.8 4.98016
36227.5 4.91861
36246.2 4.86376
36255.6 4.83751
36260.3 4.82534
36262.6 4.82580
36263.8 4.85727
36264.4 4.99173
36264.6 5.43094
36264.8 6.60909
36264.9 8.57015
36264.9 16.9441
36265.0 29.4778
36265.1 17.3412
36265.2 8.04683
36265.3 6.17515
36265.5 5.30562
36265.8 4.96802
36266.6 4.85874
36268.2 4.82180
36271.3 4.80303
36277.5 4.78275
36289.9 4.74772
36314.7 4.67542
36339.5 4.59063
36364.4 4.47936
36376.8 4.40585
36389.2 4.31233
36401.6 4.18718
36414.0 4.00812
36420.2 3.88501
36426.4 3.72648
36432.6 3.51338
36438.8 3.21245
36445.0 2.75422
36448.1 2.42464
36451.2 1.98583
36454.3 1.38440
36457.4 0.590380
36459.0 0.202154
36460.5 0.185724
36461.3 0.719292
36462.1 2.30642
36462.5 3.95314
36462.9 6.65153
36463.3 11.0665
36463.6 17.9862
36464.0 27.6328
36464.3 40.3925
36465.0 66.9424
36465.4 71.7384
36465.7 68.7863
36466.4 53.8341
36466.8 44.1876
36467.3 36.8978
36467.8 31.4312
36468.2 27.3149
36469.1 21.7081
36470.1 18.1741
36471.0 15.7699
36471.9 14.0798
36473.8 11.8579
36475.6 10.4712
36477.4 9.53843
36481.1 8.36311
36484.8 7.65491
36488.5 7.18501
36492.2 6.84931
36495.9 6.59882
36503.2 6.24811
36510.6 6.01513
36518.0 5.84875
36525.4 5.72382
36540.1 5.54819
36554.8 5.43030
36569.6 5.34525
36584.3 5.28072
36613.8 5.18860
36643.3 5.12535
36702.3 5.04258
36761.3 4.98934
36820.2 4.95116
36938.2 4.89765
37056.1 4.85898
37174.1 4.82610
37292.0 4.79257
37351.0 4.77270
37380.5 4.76103
37395.2 4.75468
37402.6 4.75199
37406.3 4.75362
37408.1 4.76658
37409.0 4.81885
37409.5 5.00266
37409.7 5.55836
37409.8 6.99347
37409.9 9.58603
37409.9 18.8188
37410.0 32.9544
37410.1 18.8745
37410.1 8.96617
37410.2 6.79622
37410.3 5.47643
37410.6 4.97684
37411.1 4.81142
37412.1 4.76414
37414.1 4.75023
37418.2 4.74463
37426.3 4.73925
37442.5 4.72935
37458.7 4.71901
37466.8 4.71691
37470.9 4.73117
37472.9 4.79950
37473.9 5.05800
37474.4 5.94886
37474.7 8.42892
37474.8 14.0085
37474.9 21.3806
37474.9 39.3386
37475.0 74.0765
37475.1 39.4733
37475.2 19.8046
37475.2 12.6595
37475.4 7.75192
37475.7 5.69847
37476.3 4.98778
37477.4 4.78020
37479.8 4.72169
37484.5 4.70199
37493.9 4.68804
37512.7 4.66304
37531.5 4.63053
37550.3 4.58348
37569.1 4.50742
37578.5 4.44792
37587.9 4.36032
37597.3 4.21795
37602.0 4.10698
37606.7 3.94505
37611.4 3.68667
37613.7 3.48986
37616.1 3.21042
37618.4 2.78455
37620.8 2.06867
37622.0 1.50835
37623.1 0.776650
37624.3 0.423299
37624.6 0.941722
37624.9 2.43048
37625.2 6.35554
37625.3 10.4316
37625.5 16.6517
37625.6 25.6644
37625.7 37.3191
37626.0 61.5203
37626.1 65.9570
37626.3 63.5500
37626.5 49.6719
37626.8 36.4530
37627.1 27.8496
37627.4 22.4774
37627.7 18.9506
37628.0 16.5096
37628.3 14.7416
37628.9 12.3817
37629.5 10.8964
37630.1 9.88412
37631.3 8.60264
37632.5 7.83013
37633.7 7.31573
37636.1 6.67751
37638.5 6.29513
37640.9 6.04170
37645.7 5.72737
37650.5 5.53944
37655.3 5.41488
37664.9 5.25947
37674.5 5.16643
37684.1 5.10449
37703.2 5.02727
37722.4 4.98153
37741.6 4.95231
37760.8 4.93419
37770.4 4.93030
37775.2 4.93434
37777.6 4.95135
37778.8 5.00523
37779.4 5.17582
37779.7 5.69421
37779.8 7.05415
37779.9 9.43461
37779.9 20.8881
37780.0 36.1212
37780.1 20.1448
37780.1 10.2772
37780.2 7.35387
37780.3 5.75287
37780.5 5.14275
37781.0 4.96527
37782.0 4.92236
37783.8 4.91521
37787.6 4.91506
37795.2 4.91581
37810.4 4.92087
37825.5 4.93629
37840.7 4.97260
37855.9 5.05844
37863.4 5.14526
37871.0 5.30094
37874.8 5.42875
37878.6 5.61846
37882.4 5.91737
37886.2 6.42915
37890.0 7.41954
37891.9 8.31068
37893.8 9.75381
37895.7 12.3539
37896.6 14.5047
37897.5 17.6768
37898.5 22.7282
37899.4 31.1435
37900.4 46.5669
37901.3 75.4503
37902.2 116.288
37903.0 142.133
37903.8 113.004
37904.7 71.3419
37905.2 53.5919
37905.7 41.1600
37906.7 26.3592
37907.7 18.6440
37908.8 14.2889
37909.8 11.5854
37910.8 9.82409
37912.8 7.76883
37914.9 6.65851
37916.9 6.00006
37921.0 5.28924
37925.0 4.95862
37929.1 4.92642
37931.1 5.18605
37932.2 5.51955
37933.2 6.16506
37934.2 7.53843
37934.7 8.80896
37935.2 10.8204
37935.7 14.3513
37936.2 20.9832
37936.7 34.7713
37937.0 46.8746
37937.2 64.9744
37937.6 107.215
37938.0 139.066
37938.4 117.353
37938.8 79.0359
37939.2 49.9687
37939.7 34.3105
37940.1 25.5226
37940.5 20.2142
37941.0 16.7858
37941.4 14.4462
37942.3 11.5653
37943.2 9.87636
37944.0 8.80392
37945.8 7.55673
37947.6 6.86441
37949.3 6.43596
37952.8 5.93865
37956.3 5.66211
37959.8 5.48845
37966.8 5.28320
37973.8 5.16706
37980.8 5.09288
37994.9 5.00434
38008.9 4.95390
38022.9 4.92176
38050.9 4.88485
38079.0 4.86983
38107.0 4.88347
38121.0 4.92166
38128.1 4.96418
38135.1 5.04458
38142.1 5.21653
38145.6 5.38377
38149.1 5.67490
38152.6 6.24850
38154.3 6.76396
38156.1 7.59977
38157.9 9.08708
38159.6 12.0333
38160.5 14.7120
38161.4 18.9484
38162.2 26.1516
38163.1 38.3582
38164.1 58.8429
38165.0 72.7827
38166.0 59.4934
38166.9 39.1732
38167.7 27.5678
38168.5 20.4666
38169.3 16.0695
38170.1 13.2633
38171.7 10.0195
38173.4 8.32728
38175.0 7.33780
38176.6 6.71841
38179.8 6.01133
38183.0 5.63729
38186.3 5.41647
38192.7 5.17731
38199.2 5.05648
38205.6 4.98624
38218.5 4.91051
38231.4 4.87125
38244.3 4.84734
38270.1 4.81894
38321.7 4.78871
38373.2 4.76867
38476.4 4.73254
38528.0 4.71114
38553.8 4.70591
38566.7 4.75518
38569.9 4.82152
38573.1 5.02268
38574.8 5.30437
38576.4 6.06534
38577.2 7.03759
38577.6 7.91219
38578.0 9.33970
38578.4 11.9686
38578.8 17.1809
38579.0 21.9558
38579.2 29.7080
38579.4 42.9981
38579.6 67.0038
38579.8 105.025
38580.0 131.872
38580.2 106.976
38580.4 69.4283
38580.6 52.0800
38580.7 39.6198
38580.8 31.1590
38581.0 25.2982
38581.3 18.0821
38581.5 14.0503
38581.8 11.5967
38582.1 10.0002
38582.7 8.12320
38583.2 7.10458
38583.8 6.49012
38584.9 5.81948
38587.1 5.27208
38589.3 5.05575
38593.8 4.88259
38598.3 4.81331
38607.2 4.75453
38616.1 4.72767
38651.9 4.67874
38687.6 4.64195
38723.3 4.59623
38759.0 4.52648
38776.9 4.47303
38794.7 4.39502
38812.6 4.26868
38821.5 4.17020
38830.4 4.02615
38839.4 3.79500
38843.8 3.61736
38848.3 3.36339
38852.8 2.96927
38855.0 2.68020
38857.2 2.28650
38859.5 1.72739
38861.7 0.917030
38863.9 0.107847
38864.5 0.309230
38865.0 1.37630
38865.3 2.66951
38865.6 4.99851
38865.9 9.17055
38866.2 16.5228
38866.4 25.2988
38866.6 37.2242
38867.0 62.3180
38867.2 66.9510
38867.4 64.4603
38867.8 50.5705
38868.2 39.2558
38868.6 31.2847
38869.0 25.8478
38869.4 22.1325
38870.1 17.3412
38870.9 14.5087
38871.6 12.6714
38872.4 11.3957
38873.9 9.75506
38875.4 8.75353
38876.9 8.08213
38879.9 7.24237
38882.9 6.73873
38885.9 6.40560
38891.9 5.99115
38897.9 5.74340
38903.9 5.57907
38915.9 5.37410
38927.9 5.25106
38939.9 5.16886
38963.9 5.06549
38987.9 5.00257
39011.9 4.95976
39035.9 4.92820
39047.9 4.91485
39053.9 4.90859
39056.9 4.90805
39058.4 4.92306
39059.2 4.99638
39059.6 5.27582
39059.8 6.13930
39059.9 7.95238
39059.9 11.0604
39059.9 19.7331
39060.0 35.0704
39060.1 20.2337
39060.1 10.5531
39060.2 7.90178
39060.3 6.14741
39060.5 5.31959
39060.9 5.03476
39061.7 4.94591
39063.4 4.91686
39066.7 4.90505
39073.4 4.89644
39086.7 4.88530
39113.4 4.86804
39166.7 4.84464
39193.4 4.84058
39220.0 4.85406
39233.3 4.88488
39240.0 4.91921
39246.7 4.98455
39253.3 5.12626
39256.7 5.26514
39260.0 5.50987
39263.3 5.99849
39265.0 6.44464
39266.7 7.17233
39268.3 8.48710
39269.2 9.56215
39270.0 11.1504
39270.8 13.6493
39271.7 17.7102
39272.5 24.7696
39273.3 37.3969
39274.2 57.4527
39275.0 70.9326
39275.8 58.0099
39276.7 38.4125
39277.2 29.5024
39277.7 23.3908
39278.8 16.0983
39279.8 12.2753
39280.8 10.0829
39281.9 8.72506
39282.9 7.83079
39285.0 6.76718
39287.1 6.18186
39289.2 5.82867
39293.3 5.43875
39297.5 5.23819
39301.7 5.12128
39310.0 4.99543
39318.3 4.93150
39326.7 4.89372
39343.3 4.85146
39376.6 4.81197
39393.3 4.79884
39401.6 4.79106
39405.8 4.78554
39407.9 4.78839
39408.9 4.83324
39409.4 5.04120
39409.7 5.73338
39409.8 7.39940
39409.9 10.4271
39409.9 18.1863
39410.0 32.6801
39410.1 19.2815
39410.2 10.0419
39410.2 7.19451
39410.4 5.73336
39410.8 5.11757
39411.5 4.90733
39412.8 4.83524
39415.6 4.80874
39421.2 4.79641
39432.3 4.78751
39454.4 4.77704
39498.8 4.76104
39587.5 4.73272
39676.2 4.70218
39720.6 4.68423
39742.8 4.67411
39753.9 4.66878
39759.4 4.66729
39762.2 4.67353
39763.6 4.70747
39764.3 4.84171
39764.6 5.31457
39764.8 6.60860
39764.9 9.52913
39764.9 22.8467
39765.0 41.2990
39765.1 23.1391
39765.1 10.4059
39765.2 7.35270
39765.3 5.65873
39765.6 4.97996
39766.2 4.75609
39767.3 4.69048
39769.6 4.67032
39774.1 4.66218
39783.2 4.65538
39801.3 4.64424
39837.5 4.61990
39873.7 4.58984
39891.8 4.57169
39900.8 4.56436
39905.3 4.57914
39907.6 4.67173
39908.7 5.03764
39909.3 6.22386
39909.6 9.05436
39909.7 13.7137
39909.8 18.7666
39909.9 27.8411
39909.9 42.1097
39910.0 51.8818
39910.1 42.7633
39910.1 28.6586
39910.3 15.5563
39910.4 10.7671
39910.6 7.18598
39911.1 5.47435
39912.0 4.84984
39913.8 4.64583
39917.5 4.57923
39924.8 4.55024
39939.4 4.52410
39968.6 4.48038
39983.2 4.46500
39997.8 4.48208
40005.1 4.54259
40008.8 4.61491
40012.4 4.75687
40016.1 5.06901
40017.9 5.37737
40019.7 5.91673
40021.5 6.98809
40022.4 7.95102
40023.4 9.51310
40024.3 12.3111
40025.2 17.8254
40025.6 22.8620
40026.1 30.7248
40026.6 44.1987
40027.0 67.0290
40027.5 105.181
40028.0 131.565
40028.5 106.651
40029.0 68.8603
40029.4 47.0777
40029.9 33.6211
40030.3 25.3293
40030.7 20.1048
40031.6 13.9826
40032.4 10.8386
40033.3 8.98953
40034.1 7.83753
40035.8 6.51720
40037.5 5.81220
40039.2 5.39137
40042.7 4.92911
40046.1 4.68492
40049.5 4.53422
40056.3 4.34800
40083.6 3.88550
40097.3 3.56894
40104.1 3.33825
40111.0 3.01713
40117.8 2.53673
40121.2 2.19539
40124.6 1.74964
40128.0 1.15623
40131.4 0.422994
40133.2 0.120699
40134.9 0.270302
40135.7 0.915697
40136.6 2.56712
40137.0 4.15128
40137.4 6.53780
40137.8 10.2950
40138.3 15.8716
40138.7 24.5103
40139.1 36.0683
40140.0 60.8343
40140.4 65.5411
40140.9 63.2291
40141.7 49.8405
40142.5 38.5808
40143.3 30.7263
40144.1 25.3900
40144.9 21.7102
40146.5 17.0049
40148.1 14.2555
40149.7 12.4659
40151.3 11.2331
40154.5 9.64383
40157.7 8.67429
40160.9 8.02436
40167.3 7.21112
40173.6 6.72423
40180.0 6.40059
40192.8 5.99768
40205.5 5.75647
40218.3 5.59602
40243.8 5.39536
40269.3 5.27466
40294.8 5.19390
40345.8 5.09212
40396.9 5.03014
40447.9 4.98806
40498.9 4.95722
40524.4 4.94429
40537.2 4.93785
40543.6 4.93462
40546.8 4.93654
40548.4 4.95850
40549.2 5.06153
40549.6 5.45063
40549.8 6.65795
40549.9 9.47712
40549.9 13.9091
40549.9 23.6219
40550.0 42.9472
40550.1 24.2498
40550.1 11.2373
40550.2 7.67405
40550.4 5.90017
40550.7 5.24037
40551.3 5.02969
40552.6 4.96509
40555.2 4.94398
40560.3 4.93517
40570.5 4.92876
40591.0 4.92056
40631.9 4.90778
40713.7 4.89131
40754.6 4.89105
40795.5 4.91063
40816.0 4.94726
40826.2 4.98624
40836.5 5.05860
40846.7 5.21192
40851.8 5.36030
40856.9 5.61847
40862.0 6.12692
40864.6 6.58643
40867.1 7.33147
40869.7 8.66162
40871.0 9.74720
40872.3 11.3272
40873.5 13.7748
40874.8 17.7512
40876.1 24.5755
40877.4 36.4638
40878.7 55.6276
40880.0 68.5512
40881.3 55.9666
40882.6 36.8901
40883.5 28.0475
40884.4 22.0492
40886.1 15.0358
40887.8 11.4642
40889.6 9.45647
40891.3 8.23074
40893.0 7.43217
40896.5 6.49519
40899.9 5.98577
40903.4 5.67937
40910.3 5.34452
40917.2 5.17346
40924.1 5.07347
40938.0 4.96363
40951.8 4.90293
40965.6 4.86165
40979.4 4.86103
40982.9 4.90944
40986.4 5.09046
40988.1 5.36234
40989.8 6.09970
40990.7 7.00712
40991.5 8.99416
40992.0 10.9713
40992.4 14.4503
40992.8 21.0927
40993.3 34.7288
40993.6 54.1144
40994.0 68.6442
40994.4 57.4214
40994.7 38.8046
40995.0 30.4595
40995.2 24.5780
40995.6 17.2198
40996.1 13.2710
40996.5 10.9629
40997.0 9.50924
40997.4 8.53707
40998.3 7.36692
40999.2 6.69893
41000.1 6.28754
41001.9 5.81496
41005.5 5.40797
41009.1 5.23469
41016.2 5.08426
41023.4 5.01772
41037.7 4.95603
41052.0 4.92616
41080.7 4.89537
41109.3 4.87854
41166.6 4.85877
41195.3 4.85161
41209.6 4.84816
41216.8 4.84791
41220.3 4.85833
41222.1 4.91294
41223.0 5.13739
41223.5 5.92511
41223.7 8.07873
41223.8 12.4007
41223.9 19.0115
41223.9 33.9316
41224.0 63.7201
41224.1 34.6240
41224.1 19.6077
41224.2 12.8699
41224.3 8.40141
41224.5 6.11859
41225.0 5.25004
41225.8 4.97063
41227.6 4.88616
41231.1 4.85991
41238.2 4.85038
41252.3 4.84513
41280.4 4.83983
41336.8 4.83228
41449.5 4.82080
41562.2 4.81155
41618.6 4.80728
41646.8 4.80505
41660.8 4.80407
41667.9 4.80583
41671.4 4.81890
41673.2 4.87800
41674.0 5.10689
41674.5 5.87651
41674.7 7.98297
41674.8 12.1997
41674.9 18.6510
41674.9 33.4499
41675.0 62.5729
41675.1 33.9152
41675.1 19.0503
41675.2 13.2584
41675.3 8.41841
41675.5 6.05107
41676.0 5.18528
41676.8 4.91609
41678.6 4.83764
41682.1 4.81458
41689.1 4.80708
41703.2 4.80379
41731.3 4.80112
41787.5 4.79733
41843.7 4.79391
41871.8 4.79224
41885.9 4.79156
41892.9 4.79240
41896.4 4.79861
41898.2 4.82641
41899.1 4.93647
41899.5 5.33082
41899.7 6.54688
41899.8 9.45084
41899.9 13.5356
41899.9 24.6073
41900.0 44.6331
41900.1 24.8065
41900.1 13.7011
41900.2 9.57967
41900.3 6.76509
41900.5 5.45398
41900.9 4.98908
41901.7 4.84760
41903.3 4.80724
41906.5 4.79567
41912.9 4.79196
41925.7 4.79020
41951.3 4.78848
42002.5 4.78575
42105.0 4.78117
42207.5 4.77882
42258.7 4.78042
42284.3 4.78354
42297.1 4.78753
42303.5 4.79412
42306.7 4.80965
42308.3 4.85470
42309.1 4.99620
42309.5 5.43355
42309.7 6.62902
42309.8 9.16428
42309.9 12.8773
42309.9 23.5932
42310.0 41.6243
42310.1 22.8397
42310.1 10.4379
42310.2 7.11813
42310.4 5.56873
42310.7 4.98667
42311.3 4.82470
42312.5 4.78835
42315.0 4.78339
42319.9 4.78543
42329.7 4.78999
42349.4 4.80080
42369.1 4.81882
42388.8 4.85314
42408.5 4.92890
42418.3 5.00505
42428.2 5.14325
42433.1 5.25837
42438.0 5.43151
42442.9 5.70840
42447.8 6.19001
42452.8 7.13608
42455.2 7.99130
42457.7 9.38650
42460.1 11.8764
42461.4 13.9145
42462.6 16.9188
42463.8 21.5653
42465.1 29.1657
42466.3 42.3390
42467.5 65.8315
42468.8 102.880
42470.0 127.871
42471.2 103.491
42472.5 66.5999
42473.3 48.9587
42474.2 37.0735
42475.0 29.0765
42475.9 23.6299
42477.6 16.9120
42479.3 13.1809
42481.0 10.9109
42482.6 9.45097
42486.0 7.74403
42489.4 6.82279
42492.8 6.27321
42496.2 5.91741
42499.6 5.67509
42506.3 5.37376
42513.1 5.20044
42519.9 5.09130
42526.6 5.01796
42540.2 4.92763
42553.7 4.87554
42580.8 4.81865
42607.9 4.78713
42634.9 4.76686
42648.5 4.76370
42662.0 4.78457
42668.8 4.83415
42675.5 5.00694
42678.9 5.26568
42680.6 5.52512
42682.3 5.98917
42684.0 6.92226
42684.9 7.78252
42685.7 9.17623
42686.5 11.6946
42687.4 16.6872
42687.8 21.3357
42688.2 28.6385
42688.7 40.8961
42689.1 62.0029
42689.5 98.3344
42690.0 123.393
42690.5 101.699
42690.9 66.1703
42691.3 46.4406
42691.7 33.8170
42692.1 25.9059
42692.5 20.7569
42693.3 14.8005
42694.0 11.6606
42694.8 9.81612
42695.6 8.64244
42697.2 7.29335
42698.7 6.56439
42700.3 6.12866
42703.4 5.64647
42706.5 5.39709
42709.6 5.24950
42715.8 5.08774
42728.3 4.95286
42740.7 4.89576
42765.6 4.84512
42790.5 4.82171
42840.2 4.79853
42890.0 4.78622
42989.5 4.77185
43089.1 4.76240
43288.1 4.74740
43387.6 4.73999
43437.4 4.74037
43462.3 4.76836
43468.5 4.80319
43474.7 4.90673
43477.8 5.04995
43480.9 5.43314
43482.5 5.91668
43484.1 7.05844
43484.8 8.32126
43485.6 10.8539
43486.0 13.1584
43486.4 16.8730
43486.8 23.1749
43487.2 34.0695
43487.6 51.8749
43488.0 64.4416
43488.4 52.7152
43488.8 35.1142
43489.3 23.5208
43489.7 17.0056
43490.1 13.2482
43490.5 10.9485
43491.4 8.44369
43492.2 7.20824
43493.0 6.49905
43493.9 6.06037
43495.5 5.57026
43498.9 5.16325
43502.2 5.00142
43508.9 4.87238
43515.6 4.82187
43529.0 4.78118
43542.4 4.76446
43569.2 4.74962
43582.6 4.74563
43589.3 4.74513
43592.6 4.75071
43594.3 4.77817
43595.1 4.88850
43595.5 5.28315
43595.7 6.48798
43595.8 9.06110
43595.9 12.8673
43595.9 23.4175
43596.0 42.3233
43596.1 23.6388
43596.1 13.0502
43596.2 9.20323
43596.3 6.58222
43596.5 5.33694
43596.9 4.91695
43597.7 4.79233
43599.4 4.75690
43602.8 4.74618
43609.5 4.74196
43622.8 4.73892
43649.6 4.73545
43703.2 4.73442
43730.0 4.74221
43756.8 4.77732
43770.1 4.83540
43776.8 4.89709
43783.5 5.01292
43790.2 5.26309
43793.6 5.50890
43796.9 5.94160
43800.3 6.80677
43802.0 7.60034
43803.6 8.89724
43805.3 11.2450
43806.1 13.1813
43807.0 16.0103
43807.8 20.4539
43808.6 27.6565
43809.5 40.3348
43810.3 62.7460
43811.2 98.8700
43812.0 123.413
43812.9 100.279
43813.7 65.0708
43814.3 48.2600
43814.8 36.8266
43816.0 23.7716
43817.1 17.1535
43818.2 13.4380
43819.4 11.1684
43820.5 9.68763
43822.7 7.94136
43825.0 6.98760
43827.3 6.41408
43831.8 5.78255
43836.3 5.45827
43840.8 5.26998
43845.4 5.15883
43847.6 5.16684
43848.8 5.36523
43849.3 6.10438
43849.6 8.03075
43849.7 11.5399
43849.9 24.5578
43850.0 44.8325
43850.1 25.3389
43850.3 12.5811
43850.4 8.59923
43850.7 6.42069
43851.2 5.50030
43852.3 5.18035
43854.5 5.05933
43858.9 4.98702
43867.6 4.91857
43885.2 4.85087
43902.7 4.81635
43920.2 4.79554
43955.3 4.77157
43990.3 4.75772
44060.4 4.74041
44095.4 4.73563
44113.0 4.75124
44121.7 4.84728
44123.9 4.95132
44126.1 5.23721
44127.2 5.60725
44128.3 6.50204
44128.8 7.52281
44129.4 9.64366
44129.7 11.6925
44129.9 15.0007
44130.2 20.8556
44130.5 31.9657
44130.7 48.8784
44131.0 60.3729
44131.3 49.8158
44131.5 33.1419
44131.8 22.5354
44132.0 16.6151
44132.3 13.1076
44132.5 10.9170
44133.0 8.48346
44133.5 7.24946
44134.5 6.09462
44135.5 5.59839
44137.6 5.18156
44139.6 5.01462
44143.6 4.88008
44147.6 4.82699
44163.6 4.76601
44195.7 4.74268
44227.9 4.73423
44243.9 4.73103
44251.9 4.72919
44255.9 4.72813
44258.0 4.72965
44259.0 4.74319
44259.5 4.80405
44259.7 5.01762
44259.8 5.64975
44260.0 11.9587
44260.0 19.5351
44260.0 12.2929
44260.1 6.47287
44260.2 5.47302
44260.4 4.99419
44260.7 4.81441
44261.4 4.75764
44262.7 4.73927
44265.3 4.73274
44270.5 4.72973
44280.9 4.72743
44301.7 4.72447
44343.3 4.71954
44426.6 4.71008
44509.9 4.69927
44551.6 4.70190
44562.0 4.71550
44572.4 4.76738
44577.6 4.84960
44582.8 5.09436
44585.4 5.43386
44586.7 5.76162
44588.0 6.33186
44589.3 7.44350
44590.0 8.43509
44590.6 10.0245
44591.3 12.7793
44591.9 18.0846
44592.2 22.7944
44592.6 29.8335
44592.9 41.4488
44593.2 59.6879
44593.6 93.6467
44594.0 117.213
44594.4 95.7065
44594.8 62.2627
44595.2 39.2830
44595.7 26.8855
44596.1 19.7976
44596.5 15.6556
44597.0 12.9506
44597.4 11.1722
44598.3 8.98110
44599.1 7.75414
44600.0 6.99870
44601.7 6.15705
44603.5 5.71642
44605.2 5.45718
44608.7 5.17813
44615.6 4.95408
44622.6 4.86508
44636.5 4.79243
44650.4 4.76222
44678.2 4.73553
44706.0 4.72282
44761.6 4.70887
44817.2 4.69966
45039.5 4.66712
45150.7 4.64379
45206.3 4.62700
45261.9 4.60330
45317.5 4.56586
45345.3 4.53691
45373.1 4.49450
45400.9 4.42548
45414.8 4.37133
45428.7 4.29157
45442.6 4.16166
45449.5 4.06022
45456.5 3.91190
45463.4 3.67434
45466.9 3.49224
45470.4 3.23300
45473.8 2.83287
45477.3 2.14829
45479.0 1.59527
45480.8 0.819422
45482.5 0.112645
45483.0 0.341838
45483.4 1.32708
45483.8 4.32613
45484.0 7.61076
45484.2 13.1000
45484.4 20.0936
45484.6 30.2477
45485.0 52.4367
45485.2 56.9247
45485.4 55.1807
45485.8 44.0262
45486.2 32.0662
45486.6 24.6997
45487.1 20.0132
45487.5 17.0108
45488.0 14.8846
45488.4 13.3779
45489.3 11.3367
45490.2 10.0485
45491.1 9.16807
45492.9 8.05441
45494.6 7.37577
45496.4 6.92263
45500.0 6.35815
45503.5 6.01946
45507.1 5.79509
45514.2 5.51630
45521.3 5.35314
45528.4 5.26098
45535.5 5.31613
45537.3 5.44708
45539.1 5.83842
45539.9 6.36247
45540.8 7.67523
45541.3 9.21798
45541.7 12.4220
45541.9 15.4984
45542.2 20.7493
45542.4 30.4123
45542.6 50.1597
45542.8 77.3260
45543.0 97.2567
45543.2 78.8878
45543.4 52.0827
45543.6 32.7629
45543.8 22.8827
45544.0 17.3176
45544.2 13.9630
45544.7 10.3551
45545.1 8.57744
45545.9 6.94544
45546.8 6.25501
45548.5 5.67486
45550.1 5.43876
45553.5 5.23865
45556.9 5.15070
45570.4 5.01664
45583.9 4.95838
45597.4 4.92059
45624.4 4.87109
45651.3 4.83893
45705.3 4.79832
45759.3 4.77292
45867.2 4.74109
45975.2 4.72011
46191.1 4.68918
46299.0 4.67527
46353.0 4.66796
46380.0 4.66361
46393.4 4.66055
46400.2 4.65886
46403.6 4.66397
46405.3 4.70179
46406.1 4.86974
46406.5 5.47368
46406.7 7.20670
46406.8 11.1470
46406.9 28.1256
46407.0 52.4904
46407.1 29.0164
46407.2 12.5206
46407.3 8.29342
46407.4 5.95271
46407.8 5.07469
46408.6 4.79377
46410.1 4.70582
46413.1 4.67760
46419.1 4.66716
46431.2 4.66188
46455.3 4.65712
46503.5 4.64983
46551.7 4.64266
46575.8 4.63877
46587.9 4.63647
46593.9 4.63506
46596.9 4.63551
46598.5 4.64426
46599.2 4.68728
46599.6 4.85775
46599.8 5.41378
46599.9 6.66463
46600.0 14.3726
46600.0 24.4747
46600.0 14.7317
46600.1 6.88744
46600.2 5.55925
46600.4 4.93979
46600.8 4.73272
46601.5 4.66665
46603.0 4.64610
46606.0 4.63898
46612.0 4.63564
46624.0 4.63276
46648.0 4.62838
46672.0 4.62386
46684.0 4.62104
46690.0 4.61941
46693.0 4.62140
46694.5 4.64030
46695.2 4.72861
46695.6 5.04977
46695.8 6.04655
46695.9 8.11413
46695.9 19.7483
46696.0 35.4437
46696.1 20.3079
46696.2 8.47675
46696.2 6.29089
46696.4 5.19094
46696.8 4.80114
46697.6 4.67833
46699.1 4.64030
46702.1 4.62746
46708.1 4.62201
46720.2 4.61815
46744.4 4.61308
46792.7 4.60364
46889.3 4.58294
46986.0 4.55810
47082.6 4.52701
47179.3 4.48639
47275.9 4.43076
47324.2 4.39497
47372.6 4.35392
47420.9 4.32281
47433.0 4.33026
47445.0 4.37132
47451.1 4.43233
47457.1 4.59233
47460.1 4.79003
47463.2 5.26869
47464.7 5.82685
47466.2 7.07782
47466.9 8.40753
47467.7 10.9482
47468.1 13.2286
47468.4 16.8414
47468.8 22.8551
47469.2 32.7687
47469.6 48.9297
47470.0 58.4718
47470.4 46.6601
47470.8 29.8797
47471.2 20.3888
47471.5 14.8488
47471.9 11.4714
47472.3 9.43025
47473.0 7.15426
47473.7 6.04070
47475.2 5.03083
47476.6 4.62242
47479.5 4.31067
47482.4 4.20208
47488.3 4.12986
47494.1 4.10787
47505.7 4.09863
47517.3 4.11797
47529.0 4.19936
47534.8 4.29821
47540.6 4.48954
47546.4 4.89551
47549.3 5.27626
47552.3 5.90837
47555.2 7.04771
47558.1 9.35533
47559.5 11.4738
47561.0 14.8712
47562.4 20.6287
47563.9 30.5924
47565.4 47.2184
47567.0 58.7535
47568.6 48.3158
47570.1 31.9513
47572.0 20.0001
47573.8 13.8521
47575.6 10.5211
47577.4 8.57194
47579.3 7.33205
47581.1 6.50430
47584.7 5.48936
47588.4 4.90669
47592.0 4.53415
47599.3 4.07582
47606.7 3.78263
47614.0 3.55221
47628.6 3.12368
47643.2 2.60042
47650.5 2.25163
47657.8 1.80522
47665.1 1.21832
47672.4 0.487373
47676.0 0.165333
47677.9 0.102275
47679.7 0.214676
47681.5 0.704523
47682.4 1.21010
47683.3 2.00587
47684.3 3.25290
47685.2 5.14539
47686.1 8.01980
47687.0 12.3281
47688.0 19.4256
47689.0 29.2143
47691.0 50.6252
47692.0 55.1626
47693.0 53.7136
47695.0 43.0354
47696.7 34.5595
47698.3 28.3033
47700.0 23.8482
47701.6 20.6488
47704.9 16.4548
47708.2 13.9085
47711.5 12.2283
47714.8 11.0477
47721.3 9.51157
47727.9 8.56218
47734.5 7.92197
47747.7 7.11497
47760.8 6.62810
47774.0 6.30316
47800.3 5.89613
47826.7 5.65124
47853.0 5.48733
47905.6 5.28076
47958.3 5.15479
48011.0 5.07033
48037.3 5.04052
48063.6 5.02723
48076.8 5.04073
48090.0 5.11171
48096.5 5.22482
48099.8 5.33952
48103.1 5.54506
48106.4 5.95847
48108.1 6.33849
48109.7 6.95876
48111.3 8.07696
48113.0 10.3247
48113.8 12.4120
48114.6 15.7613
48115.5 21.4781
48116.3 31.4645
48117.1 47.9582
48118.0 59.2201
48118.9 48.8712
48119.7 32.8585
48120.7 21.1977
48121.7 15.1867
48122.7 11.8949
48123.7 9.94947
48124.7 8.71840
48125.7 7.89434
48127.7 6.89723
48129.7 6.33826
48131.6 5.99628
48135.6 5.61264
48139.6 5.41135
48143.5 5.29187
48151.5 5.15992
48167.3 5.04743
48183.2 4.99661
48214.9 4.94477
48246.6 4.91522
48278.3 4.89694
48310.1 4.89672
48325.9 4.91892
48341.8 5.00580
48349.7 5.13780
48353.7 5.27154
48357.6 5.51258
48361.6 6.00895
48363.6 6.47453
48365.6 7.26239
48367.5 8.74151
48368.5 10.0138
48369.5 11.9816
48370.5 15.2290
48371.5 21.0479
48372.5 32.5569
48373.0 42.6450
48373.5 57.3271
48374.2 89.3348
48375.0 111.450
48375.8 90.6697
48376.5 58.9590
48377.3 37.8503
48378.1 26.2596
48378.9 19.6314
48379.6 15.5984
48380.4 12.9956
48381.2 11.2296
48382.8 9.06688
48384.3 7.84172
48385.9 7.09065
48389.0 6.24855
48392.1 5.80964
48395.3 5.55251
48401.5 5.27542
48407.8 5.13506
48414.0 5.05309
48426.5 4.96376
48451.5 4.88708
48476.5 4.85092
48526.4 4.81019
48576.4 4.78225
48676.4 4.73508
48726.3 4.71343
48751.3 4.71677
48763.8 4.78847
48767.0 4.87014
48770.1 5.09680
48771.6 5.39106
48773.2 6.11878
48774.0 6.95496
48774.8 8.72301
48775.1 10.4262
48775.5 13.3446
48775.9 18.7426
48776.3 29.3756
48776.7 44.6636
48777.0 54.9048
48777.3 45.3637
48777.7 30.2194
48777.9 22.5765
48778.2 17.6105
48778.5 14.2261
48778.7 12.0371
48779.2 9.35919
48779.7 7.90667
48780.7 6.48325
48781.8 5.83726
48783.8 5.28326
48785.8 5.05735
48789.9 4.87405
48794.0 4.80102
48802.1 4.74069
48810.3 4.71441
48842.8 4.67135
48908.0 4.62064
48973.2 4.56410
49038.3 4.48714
49103.5 4.36763
49136.0 4.27651
49168.6 4.14497
49201.2 3.93612
49217.5 3.77681
49233.8 3.54905
49250.1 3.19600
49258.2 2.93494
49266.4 2.57650
49274.5 2.05709
49278.6 1.70534
49282.6 1.27000
49290.8 0.266221
49292.8 0.243142
49294.9 0.820438
49295.9 1.66661
49296.9 3.29646
49297.9 6.35164
49298.9 11.8756
49299.7 18.6843
49300.5 28.2086
49302.0 49.2957
49302.8 53.9201
49303.5 52.7591
49305.1 42.6362
49306.9 31.7094
49308.7 24.7912
49310.5 20.4478
49312.3 17.6387
49315.9 14.4122
49319.4 12.9084
49323.0 12.5358
49324.8 12.8172
49326.6 13.5552
49328.4 15.0377
49330.2 17.8413
49332.0 23.2710
49333.8 33.9711
49335.4 49.7922
49337.0 60.7180
49338.6 50.4684
49340.2 34.5847
49341.2 27.5669
49342.2 22.6378
49344.2 16.6424
49346.1 13.4108
49348.1 11.5018
49350.0 10.2804
49352.0 9.44650
49355.9 8.39709
49359.8 7.76906
49363.8 7.35075
49371.6 6.82273
49379.4 6.49640
49387.3 6.27089
49395.1 6.10329
49403.0 5.97266
49418.7 5.78020
49434.3 5.64480
49450.0 5.55528
49457.9 5.58568
49459.8 5.65660
49461.8 5.87691
49462.8 6.18083
49463.7 6.97802
49464.2 7.95360
49464.7 10.1916
49465.0 12.6181
49465.2 17.0500
49465.5 27.1420
49465.6 36.4179
49465.7 51.1853
49465.9 80.0509
49466.0 98.3088
49466.2 81.1548
49466.3 52.5897
49466.4 36.7914
49466.6 27.1409
49466.8 17.2247
49467.1 12.7374
49467.4 10.3887
49467.9 8.15248
49468.4 7.16156
49469.4 6.32487
49470.5 5.98560
49472.6 5.71015
49474.6 5.59884
49483.0 5.45446
49499.7 5.36391
49533.0 5.26705
49566.4 5.20146
49599.7 5.15194
49666.4 5.08082
49733.2 5.03143
49799.9 4.99454
49866.6 4.96547
49933.3 4.94160
50000.0 4.92189
50000.0 6.19711
60000.0 6.23522
70000.0 6.26780
80000.0 6.29555
99999.9 6.33872
100000 6.33785
150000 6.31039
200000 6.30768
250000 6.31529
300000 6.32758
500000 6.38281
600000 6.39327
700000 6.40218
800000 6.39203
900000 6.36820
1.00000E+06 6.33109
1.09068E+06 6.27999
1.18136E+06 6.23349
1.25000E+06 6.18731
1.37500E+06 6.07691
1.50000E+06 5.98495
1.62500E+06 5.85746
1.75000E+06 5.74519
1.89077E+06 5.60167
1.89077E+06 5.60166
2.00000E+06 5.48865
2.11515E+06 5.36972
2.17797E+06 5.30547
2.21306E+06 5.26986
2.21306E+06 5.26986
2.30382E+06 5.17903
2.30926E+06 5.17365
2.30927E+06 5.17364
2.37542E+06 5.10895
2.41989E+06 5.06621
2.44147E+06 5.04571
2.48685E+06 5.00316
2.50288E+06 4.98831
2.50288E+06 4.98831
2.60856E+06 4.89295
2.60856E+06 4.89295
2.66493E+06 4.84400
2.66493E+06 4.84399
2.71989E+06 4.79760
2.71989E+06 4.79760
2.74419E+06 4.77752
2.74419E+06 4.77752
2.78322E+06 4.74584
2.89161E+06 4.65926
3.00000E+06 4.58278
3.11603E+06 4.50885
3.23205E+06 4.44243
3.34808E+06 4.38265
3.46410E+06 4.32876
3.59808E+06 4.25799
3.73205E+06 4.19515
3.86603E+06 4.13927
4.00000E+06 4.08953
4.16455E+06 4.05054
4.32910E+06 4.01426
4.49364E+06 3.98043
4.65819E+06 3.94878
4.75236E+06 3.93055
4.84652E+06 3.91297
5.00000E+06 3.88502
5.12500E+06 3.88224
5.25000E+06 3.87958
5.37500E+06 3.87701
5.50000E+06 3.87455
5.62500E+06 3.87218
5.75000E+06 3.86989
5.87500E+06 3.86769
6.00000E+06 3.86556
6.12019E+06 3.87940
6.24037E+06 3.89330
6.36056E+06 3.90725
6.48074E+06 3.92126
6.61056E+06 3.93532
6.74037E+06 3.94943
6.87019E+06 3.96357
7.00000E+06 3.97775
7.05941E+06 3.98938
7.11881E+06 4.00104
7.17822E+06 4.01270
7.23762E+06 4.02438
7.29904E+06 4.03616
7.36047E+06 4.04795
7.42189E+06 4.05975
7.48331E+06 4.07156
7.54682E+06 4.08349
7.61033E+06 4.09541
7.67383E+06 4.10735
7.73734E+06 4.11929
7.80301E+06 4.13136
7.86867E+06 4.14343
7.93434E+06 4.15550
8.00000E+06 4.16759
8.05320E+06 4.17928
8.10640E+06 4.19097
8.15960E+06 4.20266
8.21281E+06 4.21434
8.26601E+06 4.22601
8.31921E+06 4.23768
8.37241E+06 4.24934
8.42561E+06 4.26100
8.48528E+06 4.27388
8.54962E+06 4.28754
8.61396E+06 4.30119
8.67830E+06 4.31483
8.74264E+06 4.32846
8.80698E+06 4.34208
8.87132E+06 4.35569
8.93566E+06 4.36929
9.00000E+06 4.38288
9.04696E+06 4.39186
9.09393E+06 4.40104
9.14089E+06 4.41042
9.18785E+06 4.42001
9.23861E+06 4.42918
9.28937E+06 4.43843
9.34013E+06 4.44775
9.39089E+06 4.45715
9.44165E+06 4.46662
9.49241E+06 4.47617
9.54317E+06 4.48579
9.59393E+06 4.49548
9.64469E+06 4.50525
9.69544E+06 4.51508
9.74620E+06 4.52499
9.79696E+06 4.53496
9.84772E+06 4.54500
9.89848E+06 4.55511
9.94924E+06 4.56529
1.00000E+07 4.57554
1.01514E+07 4.58819
1.03028E+07 4.60213
1.04588E+07 4.61786
1.06148E+07 4.63489
1.06850E+07 4.64136
1.07552E+07 4.64806
1.08164E+07 4.65349
1.08776E+07 4.65908
1.09388E+07 4.66482
1.10000E+07 4.67071
1.10432E+07 4.67437
1.10863E+07 4.67811
1.11295E+07 4.68191
1.11727E+07 4.68579
1.12158E+07 4.68974
1.12590E+07 4.69375
1.13021E+07 4.69784
1.13453E+07 4.70199
1.13857E+07 4.70516
1.14260E+07 4.70840
1.14664E+07 4.71170
1.15067E+07 4.71506
1.15471E+07 4.71850
1.15874E+07 4.72199
1.16278E+07 4.72556
1.16681E+07 4.72918
1.17096E+07 4.73272
1.17511E+07 4.73633
1.17926E+07 4.74000
1.18341E+07 4.74373
1.18755E+07 4.74753
1.19170E+07 4.75140
1.19585E+07 4.75533
1.20000E+07 4.75932
1.20613E+07 4.75494
1.21225E+07 4.75063
1.21838E+07 4.74640
1.22450E+07 4.74224
1.23063E+07 4.73815
1.23675E+07 4.73414
1.24288E+07 4.73020
1.24900E+07 4.72633
1.25538E+07 4.72232
1.26175E+07 4.71839
1.26813E+07 4.71454
1.27450E+07 4.71076
1.28088E+07 4.70706
1.28725E+07 4.70343
1.29363E+07 4.69988
1.30000E+07 4.69641
1.30620E+07 4.69262
1.31239E+07 4.68887
1.31859E+07 4.68517
1.32478E+07 4.68151
1.33098E+07 4.67789
1.33717E+07 4.67431
1.34337E+07 4.67078
1.34956E+07 4.66728
1.35587E+07 4.66361
1.36217E+07 4.65997
1.36848E+07 4.65637
1.37478E+07 4.65280
1.38109E+07 4.64927
1.38739E+07 4.64578
1.39370E+07 4.64232
1.40000E+07 4.63889
1.40625E+07 4.62991
1.41250E+07 4.62101
1.41875E+07 4.61217
1.42500E+07 4.60341
1.43125E+07 4.59472
1.43750E+07 4.58609
1.44375E+07 4.57753
1.45000E+07 4.56905
1.45625E+07 4.56052
1.46250E+07 4.55206
1.46875E+07 4.54366
1.47500E+07 4.53532
1.48125E+07 4.52704
1.48750E+07 4.51882
1.49375E+07 4.51066
1.50000E+07 4.50256
1.50457E+07 4.49481
1.50915E+07 4.48711
1.51372E+07 4.47945
1.51829E+07 4.47184
1.52286E+07 4.46427
1.52744E+07 4.45675
1.53201E+07 4.44927
1.53658E+07 4.44184
1.54115E+07 4.43444
1.54573E+07 4.42710
1.55030E+07 4.41979
1.55487E+07 4.41253
1.55944E+07 4.40531
1.56402E+07 4.39814
1.56859E+07 4.39101
1.57316E+07 4.38392
1.57317E+07 4.38391
1.57987E+07 4.37344
1.58658E+07 4.36306
1.59329E+07 4.35275
1.60000E+07 4.34254
1.62130E+07 4.30297
1.64260E+07 4.26461
1.66390E+07 4.22746
1.68520E+07 4.19152
1.70000E+07 4.16659
1.72523E+07 4.12492
1.76262E+07 4.06447
1.80000E+07 4.00724
1.85000E+07 3.92069
1.90000E+07 3.84080
1.95000E+07 3.76201
2.00000E+07 3.68929