Sn-117(n,g) ENDF/B-VII.1
Energy(eV) XS(b)
1.00000E-05 53.8172
1.25000E-05 48.1356
1.50000E-05 43.9416
2.00000E-05 38.0545
2.75000E-05 32.4530
3.50000E-05 28.7665
4.25000E-05 26.1052
5.00000E-05 24.0678
6.25000E-05 21.5269
7.50000E-05 19.6513
0.000100000 17.0185
0.000125000 15.2218
0.000150000 13.8956
0.000200000 12.0339
0.000275000 10.2626
0.000350000 9.09683
0.000425000 8.25525
0.000500000 7.61097
0.000625000 6.80748
0.000750000 6.21436
0.00100000 5.38182
0.00125000 4.81367
0.00150000 4.39428
0.00200000 3.80559
0.00275000 3.24546
0.00350000 2.87684
0.00425000 2.61072
0.00500000 2.40700
0.00625000 2.15294
0.00750000 1.96540
0.0100000 1.70217
0.0125000 1.52254
0.0150000 1.38995
0.0200000 1.20385
0.0253000 1.07047
0.0314750 0.959858
0.0376500 0.877738
0.0500000 0.761873
0.0625000 0.681642
0.0750000 0.622446
0.100000 0.539422
0.125000 0.482841
0.150000 0.441145
0.200000 0.382801
0.275000 0.327715
0.350000 0.292009
0.500000 0.248440
0.750000 0.217573
0.875000 0.219692
1.00000 0.247100
1.06325 0.284777
1.12650 0.364045
1.18975 0.551019
1.22138 0.739932
1.25300 1.05439
1.29000 1.61601
1.32700 2.00708
1.36400 1.65336
1.40100 1.09796
1.43844 0.732818
1.47588 0.526859
1.51331 0.407034
1.55075 0.332884
1.62563 0.250461
1.70050 0.207852
1.85025 0.165900
2.00000 0.145260
2.37500 0.120266
2.75000 0.107218
3.50000 0.0916704
5.00000 0.0746570
7.50000 0.0601437
10.0000 0.0523713
12.6585 0.0477879
13.9878 0.0466382
14.6524 0.0468822
14.9847 0.0489532
15.1509 0.0546411
15.2339 0.0651416
15.2755 0.0778863
15.3170 0.103690
15.3850 0.162031
15.4530 0.103896
15.4885 0.0807393
15.5241 0.0680859
15.5951 0.0566013
15.7372 0.0496740
16.0214 0.0467175
16.5898 0.0457048
17.7265 0.0456264
20.0000 0.0475858
20.6638 0.0495489
20.9956 0.0535535
21.1616 0.0630226
21.2445 0.0807314
21.2860 0.103144
21.3275 0.151083
21.3900 0.253397
21.4525 0.151618
21.4892 0.107613
21.5259 0.0853045
21.5993 0.0664995
21.7461 0.0561642
22.0398 0.0525658
22.6270 0.0526973
23.8015 0.0563772
24.9760 0.0641462
25.5633 0.0783028
25.7101 0.0893544
25.8569 0.115001
25.9303 0.143558
26.0037 0.202909
26.0404 0.259549
26.0771 0.356005
26.1138 0.533433
26.1505 0.875901
26.1828 1.36273
26.2150 1.68801
26.2473 1.36474
26.2795 0.878715
26.3096 0.582904
26.3396 0.410740
26.3697 0.308413
26.3998 0.244543
26.4599 0.173860
26.5200 0.138400
26.6403 0.106193
26.7605 0.0928969
27.2416 0.0806087
28.2036 0.0852462
30.1278 0.113952
31.0898 0.139050
32.0519 0.179020
32.5329 0.210786
33.0139 0.263962
33.2545 0.313261
33.4950 0.415265
33.6152 0.526561
33.7355 0.770731
33.7956 1.02664
33.8558 1.52112
33.8858 1.95781
33.9159 2.64316
33.9459 3.76856
33.9760 5.64660
34.0100 8.86051
34.0440 11.0079
34.0780 8.87722
34.1120 5.67362
34.1482 3.52631
34.1843 2.36821
34.2204 1.72065
34.2566 1.33461
34.3289 0.927773
34.4012 0.735543
34.5457 0.576762
34.6903 0.526121
34.9795 0.524790
35.2686 0.576371
35.8469 0.779711
36.4252 1.17362
36.7144 1.50694
37.0035 2.01419
37.2927 2.83970
37.5818 4.31704
37.7264 5.53819
37.8710 7.36787
38.0155 10.2895
38.1601 15.3792
38.3047 25.4525
38.3770 34.6605
38.4493 49.8929
38.5215 77.7150
38.5577 101.070
38.5938 136.385
38.6300 193.014
38.6481 234.734
38.6661 290.496
38.6842 366.600
38.7023 472.504
38.7203 621.772
38.7384 830.832
38.7538 1063.41
38.7692 1329.22
38.8000 1661.18
38.8154 1563.04
38.8308 1328.11
38.8616 829.469
38.8834 585.681
38.9051 423.770
38.9269 316.118
38.9486 242.860
38.9921 154.321
39.0356 105.844
39.0792 76.7931
39.1227 58.1284
39.2097 36.5091
39.2967 24.9905
39.3837 18.1544
39.4707 13.7743
39.5578 10.8032
39.7318 7.14918
39.9058 5.07508
40.0799 3.78673
40.2539 2.93254
40.6020 1.90647
40.9501 1.33764
41.2981 0.990050
41.6462 0.762390
42.3424 0.492378
43.0385 0.344621
43.7347 0.255171
44.4308 0.196990
45.8231 0.128490
47.2154 0.0912805
48.6077 0.0688633
50.0000 0.0543280
53.0453 0.0361495
56.0905 0.0267398
62.1810 0.0178623
68.2715 0.0146922
69.7941 0.0148906
71.3168 0.0166757
72.0781 0.0196118
72.4587 0.0226284
72.8394 0.0281524
73.2200 0.0397860
73.4104 0.0510822
73.6007 0.0710000
73.7910 0.111076
73.8862 0.148323
73.9814 0.211026
74.0765 0.328568
74.1241 0.429892
74.1717 0.587366
74.2193 0.849585
74.2668 1.32700
74.2906 1.72087
74.3144 2.29762
74.3382 3.16218
74.3620 4.45764
74.3960 7.12600
74.4300 8.90592
74.4640 7.12923
74.4980 4.46167
74.5229 3.11683
74.5478 2.23677
74.5727 1.65931
74.5976 1.27042
74.6474 0.805537
74.6972 0.553683
74.7471 0.403782
74.7969 0.307919
74.8965 0.197358
74.9961 0.138657
75.0957 0.103887
75.2949 0.0665360
75.4942 0.0479673
75.6934 0.0374115
76.0919 0.0264653
76.4904 0.0211817
76.8888 0.0182217
77.6858 0.0151723
79.2796 0.0128578
80.8735 0.0119910
87.2490 0.0114799
93.6245 0.0128799
100.000 0.0168961
105.121 0.0248103
107.681 0.0327270
110.242 0.0470181
111.522 0.0589217
112.802 0.0769168
114.082 0.106078
115.362 0.158265
116.002 0.201606
116.643 0.267107
117.283 0.373367
117.923 0.563960
118.243 0.722587
118.563 0.962492
118.883 1.35179
119.203 2.04796
119.363 2.62476
119.523 3.49108
119.683 4.88093
119.843 7.32147
119.923 9.30171
120.003 12.2162
120.083 16.7573
120.163 24.3951
120.243 38.6987
120.283 51.0227
120.323 70.1679
120.343 83.9352
120.363 102.030
120.383 126.374
120.403 159.992
120.423 207.764
120.443 277.637
120.463 382.180
120.483 538.335
120.512 856.670
120.540 1066.96
120.555 1003.11
120.569 850.511
120.598 528.794
120.623 343.732
120.649 233.279
120.674 165.935
120.699 123.031
120.750 74.5491
120.801 49.6581
120.851 35.3489
120.902 26.4158
121.003 16.3497
121.104 11.1232
121.205 8.08124
121.307 6.16020
121.408 4.87428
121.610 3.32544
121.813 2.48406
122.015 2.00261
122.218 1.73610
122.622 1.65514
122.825 1.86439
123.027 2.37162
123.230 3.53058
123.331 4.65943
123.432 6.60769
123.533 10.3520
123.584 13.6500
123.635 18.8816
123.685 27.8442
123.736 44.8742
123.761 59.5500
123.786 81.9696
123.812 117.432
123.837 173.969
123.869 278.379
123.900 348.060
123.932 278.288
123.963 173.851
123.997 103.943
124.030 66.2208
124.064 45.0859
124.097 32.4245
124.131 24.3518
124.164 18.9287
124.231 12.3628
124.298 8.71025
124.365 6.47824
124.499 4.00898
124.633 2.74554
124.767 2.01243
125.035 1.23549
125.303 0.850245
125.571 0.629425
126.107 0.395125
126.643 0.277222
127.179 0.208217
128.250 0.132968
129.322 0.0939611
130.394 0.0707384
132.538 0.0452278
134.682 0.0320984
136.825 0.0244238
141.113 0.0162977
145.400 0.0124197
149.687 0.0104561
153.975 0.00963405
158.262 0.0101304
158.330 0.0103047
158.398 0.0101722
158.644 0.0101151
158.889 0.0101994
159.380 0.0104207
160.362 0.0110705
162.325 0.0141526
163.307 0.0183451
163.798 0.0224625
164.289 0.0298706
164.779 0.0453729
165.025 0.0604644
165.270 0.0872518
165.516 0.141937
165.639 0.193598
165.761 0.282247
165.884 0.453473
165.945 0.606053
166.007 0.850942
166.068 1.27998
166.129 2.12142
166.160 2.87384
166.191 4.06576
166.221 6.04345
166.252 9.36753
166.286 14.9757
166.320 18.7123
166.354 14.9787
166.388 9.37137
166.417 6.17308
166.446 4.22533
166.475 3.02441
166.504 2.25535
166.562 1.37726
166.621 0.922972
166.679 0.660534
166.737 0.496133
166.853 0.310224
166.969 0.213311
167.085 0.156676
167.318 0.0965491
167.550 0.0670103
167.783 0.0503874
168.248 0.0333701
168.712 0.0253317
169.177 0.0209602
170.107 0.0167386
171.967 0.0143014
173.826 0.0143065
177.545 0.0171536
181.264 0.0238530
183.124 0.0297613
184.983 0.0389257
186.843 0.0541200
188.702 0.0819424
189.632 0.105451
190.562 0.141441
191.491 0.200653
192.421 0.308460
192.886 0.399207
193.351 0.537696
193.816 0.764509
194.281 1.17461
194.513 1.51747
194.745 2.03665
194.978 2.87802
195.210 4.37589
195.327 5.60879
195.443 7.44536
195.559 10.3566
195.675 15.3743
195.791 25.1339
195.849 33.8878
195.908 48.0756
195.937 58.7229
195.966 73.1914
195.995 93.6450
196.024 123.499
196.053 169.465
196.082 243.604
196.111 370.749
196.125 466.581
196.140 592.635
196.170 948.447
196.200 1184.40
196.230 947.010
196.260 592.430
196.289 368.858
196.319 242.146
196.348 168.157
196.377 122.514
196.406 92.7129
196.436 72.4649
196.494 47.5679
196.552 33.4951
196.611 24.8346
196.728 15.1834
196.845 10.2210
196.961 7.34466
197.078 5.53173
197.195 4.31757
197.429 2.84187
197.663 2.01578
197.896 1.50822
198.130 1.17592
198.598 0.787511
199.065 0.593056
199.533 0.522320
199.766 0.544197
200.000 0.646710
200.178 0.856042
200.267 1.06155
200.356 1.41386
200.445 2.07787
200.490 2.64843
200.534 3.52885
200.579 4.97682
200.623 7.55990
200.668 12.6390
200.690 17.0244
200.712 23.3786
200.746 37.1771
200.780 46.3353
200.814 37.1772
200.848 23.3743
200.888 13.4515
200.927 8.36996
200.967 5.63319
201.006 4.04064
201.046 3.04100
201.085 2.37969
201.165 1.58713
201.244 1.14986
201.323 0.883900
201.481 0.588800
201.639 0.435657
201.798 0.344836
202.114 0.244252
202.430 0.190370
202.747 0.156675
203.380 0.116172
204.646 0.0758852
205.912 0.0551917
208.443 0.0341631
210.975 0.0240168
213.507 0.0186745
216.039 0.0167602
217.304 0.0179536
217.937 0.0199175
218.570 0.0240293
219.203 0.0333867
219.520 0.0428376
219.836 0.0599630
220.153 0.0956431
220.311 0.129936
220.469 0.189790
220.627 0.308465
220.706 0.416921
220.786 0.596310
220.865 0.923635
220.904 1.19845
220.944 1.61250
220.983 2.27665
221.023 3.41389
221.062 5.53323
221.102 9.66828
221.136 15.4759
221.170 19.3342
221.204 15.4600
221.238 9.67116
221.265 6.61419
221.291 4.66935
221.317 3.41980
221.343 2.59147
221.396 1.61647
221.449 1.09798
221.501 0.792114
221.554 0.598360
221.659 0.376246
221.765 0.259147
221.870 0.190093
222.080 0.116234
222.291 0.0796231
222.502 0.0588581
222.923 0.0373366
223.344 0.0269343
223.765 0.0210862
224.607 0.0150005
226.292 0.0102011
227.976 0.00819373
231.345 0.00630304
234.714 0.00532176
241.452 0.00425337
248.190 0.00370177
261.666 0.00343146
265.035 0.00362887
268.404 0.00428512
270.089 0.00521144
271.773 0.00780964
272.615 0.0113645
273.458 0.0211920
273.879 0.0343995
274.089 0.0472121
274.300 0.0698365
274.510 0.115614
274.616 0.158446
274.721 0.231039
274.826 0.368908
274.879 0.489500
274.931 0.679195
274.984 1.00214
275.037 1.60726
275.063 2.12216
275.089 2.89899
275.116 4.10812
275.142 5.99949
275.176 9.60245
275.210 11.9951
275.244 9.59236
275.278 6.00097
275.300 4.39579
275.321 3.27981
275.364 1.96365
275.407 1.28297
275.450 0.896782
275.493 0.659727
275.536 0.504806
275.622 0.322339
275.708 0.223542
275.794 0.164275
275.966 0.0998959
276.138 0.0675876
276.310 0.0491298
276.654 0.0299484
276.998 0.0207036
277.342 0.0155588
278.030 0.0103434
279.406 0.00657146
280.782 0.00528883
283.533 0.00455423
286.285 0.00465071
289.037 0.00538874
291.788 0.00771281
293.164 0.0109359
293.852 0.0141319
294.540 0.0199301
295.228 0.0321903
295.572 0.0442433
295.916 0.0658675
296.088 0.0837974
296.260 0.110738
296.432 0.153907
296.604 0.229419
296.776 0.379974
296.862 0.518591
296.948 0.749688
297.034 1.17654
297.077 1.53897
297.120 2.09355
297.163 2.99702
297.206 4.58935
297.249 7.66764
297.270 10.2770
297.292 14.0085
297.326 22.4184
297.360 28.0285
297.394 22.4209
297.428 14.0117
297.450 10.2511
297.471 7.64051
297.515 4.57187
297.558 2.98280
297.601 2.08403
297.644 1.53127
297.687 1.17099
297.773 0.746552
297.860 0.516474
297.946 0.378623
298.118 0.228777
298.291 0.153547
298.463 0.110599
298.636 0.0837927
298.808 0.0659528
299.154 0.0444329
299.499 0.0324561
300.189 0.0202998
300.879 0.0145827
301.569 0.0114627
302.949 0.00838835
305.709 0.00635980
308.469 0.00589753
313.990 0.00633288
319.510 0.00788232
325.031 0.0112423
327.791 0.0144427
330.551 0.0200489
333.312 0.0315514
334.692 0.0427259
336.072 0.0628230
336.762 0.0796483
337.452 0.105294
338.142 0.147363
338.832 0.223869
339.177 0.288306
339.522 0.386716
339.867 0.548163
340.212 0.840951
340.385 1.08648
340.557 1.45929
340.730 2.06577
340.902 3.15139
340.989 4.04956
341.075 5.39395
341.161 7.54289
341.247 11.2808
341.291 14.2939
341.334 18.6790
341.377 25.4243
341.398 30.2569
341.420 36.5604
341.442 45.0759
341.463 56.8930
341.485 73.9188
341.506 99.4587
341.528 140.391
341.549 210.029
341.560 264.247
341.571 339.270
341.582 444.294
341.592 588.705
341.611 941.892
341.630 1177.31
341.649 941.816
341.668 588.622
341.683 393.144
341.699 271.959
341.714 196.111
341.730 146.844
341.761 90.1098
341.792 60.4610
341.823 43.2233
341.854 32.3779
341.916 20.0631
341.978 13.6229
342.040 9.84583
342.102 7.44529
342.164 5.82848
342.288 3.84815
342.411 2.73102
342.535 2.03890
342.659 1.58144
342.907 1.03285
343.155 0.729292
343.403 0.544048
343.651 0.422861
344.147 0.279460
344.643 0.201425
345.138 0.154672
345.634 0.124804
346.626 0.0913193
347.617 0.0757358
349.601 0.0703657
350.592 0.0773680
351.584 0.0925187
352.576 0.120975
353.567 0.175888
354.063 0.223080
354.559 0.295711
355.055 0.415305
355.550 0.632290
355.798 0.813839
356.046 1.08895
356.294 1.53478
356.542 2.32800
356.666 2.97998
356.790 3.95009
356.914 5.48684
357.038 8.12741
357.162 13.2492
357.224 17.8265
357.286 25.2001
357.348 38.1899
357.379 48.6812
357.410 63.9539
357.441 87.1944
357.472 124.391
357.487 151.483
357.503 186.978
357.518 233.659
357.534 294.026
357.567 470.695
357.600 587.980
357.617 553.083
357.633 470.077
357.667 293.964
357.687 216.191
357.708 161.839
357.749 97.4354
357.791 63.8589
357.832 44.7073
357.873 32.9083
357.914 25.1773
357.997 16.0484
358.080 11.0891
358.162 8.11382
358.328 4.87711
358.493 3.24985
358.658 2.32008
358.823 1.73912
358.989 1.35256
359.319 0.885923
359.650 0.625864
359.980 0.466277
360.310 0.361385
360.971 0.236353
361.632 0.167531
362.293 0.125634
362.954 0.0982517
364.276 0.0658150
365.598 0.0480822
366.920 0.0373701
368.242 0.0304415
370.886 0.0224428
373.530 0.0183766
378.817 0.0154005
384.105 0.0161802
389.392 0.0211754
392.036 0.0274745
393.358 0.0331991
394.680 0.0429643
396.002 0.0625878
396.663 0.0814338
397.324 0.115037
397.654 0.142960
397.985 0.185211
398.315 0.253805
398.646 0.376576
398.811 0.478331
398.976 0.631142
399.142 0.876322
399.307 1.30596
399.472 2.16553
399.555 2.95951
399.637 4.28874
399.720 6.75997
399.761 8.87277
399.802 12.1289
399.844 17.4870
399.885 27.0726
399.926 46.0352
399.947 62.5233
399.968 86.5583
399.999 138.471
400.030 173.074
400.061 138.458
400.092 86.5435
400.113 62.9929
400.133 46.7468
400.173 27.8006
400.213 18.0839
400.253 12.6009
400.293 9.24110
400.333 7.05765
400.413 4.49227
400.494 3.10527
400.574 2.27587
400.734 1.37594
400.895 0.925252
401.055 0.668230
401.216 0.508105
401.376 0.401754
401.697 0.273943
402.018 0.203261
402.660 0.132605
403.302 0.100649
403.944 0.0844554
405.228 0.0719272
407.796 0.0773956
410.364 0.107693
411.648 0.136078
412.932 0.180605
414.216 0.254676
415.500 0.390150
416.142 0.504272
416.784 0.678344
417.426 0.963038
418.068 1.47658
418.389 1.90468
418.710 2.55156
419.031 3.59643
419.352 5.44785
419.512 6.96314
419.673 9.21179
419.833 12.7546
419.914 15.3463
419.994 18.8080
420.074 23.5878
420.154 30.4240
420.235 40.7020
420.315 57.0860
420.395 85.4791
420.435 108.007
420.475 140.275
420.516 188.336
420.556 263.075
420.596 384.083
420.636 582.403
420.683 931.953
420.730 1164.98
420.777 931.778
420.824 582.222
420.862 394.064
420.899 275.486
420.937 200.227
420.974 150.922
421.049 93.4055
421.124 63.0202
421.199 45.2321
421.274 33.9885
421.424 21.1698
421.573 14.4438
421.723 10.5035
421.873 8.00990
422.023 6.34648
422.323 4.40493
422.622 3.60621
422.772 3.67660
422.922 4.49397
422.997 5.63838
423.072 8.17009
423.109 10.6283
423.147 14.7968
423.184 22.3917
423.221 36.6872
423.256 57.6526
423.290 71.6148
423.324 57.5728
423.359 36.5242
423.393 22.8700
423.428 15.2862
423.463 10.9126
423.498 8.24590
423.567 5.32901
423.637 3.86326
423.706 3.01953
423.776 2.48383
423.915 1.85334
424.193 1.26376
424.470 0.974128
425.026 0.669244
425.582 0.502225
426.694 0.320093
427.806 0.224035
428.917 0.166282
430.029 0.128684
432.253 0.0842212
434.476 0.0599700
436.699 0.0454230
441.146 0.0301815
445.593 0.0244659
447.817 0.0244561
450.040 0.0273349
452.264 0.0364215
453.375 0.0464841
454.487 0.0655528
455.043 0.0819087
455.599 0.107119
456.155 0.148755
456.711 0.224631
456.989 0.288432
457.267 0.385510
457.544 0.543767
457.822 0.827768
457.961 1.06321
458.100 1.41686
458.239 1.98322
458.378 2.97295
458.517 4.94392
458.587 6.75613
458.656 9.76724
458.726 15.3217
458.760 20.0344
458.795 27.2070
458.830 38.8858
458.865 59.3042
458.882 75.5740
458.899 98.4334
458.917 131.440
458.934 178.311
458.962 285.283
458.990 356.583
459.018 285.253
459.046 178.280
459.075 108.454
459.103 69.9059
459.132 47.9334
459.161 34.6481
459.189 26.0698
459.218 20.2896
459.275 13.2320
459.333 9.27809
459.390 6.85937
459.505 4.17873
459.619 2.80734
459.734 2.01542
459.849 1.51709
459.963 1.18343
460.192 0.778355
460.422 0.551369
460.651 0.411557
460.880 0.319420
461.339 0.209270
461.797 0.148466
462.256 0.111368
462.714 0.0870653
463.631 0.0581708
464.548 0.0422621
465.466 0.0325422
466.383 0.0261480
468.217 0.0184669
470.051 0.0141508
473.719 0.00961905
477.387 0.00734020
481.056 0.00603369
484.724 0.00548390
486.558 0.00649764
487.475 0.0113212
487.934 0.0279891
488.163 0.0758038
488.277 0.179188
488.335 0.330904
488.363 0.479882
488.392 0.721859
488.426 1.15214
488.460 1.43892
488.494 1.15221
488.528 0.721939
488.573 0.386474
488.618 0.229429
488.707 0.105267
488.887 0.0399136
489.245 0.0149628
489.962 0.00711050
491.396 0.00477303
494.264 0.00392205
500.000 0.00342222
506.568 0.00332251
513.136 0.00388797
516.420 0.00485120
519.704 0.00746954
521.346 0.0108436
522.988 0.0197000
523.809 0.0313107
524.219 0.0425448
524.630 0.0625499
525.040 0.103918
525.245 0.143799
525.451 0.213933
525.553 0.271042
525.656 0.355247
525.758 0.486943
525.861 0.709664
525.964 1.13037
526.015 1.49619
526.066 2.06995
526.118 3.03807
526.169 4.83669
526.195 6.35508
526.220 8.61424
526.246 12.1000
526.271 17.4514
526.306 27.9084
526.340 34.8767
526.374 27.9103
526.409 17.4539
526.433 12.3746
526.457 8.98365
526.481 6.72100
526.505 5.17554
526.553 3.30191
526.601 2.27259
526.649 1.65433
526.697 1.25648
526.793 0.794932
526.889 0.548702
526.985 0.402493
527.177 0.245406
527.369 0.167548
527.560 0.123718
527.944 0.0794740
528.328 0.0598439
528.712 0.0508908
529.480 0.0492686
530.248 0.0665174
530.632 0.0875115
531.016 0.127204
531.208 0.160792
531.400 0.211720
531.592 0.294010
531.784 0.439083
531.880 0.557116
531.976 0.731052
532.072 1.00234
532.167 1.45837
532.263 2.31350
532.311 3.05050
532.359 4.19564
532.407 6.10194
532.455 9.57125
532.479 12.4323
532.503 16.6201
532.527 22.8939
532.551 32.2396
532.586 51.6036
532.620 64.4609
532.654 51.5466
532.689 32.2435
532.710 23.7118
532.731 17.7732
532.774 10.7099
532.817 7.02420
532.859 4.92068
532.902 3.62419
532.944 2.77441
533.030 1.77064
533.115 1.22561
533.200 0.898035
533.370 0.541542
533.541 0.362287
533.711 0.259715
533.882 0.195605
534.052 0.152876
534.393 0.101218
534.734 0.0723598
535.415 0.0428767
536.097 0.0288384
536.779 0.0210527
538.142 0.0131399
540.869 0.00737733
543.595 0.00553032
546.322 0.00523457
549.048 0.00681697
550.412 0.00962354
551.775 0.0178881
552.457 0.0293209
552.797 0.0405963
553.138 0.0608546
553.479 0.102908
553.650 0.143343
553.820 0.214081
553.990 0.354896
554.076 0.484380
554.161 0.699943
554.246 1.09724
554.289 1.43382
554.331 1.94769
554.374 2.78216
554.416 4.24610
554.459 7.05665
554.480 9.42345
554.502 12.8090
554.536 20.5072
554.570 25.6204
554.604 20.4844
554.639 12.8106
554.675 7.68053
554.711 4.89937
554.747 3.33598
554.783 2.39734
554.820 1.79801
554.856 1.39500
554.928 0.906718
555.001 0.635025
555.073 0.469076
555.218 0.285797
555.363 0.192393
555.507 0.138505
555.797 0.0819924
556.087 0.0545297
556.376 0.0391517
556.955 0.0234479
558.114 0.0118975
559.272 0.00778754
561.588 0.00495204
563.905 0.00430285
566.222 0.00481295
568.538 0.00752945
569.697 0.0116185
570.855 0.0232748
571.434 0.0392162
571.724 0.0548548
572.013 0.0827987
572.303 0.140361
572.448 0.195275
572.592 0.290487
572.737 0.477368
572.810 0.646616
572.882 0.923761
572.954 1.42194
572.991 1.83319
573.027 2.44486
573.063 3.40297
573.099 4.99901
573.135 7.83849
573.172 13.0559
573.206 20.8979
573.240 26.1047
573.274 20.8747
573.309 13.0574
573.338 8.59637
573.367 5.88007
573.396 4.20540
573.426 3.13296
573.484 1.90706
573.543 1.27422
573.601 0.908103
573.660 0.679196
573.777 0.420274
573.894 0.285259
574.011 0.206331
574.245 0.122465
574.479 0.0812376
574.713 0.0579837
575.181 0.0340764
576.118 0.0163358
577.054 0.00992456
578.927 0.00522450
579.864 0.00420254
580.332 0.00383889
580.566 0.00370285
580.683 0.00372209
580.741 0.00405958
580.771 0.00553616
580.785 0.0114501
580.793 0.0347610
580.796 0.128400
580.798 0.476372
580.799 1.70164
580.800 6.65289
580.800 17.5955
580.800 38.7974
580.800 65.1138
580.800 118.369
580.800 236.735
580.800 188.496
580.800 118.369
580.800 61.8081
580.800 36.2212
580.800 10.2315
580.801 2.64616
580.802 0.761261
580.803 0.193414
580.806 0.0526472
580.812 0.0160132
580.823 0.00663608
580.847 0.00428314
580.893 0.00366850
580.987 0.00346882
581.173 0.00333251
581.546 0.00314348
582.291 0.00284367
583.783 0.00241972
586.765 0.00193846
592.731 0.00152952
604.661 0.00131632
616.592 0.00146794
622.557 0.00201975
625.539 0.00375512
627.031 0.00995585
627.404 0.0159879
627.776 0.0320039
627.963 0.0524535
628.149 0.103221
628.242 0.162650
628.336 0.292784
628.382 0.423831
628.429 0.660741
628.475 1.13713
628.499 1.55685
628.522 2.18003
628.556 3.48931
628.590 4.35892
628.624 3.48541
628.658 2.18027
628.693 1.32348
628.728 0.852049
628.763 0.584022
628.798 0.422174
628.869 0.247474
628.939 0.161905
629.079 0.0847354
629.219 0.0522997
629.500 0.0261528
629.780 0.0161130
630.902 0.00578248
633.147 0.00329104
637.635 0.00392098
639.879 0.00558219
642.123 0.0102226
643.245 0.0164882
644.367 0.0337381
644.929 0.0570184
645.209 0.0797470
645.490 0.120262
645.770 0.203459
645.910 0.282676
646.051 0.419614
646.191 0.687712
646.261 0.929524
646.331 1.32399
646.401 2.03044
646.436 2.61075
646.471 3.46668
646.506 4.80134
646.541 6.99532
646.577 10.8535
646.612 17.8165
646.646 28.5272
646.680 35.6427
646.714 28.4953
646.749 17.8184
646.771 12.8173
646.794 9.42969
646.840 5.53325
646.886 3.56580
646.931 2.47092
646.977 1.80505
647.022 1.37441
647.114 0.870962
647.205 0.600091
647.296 0.438444
647.479 0.263772
647.661 0.176469
647.844 0.126789
648.209 0.0753423
648.574 0.0507148
648.939 0.0371317
649.669 0.0236646
651.130 0.0150833
652.590 0.0145039
654.050 0.0193776
654.780 0.0253956
655.511 0.0368969
656.241 0.0618117
656.606 0.0865241
656.971 0.131044
657.153 0.168062
657.336 0.223751
657.519 0.313215
657.701 0.470151
657.884 0.784340
657.975 1.07489
658.066 1.56090
658.157 2.46575
658.203 3.23874
658.249 4.42997
658.294 6.39564
658.340 9.90666
658.386 16.8533
658.408 22.8768
658.431 31.7021
658.466 50.7626
658.500 63.4256
658.535 50.7061
658.569 31.7053
658.595 21.7361
658.622 15.3523
658.648 11.2448
658.675 8.52744
658.728 5.31586
658.781 3.60501
658.834 2.59466
658.887 1.95417
658.992 1.21998
659.098 0.832272
659.204 0.603644
659.310 0.457780
659.416 0.359202
659.628 0.238186
659.839 0.169684
660.263 0.0989874
660.686 0.0651323
661.110 0.0463412
661.957 0.0272892
662.804 0.0183041
663.651 0.0133666
665.345 0.00841795
668.732 0.00495033
672.120 0.00399506
675.508 0.00411683
678.896 0.00574040
680.590 0.00822569
682.284 0.0152492
683.131 0.0248429
683.978 0.0513054
684.401 0.0868256
684.613 0.121266
684.825 0.182065
685.036 0.305058
685.142 0.420128
685.248 0.615154
685.354 0.985561
685.407 1.30882
685.460 1.81810
685.513 2.68508
685.566 4.30969
685.592 5.69532
685.619 7.77810
685.645 11.0331
685.672 16.1066
685.706 25.7937
685.740 32.2310
685.774 25.7648
685.809 16.1082
685.842 10.0127
685.875 6.56508
685.909 4.55583
685.942 3.31799
685.976 2.51281
686.009 1.96390
686.076 1.28952
686.143 0.908694
686.210 0.674392
686.343 0.413409
686.477 0.279284
686.610 0.201599
686.878 0.119777
687.145 0.0799083
687.412 0.0575756
687.947 0.0348383
689.016 0.0184838
690.085 0.0133126
691.154 0.0120763
692.224 0.0142032
692.758 0.0180673
693.293 0.0286670
693.560 0.0423805
693.827 0.0774537
693.961 0.120470
694.095 0.221500
694.162 0.332315
694.228 0.555078
694.262 0.759047
694.295 1.09074
694.329 1.66136
694.362 2.66940
694.396 4.26761
694.430 5.32942
694.464 4.26303
694.498 2.67009
694.527 1.75751
694.557 1.20516
694.586 0.864117
694.615 0.646225
694.674 0.398072
694.732 0.270070
694.849 0.150288
694.966 0.0985640
695.200 0.0567238
695.434 0.0414862
695.902 0.0334161
696.369 0.0374431
696.837 0.0535132
697.305 0.101378
697.539 0.164560
697.656 0.224186
697.773 0.325993
697.890 0.521385
697.948 0.693982
698.007 0.968556
698.065 1.44349
698.124 2.35839
698.153 3.16012
698.182 4.39873
698.211 6.39398
698.241 9.64377
698.275 15.4198
698.310 19.2687
698.345 15.4205
698.379 9.64475
698.408 6.44717
698.437 4.46394
698.465 3.22225
698.494 2.41782
698.551 1.48863
698.608 1.00261
698.665 0.719494
698.722 0.541689
698.836 0.339743
698.951 0.234083
699.065 0.172237
699.293 0.106580
699.750 0.0566937
700.207 0.0391807
701.121 0.0295252
702.035 0.0327487
702.949 0.0482669
703.406 0.0653146
703.863 0.0969249
704.320 0.163970
704.549 0.229431
704.777 0.345585
704.891 0.440723
705.006 0.581736
705.120 0.803921
705.234 1.18262
705.348 1.90794
705.406 2.54664
705.463 3.56226
705.520 5.31031
705.577 8.65871
705.605 11.5758
705.634 16.0555
705.663 23.2482
705.691 34.8266
705.726 55.7036
705.760 69.6151
705.795 55.7061
705.829 34.8297
705.870 19.7277
705.911 12.0929
705.951 8.01843
705.992 5.65804
706.033 4.18825
706.074 3.21780
706.155 2.06423
706.237 1.43257
706.318 1.05163
706.482 0.635018
706.645 0.424658
706.808 0.304121
706.971 0.228681
707.134 0.178364
707.460 0.117505
707.787 0.0835152
708.439 0.0488349
709.091 0.0323685
709.744 0.0232642
711.049 0.0140377
713.659 0.00725728
716.268 0.00480838
721.488 0.00302667
726.708 0.00243203
737.147 0.00218662
747.587 0.00246779
758.026 0.00327676
763.246 0.00404898
768.465 0.00535065
773.685 0.00786482
776.295 0.0101865
778.905 0.0142051
781.515 0.0223928
782.820 0.0303247
784.125 0.0445668
784.777 0.0564717
785.430 0.0745852
786.082 0.104214
786.734 0.157841
787.061 0.202775
787.387 0.271028
787.713 0.382145
788.039 0.581362
788.203 0.746483
788.366 0.994284
788.529 1.39098
788.692 2.08460
788.855 3.46458
788.937 4.73388
789.018 6.84344
789.100 10.7341
789.140 14.0294
789.181 19.0436
789.222 27.1974
789.242 33.2772
789.263 41.4893
789.283 52.8418
789.304 68.8881
789.324 91.9249
789.344 124.638
789.361 159.627
789.377 199.351
789.410 249.131
789.427 234.404
789.443 199.342
789.476 124.627
789.499 88.4908
789.522 64.4009
789.544 48.2687
789.567 37.2172
789.613 23.7550
789.658 16.3560
789.704 11.8935
789.750 9.02440
789.841 5.68944
789.932 3.90485
790.023 2.84453
790.115 2.16321
790.206 1.70089
790.389 1.13089
790.571 0.806995
790.754 0.605510
790.936 0.471763
791.301 0.310894
791.666 0.221662
792.031 0.167147
792.396 0.131491
793.126 0.0894117
793.856 0.0667218
795.316 0.0450866
796.777 0.0366017
798.237 0.0339157
801.157 0.0386628
802.617 0.0461400
804.077 0.0589393
805.537 0.0811042
806.997 0.122506
807.727 0.157729
808.457 0.211763
809.188 0.300672
809.918 0.462147
810.283 0.597577
810.648 0.803258
811.013 1.13775
811.378 1.73607
811.560 2.23062
811.743 2.97075
811.925 4.15090
812.017 5.02399
812.108 6.20225
812.199 7.84972
812.290 10.2453
812.382 13.9259
812.473 19.9760
812.518 24.5858
812.564 30.9458
812.610 40.0624
812.655 53.7249
812.701 75.4086
812.747 112.009
812.792 178.538
812.815 231.744
812.838 304.804
812.879 487.788
812.920 609.311
812.961 487.269
813.002 304.757
813.041 193.031
813.080 128.184
813.118 89.7371
813.157 65.7564
813.234 39.2151
813.311 25.8662
813.388 18.2742
813.465 13.5742
813.620 8.32052
813.774 5.60972
813.928 4.03521
814.083 3.04063
814.237 2.37287
814.546 1.55997
814.854 1.10318
815.163 0.821312
815.472 0.635311
816.089 0.412740
816.706 0.289794
817.324 0.214795
817.941 0.165702
819.176 0.107465
820.410 0.0755583
821.645 0.0562057
822.880 0.0435960
825.349 0.0287220
827.818 0.0206497
830.288 0.0158281
832.757 0.0127734
837.696 0.00951055
842.634 0.00858653
847.573 0.0111876
848.808 0.0140417
850.042 0.0216142
850.660 0.0315855
851.277 0.0583744
851.586 0.0935725
851.894 0.185483
852.049 0.300604
852.126 0.405488
852.203 0.578108
852.280 0.891892
852.319 1.15369
852.357 1.54597
852.396 2.17068
852.434 3.23284
852.473 5.17917
852.512 8.89948
852.546 14.2383
852.580 17.7826
852.614 14.2224
852.649 8.90031
852.672 6.38810
852.695 4.69173
852.718 3.53857
852.741 2.74529
852.787 1.76925
852.833 1.22650
852.879 0.897855
852.925 0.685151
853.017 0.437204
853.109 0.304020
853.202 0.224715
853.386 0.139070
853.754 0.0722473
854.123 0.0474740
854.860 0.0298424
855.598 0.0246540
857.072 0.0247083
858.547 0.0323207
859.284 0.0398159
860.021 0.0517110
860.758 0.0716187
861.496 0.108131
861.864 0.138920
862.233 0.185864
862.601 0.262567
862.970 0.400648
863.154 0.515499
863.339 0.688438
863.523 0.966502
863.707 1.45573
863.800 1.85343
863.892 2.43859
863.984 3.35212
864.076 4.88823
864.168 7.77136
864.214 10.2588
864.260 14.1176
864.306 20.5617
864.352 32.3161
864.376 42.0573
864.399 56.2851
864.422 77.6404
864.445 109.687
864.461 140.448
864.477 175.600
864.510 219.361
864.526 206.418
864.543 175.378
864.576 109.678
864.610 65.7637
864.645 42.0000
864.679 28.6189
864.714 20.5750
864.748 15.4343
864.783 11.9752
864.852 7.78141
864.921 5.44633
864.990 4.01948
865.128 2.44305
865.266 1.63942
865.404 1.17573
865.542 0.884332
865.680 0.689427
865.956 0.453076
866.232 0.320821
866.508 0.239422
866.784 0.185804
867.336 0.121810
867.888 0.0865747
868.440 0.0651598
868.992 0.0512116
870.096 0.0348561
871.200 0.0261778
872.304 0.0212794
873.408 0.0185872
875.616 0.0177965
877.824 0.0254428
878.929 0.0384765
879.481 0.0518691
880.033 0.0764500
880.585 0.128600
880.861 0.179733
881.137 0.271012
881.275 0.346209
881.413 0.458465
881.551 0.636706
881.689 0.944583
881.827 1.54529
881.896 2.08582
881.965 2.96483
882.034 4.52858
882.068 5.80581
882.103 7.68568
882.137 10.5887
882.172 15.3300
882.206 23.5337
882.241 38.1304
882.275 60.9873
882.310 76.2178
882.345 60.9894
882.379 38.1332
882.407 25.7581
882.435 17.9999
882.463 13.0648
882.490 9.83999
882.546 6.08228
882.601 4.10298
882.657 2.94279
882.712 2.21099
882.823 1.37566
882.934 0.937075
883.045 0.679178
883.156 0.514962
883.267 0.404050
883.489 0.268231
883.710 0.191417
884.154 0.112242
884.598 0.0743407
885.041 0.0532913
885.928 0.0319008
887.703 0.0161302
889.477 0.0103791
893.026 0.00603389
896.575 0.00437780
903.673 0.00308155
910.771 0.00261891
924.966 0.00250795
932.064 0.00271981
935.613 0.00297084
937.387 0.00343114
938.274 0.00483187
938.718 0.00947969
938.940 0.0231610
939.051 0.0544108
939.106 0.103659
939.162 0.243958
939.220 0.484526
939.279 0.243951
939.364 0.0710187
939.450 0.0323103
939.622 0.0130812
939.965 0.00605591
940.652 0.00395602
942.025 0.00346782
944.771 0.00355531
950.264 0.00416690
955.757 0.00513038
961.250 0.00663205
966.743 0.00911568
972.236 0.0136757
974.982 0.0176275
977.729 0.0242039
979.102 0.0297928
980.475 0.0400983
981.162 0.0507733
981.848 0.0757650
982.192 0.106631
982.535 0.185535
982.707 0.284202
982.793 0.374544
982.878 0.524716
982.964 0.801810
983.007 1.03648
983.050 1.39509
983.093 1.97836
983.136 3.00420
983.179 4.98166
983.200 6.65821
983.222 9.05301
983.256 14.4635
983.290 18.0725
983.324 14.4644
983.358 9.05455
983.382 6.48566
983.405 4.75269
983.428 3.58540
983.452 2.78486
983.498 1.80314
983.545 1.25905
983.591 0.930372
983.638 0.718055
983.731 0.470957
983.824 0.338763
983.917 0.260399
984.103 0.176507
984.475 0.112848
984.847 0.0912787
985.591 0.0808555
986.335 0.0845949
987.823 0.112985
988.567 0.150534
988.939 0.221927
989.032 0.275890
989.125 0.393705
989.172 0.514995
989.218 0.742788
989.265 1.23334
989.288 1.69928
989.311 2.43328
989.341 3.80092
989.370 4.71256
989.399 3.80342
989.429 2.43837
989.454 1.64331
989.480 1.16806
989.532 0.694466
989.583 0.487307
989.634 0.382507
989.737 0.287499
989.840 0.249664
990.252 0.225376
991.074 0.281693
991.897 0.395338
992.720 0.605199
993.132 0.781086
993.543 1.04737
993.954 1.47824
994.366 2.24296
994.572 2.86998
994.777 3.80103
994.983 5.26970
995.086 6.34504
995.189 7.78303
995.292 9.77013
995.394 12.6167
995.497 16.9025
995.600 23.7524
995.652 28.8290
995.703 35.6599
995.754 45.1422
995.806 58.7684
995.857 79.2005
995.909 111.110
995.960 163.175
996.012 249.296
996.071 398.993
996.130 498.546
996.189 398.681
996.249 249.251
996.307 154.041
996.366 100.508
996.424 69.5004
996.483 50.4827
996.542 38.1355
996.600 29.7555
996.718 19.4850
996.835 13.7020
996.952 10.1469
997.186 6.19300
997.421 4.16432
997.655 2.98941
997.890 2.24917
998.124 1.75328
998.593 1.15065
999.062 0.812680
999.531 0.604366
1000.00 0.466985
1000.70 0.334627
1001.41 0.251620
1002.81 0.157122
1004.21 0.107411
1005.62 0.0780829
1007.02 0.0593455
1008.43 0.0466521
1011.23 0.0310540
1014.04 0.0221980
1016.85 0.0166988
1022.47 0.0105204
1028.08 0.00734736
1033.70 0.00561777
1036.51 0.00517626
1039.32 0.00526111
1042.12 0.00807671
1043.53 0.0201798
1043.88 0.0321614
1044.23 0.0639906
1044.41 0.104644
1044.58 0.204225
1044.67 0.320289
1044.76 0.571616
1044.80 0.821385
1044.85 1.26580
1044.89 2.13663
1044.91 2.88352
1044.93 3.90784
1044.97 6.24140
1045.00 7.79337
1045.03 6.24159
1045.07 3.90807
1045.10 2.44145
1045.13 1.60496
1045.17 1.11600
1045.20 0.821494
1045.27 0.486853
1045.33 0.322157
1045.46 0.170013
1045.59 0.105582
1045.85 0.0527013
1046.11 0.0322939
1047.16 0.0108684
1049.25 0.00492039
1053.43 0.00310654
1057.62 0.00259156
1061.80 0.00234455
1070.17 0.00253323
1074.35 0.00467444
1076.44 0.0133773
1076.96 0.0221048
1077.49 0.0458528
1077.75 0.0771313
1078.01 0.157730
1078.14 0.257413
1078.27 0.489607
1078.34 0.747926
1078.40 1.25785
1078.44 1.72987
1078.47 2.46736
1078.50 3.76072
1078.53 5.93763
1078.57 9.47743
1078.60 11.8283
1078.63 9.47772
1078.67 5.93799
1078.71 3.51539
1078.74 2.22179
1078.78 1.50330
1078.82 1.07561
1078.89 0.622516
1078.96 0.403408
1079.11 0.208130
1079.26 0.127110
1079.55 0.0617818
1079.85 0.0367463
1080.44 0.0177791
1081.03 0.0108248
1083.39 0.00384932
1088.11 0.00199467
1097.55 0.00150563
1106.99 0.00166578
1111.71 0.00264641
1114.07 0.00639765
1115.25 0.0203597
1115.55 0.0338586
1115.84 0.0691242
1115.99 0.113351
1116.14 0.218673
1116.21 0.337565
1116.29 0.583985
1116.32 0.817101
1116.36 1.20947
1116.40 1.91724
1116.43 3.19544
1116.47 5.10094
1116.50 6.36679
1116.53 5.10109
1116.57 3.19563
1116.60 1.99673
1116.63 1.31248
1116.70 0.671307
1116.77 0.397360
1116.83 0.262519
1116.96 0.137951
1117.09 0.0852027
1117.35 0.0419259
1117.61 0.0252415
1118.66 0.00780453
1120.75 0.00314236
1124.93 0.00205331
1133.30 0.00228507
1137.48 0.00282904
1141.67 0.00404210
1145.85 0.00864445
1146.90 0.0127282
1147.94 0.0235722
1148.46 0.0379617
1148.99 0.0767047
1149.25 0.127517
1149.51 0.258217
1149.64 0.419742
1149.71 0.563483
1149.77 0.795818
1149.84 1.21406
1149.90 2.03934
1149.94 2.80289
1149.97 3.99518
1150.00 6.08411
1150.03 9.59425
1150.07 15.2865
1150.10 19.0564
1150.13 15.2870
1150.17 9.59489
1150.20 6.42757
1150.22 4.45582
1150.25 3.21836
1150.28 2.41311
1150.34 1.48438
1150.39 1.00486
1150.45 0.719572
1150.50 0.540216
1150.61 0.338022
1150.84 0.169093
1151.06 0.102876
1151.50 0.0518311
1151.95 0.0331239
1152.84 0.0198740
1153.73 0.0159494
1155.51 0.0157333
1157.29 0.0207910
1158.18 0.0258104
1159.07 0.0337632
1159.96 0.0470669
1160.85 0.0713995
1161.74 0.123152
1162.19 0.174081
1162.63 0.265570
1162.86 0.341668
1163.08 0.455558
1163.30 0.639036
1163.52 0.959110
1163.75 1.60126
1163.86 2.19129
1163.97 3.17612
1164.08 5.02152
1164.14 6.60063
1164.19 8.98136
1164.25 12.9517
1164.30 19.8697
1164.33 25.5291
1164.36 33.6467
1164.39 45.5022
1164.41 62.0095
1164.46 99.1427
1164.50 123.867
1164.54 99.1372
1164.59 62.0035
1164.63 36.1946
1164.68 22.6519
1164.73 15.2250
1164.78 10.8422
1164.83 8.07776
1164.87 6.23543
1164.97 4.03984
1165.07 2.81272
1165.16 2.07436
1165.35 1.25687
1165.54 0.841857
1165.73 0.603013
1165.92 0.453190
1166.12 0.353112
1166.50 0.231952
1166.88 0.164223
1167.26 0.122587
1167.64 0.0951883
1168.41 0.0625401
1169.17 0.0446040
1169.94 0.0337400
1170.70 0.0266990
1172.23 0.0185405
1173.76 0.0143516
1175.28 0.0121648
1176.81 0.0112148
1179.87 0.0123176
1181.40 0.0149095
1182.92 0.0203554
1184.45 0.0326832
1185.22 0.0451756
1185.98 0.0680616
1186.74 0.116806
1187.13 0.164959
1187.51 0.251742
1187.70 0.323956
1187.89 0.432852
1188.08 0.608183
1188.27 0.917260
1188.37 1.17042
1188.46 1.54013
1188.56 2.12445
1188.65 3.10133
1188.75 4.96401
1188.80 6.58569
1188.84 9.06488
1188.89 13.3151
1188.94 21.2000
1188.96 27.8286
1188.99 37.7073
1189.01 52.8332
1189.04 74.8449
1189.05 96.8794
1189.07 120.522
1189.10 149.759
1189.12 140.161
1189.13 119.043
1189.17 74.8404
1189.20 47.0417
1189.23 31.0616
1189.26 21.6590
1189.29 15.9772
1189.32 12.1145
1189.35 9.47515
1189.41 6.26367
1189.47 4.41134
1189.53 3.28431
1189.66 2.01221
1189.78 1.35689
1189.90 0.976243
1190.03 0.735926
1190.15 0.574638
1190.40 0.378419
1190.64 0.268183
1191.13 0.155425
1191.62 0.101659
1192.12 0.0719642
1193.10 0.0420259
1194.08 0.0279730
1195.07 0.0202986
1197.03 0.0126694
1199.00 0.00922837
1200.97 0.00751080
1204.90 0.00646667
1208.83 0.00769072
1210.80 0.00959804
1212.77 0.0134240
1213.75 0.0167699
1214.73 0.0219617
1215.72 0.0305976
1216.70 0.0464171
1217.69 0.0802553
1218.18 0.113831
1218.67 0.174490
1218.91 0.225297
1219.16 0.302298
1219.41 0.427133
1219.65 0.648194
1219.77 0.830421
1219.90 1.10191
1220.02 1.53186
1220.14 2.27185
1220.27 3.70768
1220.33 5.00505
1220.39 7.06729
1220.45 10.7641
1220.51 17.9903
1220.54 24.6229
1220.57 34.8629
1220.59 42.8229
1220.60 52.6192
1220.62 65.4154
1220.63 81.9711
1220.65 105.687
1220.67 131.151
1220.70 163.936
1220.72 153.735
1220.73 131.147
1220.77 81.9662
1220.79 54.1304
1220.82 37.5895
1220.85 26.8890
1220.88 20.2111
1220.93 12.3727
1220.99 8.28930
1221.04 5.92003
1221.10 4.43140
1221.21 2.74329
1221.32 1.86153
1221.43 1.34478
1221.54 1.01652
1221.65 0.795220
1221.87 0.524750
1222.09 0.372108
1222.31 0.277633
1222.53 0.215373
1222.97 0.140342
1223.40 0.0988799
1223.84 0.0734836
1224.28 0.0568764
1225.16 0.0371219
1226.04 0.0262802
1226.92 0.0196945
1227.80 0.0153956
1229.56 0.0103085
1231.32 0.00752711
1233.07 0.00584375
1234.83 0.00475085
1238.35 0.00347762
1241.86 0.00281771
1248.90 0.00231707
1255.93 0.00249177
1259.45 0.00290136
1262.96 0.00374971
1266.48 0.00563262
1268.24 0.00751101
1269.99 0.0109167
1271.75 0.0181184
1272.63 0.0252267
1273.51 0.0380910
1274.39 0.0652566
1274.83 0.0920195
1275.27 0.140042
1275.71 0.240383
1275.93 0.337571
1276.15 0.508026
1276.26 0.647344
1276.37 0.853121
1276.48 1.17523
1276.59 1.72042
1276.70 2.75117
1276.75 3.64807
1276.81 5.05563
1276.86 7.43241
1276.92 11.8518
1276.95 15.6584
1276.97 21.1413
1277.00 29.5014
1277.03 42.2788
1277.06 67.8081
1277.10 84.8959
1277.14 67.8055
1277.17 42.2759
1277.21 28.0219
1277.24 19.4943
1277.27 13.9810
1277.30 10.5191
1277.36 6.45401
1277.42 4.35670
1277.48 3.11246
1277.54 2.34098
1277.66 1.45421
1277.78 0.986716
1277.90 0.714984
1278.02 0.542061
1278.14 0.425343
1278.39 0.282151
1278.63 0.201769
1279.11 0.119350
1279.60 0.0804441
1280.08 0.0595705
1281.05 0.0410157
1282.02 0.0384056
1282.99 0.0544323
1283.48 0.0818792
1283.96 0.159746
1284.20 0.262915
1284.33 0.360208
1284.45 0.526907
1284.57 0.847708
1284.63 1.13494
1284.69 1.58688
1284.75 2.38543
1284.81 3.91062
1284.84 5.30547
1284.87 7.42554
1284.90 10.8752
1284.93 16.5682
1284.97 26.6111
1285.00 33.3519
1285.04 26.6117
1285.07 16.5688
1285.10 10.7304
1285.13 7.33779
1285.16 5.19578
1285.19 3.87467
1285.25 2.35019
1285.31 1.56704
1285.38 1.11658
1285.44 0.835215
1285.56 0.519653
1285.68 0.353865
1285.80 0.257660
1286.04 0.154878
1286.53 0.0755224
1287.02 0.0459678
1287.99 0.0237056
1288.96 0.0154891
1290.91 0.00944413
1292.85 0.00770622
1294.80 0.00810839
1296.74 0.0120497
1297.71 0.0181913
1298.69 0.0356839
1299.17 0.0595330
1299.66 0.124043
1299.90 0.208212
1300.02 0.288069
1300.15 0.423757
1300.27 0.687517
1300.33 0.922349
1300.39 1.29195
1300.45 1.94548
1300.51 3.22533
1300.54 4.38705
1300.57 6.15964
1300.60 9.05814
1300.63 13.8679
1300.67 22.3630
1300.70 27.8305
1300.74 22.1044
1300.77 13.8686
1300.80 8.46750
1300.84 5.53786
1300.87 3.79958
1300.91 2.76865
1300.94 2.08203
1300.98 1.62950
1301.05 1.06641
1301.11 0.750268
1301.18 0.556007
1301.32 0.340261
1301.60 0.165774
1301.87 0.0985012
1302.43 0.0473660
1302.98 0.0286082
1304.08 0.0148861
1305.18 0.0101319
1307.39 0.00728574
1309.60 0.00757538
1311.81 0.0105181
1314.01 0.0203795
1315.12 0.0343916
1316.22 0.0736817
1316.77 0.127092
1317.05 0.179309
1317.33 0.272359
1317.60 0.463094
1317.74 0.644155
1317.88 0.956376
1318.02 1.56399
1318.08 2.10923
1318.15 2.99325
1318.22 4.55885
1318.26 5.85374
1318.29 7.69624
1318.33 10.6093
1318.36 15.1879
1318.39 22.9469
1318.43 36.4039
1318.46 58.4107
1318.50 73.1515
1318.54 58.4119
1318.57 36.4056
1318.60 26.1783
1318.62 19.4702
1318.67 11.6108
1318.71 7.56720
1318.76 5.27917
1318.80 3.85269
1318.85 2.94495
1318.94 1.87524
1319.04 1.29088
1319.13 0.944743
1319.31 0.566775
1319.50 0.377365
1319.68 0.269244
1320.05 0.157124
1320.42 0.102914
1320.79 0.0727271
1321.53 0.0420675
1323.01 0.0195658
1324.49 0.0115104
1327.45 0.00563240
1330.40 0.00352117
1333.36 0.00251926
1336.32 0.00196292
1339.28 0.00162285
1340.75 0.00150701
1342.23 0.00393588
1342.30 0.00647118
1342.37 0.00392769
1344.39 0.00128577
1346.41 0.00119921
1350.46 0.00109687
1354.50 0.00114922
1355.51 0.00127023
1356.52 0.00163677
1357.03 0.00214797
1357.28 0.00265237
1357.53 0.00355232
1357.66 0.00430226
1357.78 0.00541677
1357.91 0.00719106
1357.97 0.00850068
1358.04 0.0102672
1358.10 0.0127759
1358.16 0.0163730
1358.23 0.0218789
1358.29 0.0309053
1358.32 0.0378681
1358.35 0.0471600
1358.38 0.0608615
1358.42 0.0806394
1358.45 0.112744
1358.48 0.164749
1358.51 0.261006
1358.54 0.434431
1358.57 0.701389
1358.60 0.872320
1358.63 0.691840
1358.66 0.434393
1358.69 0.265072
1358.72 0.173780
1358.75 0.119364
1358.78 0.0872612
1358.81 0.0657753
1358.84 0.0516865
1358.89 0.0343229
1358.95 0.0243643
1359.01 0.0183361
1359.13 0.0115546
1359.25 0.00807315
1359.36 0.00605506
1359.60 0.00392930
1359.83 0.00288856
1360.07 0.00230703
1360.53 0.00171057
1361.47 0.00126794
1362.41 0.00110796
1366.15 0.000956891
1373.65 0.00103477
1377.39 0.00122379
1379.27 0.00141578
1381.14 0.00176307
1383.01 0.00249318
1384.89 0.00450400
1386.76 0.0147572
1387.23 0.0249025
1387.70 0.0521985
1387.93 0.0876775
1388.16 0.178129
1388.28 0.287592
1388.40 0.538719
1388.46 0.808842
1388.51 1.32154
1388.54 1.78818
1388.57 2.49244
1388.60 3.62917
1388.63 5.48702
1388.67 8.86614
1388.70 11.0482
1388.74 8.76306
1388.77 5.48730
1388.80 3.34598
1388.84 2.16157
1388.87 1.48486
1388.91 1.08309
1388.98 0.638467
1389.05 0.418295
1389.19 0.217515
1389.32 0.133346
1389.60 0.0649768
1389.88 0.0386508
1390.43 0.0186984
1390.99 0.0114484
1393.20 0.00501561
1395.42 0.00847329
1396.53 0.0262797
1396.80 0.0436763
1397.08 0.0890172
1397.22 0.145602
1397.36 0.279143
1397.43 0.426867
1397.49 0.726698
1397.56 1.45955
1397.60 2.26963
1397.63 3.68287
1397.67 5.88082
1397.70 7.34163
1397.73 5.88095
1397.77 3.68303
1397.81 2.17992
1397.84 1.37768
1397.92 0.672731
1397.99 0.391326
1398.06 0.254456
1398.21 0.131396
1398.35 0.0803659
1398.65 0.0392262
1398.94 0.0234545
1400.11 0.00708837
1402.45 0.00262218
1407.14 0.00142115
1411.82 0.00121597
1416.51 0.00119046
1435.25 0.00167070
1444.62 0.00230334
1453.99 0.00357806
1458.68 0.00476110
1463.36 0.00681393
1465.71 0.00856259
1468.05 0.0116243
1470.39 0.0209709
1471.56 0.0482935
1471.85 0.0736262
1472.15 0.139123
1472.29 0.220953
1472.44 0.415572
1472.51 0.633175
1472.59 1.08134
1472.62 1.50990
1472.66 2.20692
1472.70 3.48981
1472.73 5.80431
1472.77 9.24926
1472.80 11.5342
1472.83 9.24960
1472.87 5.80483
1472.90 3.73413
1472.93 2.54085
1472.96 1.79363
1472.99 1.33587
1473.05 0.811293
1473.11 0.546940
1473.23 0.296475
1473.35 0.189385
1473.60 0.101304
1473.84 0.0673957
1474.32 0.0420941
1474.81 0.0336328
1476.75 0.0309229
1478.69 0.0408479
1480.63 0.0617726
1481.60 0.0798436
1482.57 0.107613
1483.54 0.153397
1484.51 0.236534
1485.00 0.306436
1485.48 0.412489
1485.97 0.585065
1486.45 0.894035
1486.70 1.15012
1486.94 1.53229
1487.18 2.14501
1487.42 3.20745
1487.67 5.31651
1487.79 7.23371
1487.85 8.61560
1487.91 10.3956
1487.97 12.8277
1488.03 16.2069
1488.09 21.0825
1488.15 28.3022
1488.21 39.9997
1488.27 59.6194
1488.30 75.3303
1488.33 96.3608
1488.36 125.618
1488.39 166.009
1488.45 264.860
1488.50 330.445
1488.55 262.857
1488.61 164.440
1488.67 93.9205
1488.73 57.9210
1488.79 38.5592
1488.86 27.2813
1488.92 20.2315
1488.98 15.5636
1489.10 10.0265
1489.23 6.95978
1489.35 5.10627
1489.60 3.08465
1489.85 2.05838
1490.09 1.47182
1490.34 1.10424
1490.59 0.858868
1491.08 0.561556
1491.58 0.395598
1492.07 0.293654
1492.57 0.226700
1493.56 0.146695
1494.54 0.102683
1495.53 0.0758685
1496.52 0.0583639
1498.50 0.0376239
1500.48 0.0262805
1502.46 0.0194085
1504.44 0.0149329
1508.40 0.00965121
1512.36 0.00677217
1516.31 0.00503219
1520.27 0.00390137
1528.19 0.00256969
1536.10 0.00184686
1544.02 0.00141492
1547.98 0.00127343
1549.95 0.00125849
1550.94 0.00141713
1551.44 0.00204903
1551.93 0.0325037
1552.00 0.0638757
1552.07 0.0325012
1552.37 0.00313544
1552.68 0.00173508
1553.29 0.00126679
1554.50 0.00110583
1556.94 0.00101261
1561.80 0.000903850
1571.54 0.000754531
1591.01 0.000586576
1610.47 0.000513842
1620.21 0.000510892
1625.07 0.000558833
1627.51 0.000757625
1628.73 0.00151139
1629.33 0.00420170
1629.64 0.0127978
1629.79 0.0351931
1629.87 0.0773419
1629.94 0.241412
1630.00 0.486266
1630.06 0.241404
1630.15 0.0685350
1630.23 0.0297869
1630.40 0.0105705
1630.75 0.00346873
1631.43 0.00130119
1632.80 0.000702803
1635.55 0.000547425
1641.03 0.000514720
1652.00 0.000534815
1662.97 0.000597171
1668.46 0.000689217
1671.20 0.000930357
1672.57 0.00177734
1673.26 0.00480931
1673.60 0.0147497
1673.77 0.0417433
1673.86 0.0964159
1673.94 0.335353
1674.00 0.674619
1674.06 0.335342
1674.14 0.104893
1674.22 0.0472639
1674.37 0.0170668
1674.68 0.00559048
1675.31 0.00202628
1676.55 0.00104031
1679.05 0.000803948
1684.03 0.000801930
1694.00 0.000973806
1703.97 0.00128987
1713.94 0.00188065
1718.93 0.00238419
1723.91 0.00315913
1728.90 0.00444091
1733.88 0.00678971
1736.38 0.00877789
1738.87 0.0118254
1741.36 0.0168490
1743.85 0.0260070
1745.10 0.0337287
1746.35 0.0455085
1747.59 0.0647993
1748.84 0.0996632
1749.46 0.128822
1750.08 0.172879
1750.71 0.244145
1751.33 0.370635
1751.64 0.474510
1751.95 0.628356
1752.27 0.871932
1752.58 1.28764
1752.89 2.09056
1753.04 2.80345
1753.20 3.93686
1753.36 5.91929
1753.43 7.50273
1753.51 9.78301
1753.59 13.2031
1753.67 18.5701
1753.75 27.3601
1753.82 41.7143
1753.91 66.6285
1754.00 83.1879
1754.09 66.3230
1754.18 41.4742
1754.24 30.2690
1754.29 22.6275
1754.41 13.5293
1754.52 8.82839
1754.63 6.16272
1754.74 4.52694
1754.86 3.45815
1755.08 2.20354
1755.31 1.52054
1755.53 1.11104
1755.99 0.667114
1756.44 0.443808
1756.89 0.316522
1757.34 0.237039
1757.79 0.184121
1758.69 0.120215
1759.60 0.0846526
1760.50 0.0628126
1761.40 0.0484756
1763.21 0.0313908
1765.01 0.0219945
1766.82 0.0162813
1768.62 0.0125510
1772.23 0.00813808
1775.84 0.00572755
1779.45 0.00426910
1783.06 0.00332062
1790.28 0.00220433
1797.50 0.00160075
1804.72 0.00125161
1808.33 0.00118155
1810.14 0.00135434
1811.04 0.00217475
1811.49 0.00506604
1811.72 0.0137177
1811.83 0.0337247
1811.94 0.155729
1812.00 0.312843
1812.06 0.155721
1812.18 0.0323826
1812.29 0.0132004
1812.52 0.00488523
1812.98 0.00207895
1813.90 0.00124336
1815.74 0.000982238
1819.42 0.000852573
1826.78 0.000726180
1841.50 0.000584831
1856.22 0.000516110
1863.58 0.000516638
1867.26 0.000596954
1869.10 0.000934125
1870.02 0.00219609
1870.48 0.00654618
1870.71 0.0195262
1870.83 0.0496278
1870.94 0.242390
1871.00 0.484079
1871.06 0.242382
1871.18 0.0453445
1871.31 0.0173237
1871.56 0.00575136
1872.06 0.00195371
1873.05 0.000862327
1875.04 0.000567960
1879.03 0.000489314
1887.00 0.000470359
1894.97 0.000487902
1898.96 0.000564554
1900.95 0.000853683
1901.95 0.00192683
1902.44 0.00566118
1902.69 0.0170400
1902.82 0.0445911
1902.94 0.238318
1903.00 0.475944
1903.06 0.238311
1903.15 0.0611603
1903.25 0.0255513
1903.44 0.00884656
1903.82 0.00290272
1904.57 0.00112777
1906.09 0.000643383
1909.12 0.000520977
1915.18 0.000500385
1927.29 0.000526196
1951.53 0.000643036
1975.77 0.000873656
1987.88 0.00106923
2000.00 0.00138193
2006.47 0.00172360
2009.71 0.00237681
2011.32 0.00447387
2012.13 0.0119685
2012.54 0.0371390
2012.74 0.109388
2012.84 0.266930
2012.89 0.504364
2012.94 1.12211
2013.00 2.24111
2013.06 1.12208
2013.13 0.390184
2013.20 0.184036
2013.34 0.0683806
2013.61 0.0222706
2014.16 0.00753331
2015.27 0.00341673
2017.48 0.00242669
2021.90 0.00242057
2030.74 0.00313218
2039.58 0.00441643
2048.43 0.00679190
2052.85 0.00880753
2057.27 0.0119035
2061.69 0.0170155
2066.11 0.0263664
2068.32 0.0342699
2070.53 0.0463668
2072.74 0.0662710
2074.95 0.102454
2076.06 0.132880
2077.16 0.179162
2078.27 0.254664
2079.37 0.390347
2079.93 0.503083
2080.48 0.672362
2081.03 0.944537
2081.58 1.42122
2081.86 1.80893
2082.14 2.37666
2082.41 3.25854
2082.55 3.89455
2082.69 4.73486
2082.83 5.88590
2082.96 7.49302
2083.10 9.84576
2083.24 13.4725
2083.38 19.4423
2083.45 23.9549
2083.52 30.1261
2083.59 38.7893
2083.65 51.2697
2083.72 69.6041
2083.79 96.4575
2083.90 154.105
2084.00 192.436
2084.11 153.497
2084.21 95.9795
2084.28 67.6976
2084.36 48.9388
2084.43 36.4893
2084.51 28.0219
2084.65 17.8007
2084.80 12.2089
2084.95 8.85919
2085.10 6.70752
2085.39 4.21539
2085.69 2.88742
2085.99 2.09908
2086.28 1.59378
2086.58 1.25182
2087.17 0.829437
2087.76 0.589504
2088.35 0.440344
2088.94 0.341496
2090.13 0.222383
2091.31 0.156276
2092.49 0.115796
2093.68 0.0892275
2096.04 0.0576209
2098.41 0.0402701
2100.78 0.0297259
2103.14 0.0228491
2107.88 0.0147165
2112.61 0.0102784
2117.34 0.00759422
2122.08 0.00584894
2131.54 0.00379441
2141.01 0.00268063
2150.48 0.00202034
2155.21 0.00182297
2157.58 0.00187985
2158.76 0.00243148
2159.35 0.00454457
2159.65 0.0113384
2159.79 0.0289579
2159.94 0.184940
2160.00 0.368153
2160.06 0.184931
2160.21 0.0289400
2160.35 0.0113106
2160.65 0.00449556
2161.24 0.00233903
2162.43 0.00169954
2164.79 0.00146516
2169.53 0.00129209
2179.00 0.00107832
2188.47 0.000938988
2193.21 0.000920877
2195.57 0.00105101
2196.76 0.00162757
2197.35 0.00372064
2197.65 0.0104051
2197.79 0.0277240
2197.94 0.181014
2198.00 0.361061
2198.06 0.181008
2198.22 0.0242221
2198.39 0.00890755
2198.71 0.00321400
2199.37 0.00146117
2200.68 0.000964119
2203.30 0.000814521
2208.54 0.000743933
2219.03 0.000680957
2240.00 0.000645462
2260.97 0.000745050
2271.46 0.000905383
2276.70 0.00107759
2279.32 0.00133812
2280.63 0.00205545
2281.29 0.00448608
2281.61 0.0123307
2281.78 0.0334089
2281.94 0.249110
2282.00 0.496729
2282.06 0.249109
2282.20 0.0406726
2282.34 0.0155677
2282.62 0.00562732
2283.18 0.00247906
2284.30 0.00164079
2286.54 0.00153599
2291.03 0.00184302
2295.51 0.00242442
2300.00 0.00345980
2300.00 1.22261
2500.00 1.16511
3000.00 1.05133
3500.00 0.969119
4000.00 0.904192
5000.00 0.809167
6000.00 0.740754
7000.00 0.688379
8000.00 0.647533
10000.0 0.581427
12500.0 0.520953
15000.0 0.473413
17000.0 0.443144
20000.0 0.405284
25000.0 0.356287
30000.0 0.319783
35000.0 0.291297
40000.0 0.268412
50000.0 0.233362
60000.0 0.209238
70000.0 0.191744
80000.0 0.178293
90000.0 0.167844
99999.9 0.159573
100000 0.159302
150000 0.135994
159968 0.133437
159969 0.133436
179984 0.111500
200000 0.0949531
250000 0.0820449
300000 0.0766177
317314 0.0754855
317315 0.0754855
362986 0.0744125
408657 0.0734795
500000 0.0719182
678233 0.0734657
700000 0.0736279
717740 0.0739328
800000 0.0644360
900000 0.0633749
1.00000E+06 0.0645390
1.01317E+06 0.0647813
1.02870E+06 0.0636089
1.02870E+06 0.0636089
1.18978E+06 0.0564687
1.25000E+06 0.0540901
1.31555E+06 0.0535998
1.31556E+06 0.0535997
1.45888E+06 0.0518230
1.45888E+06 0.0518230
1.50000E+06 0.0510459
1.51012E+06 0.0509788
1.59192E+06 0.0498358
1.68239E+06 0.0491477
1.68239E+06 0.0491477
1.75000E+06 0.0487486
1.78527E+06 0.0488772
1.78527E+06 0.0488772
1.96481E+06 0.0502290
2.00000E+06 0.0506523
2.05619E+06 0.0498926
2.11237E+06 0.0491644
2.16856E+06 0.0484655
2.22475E+06 0.0477940
2.28093E+06 0.0471482
2.33712E+06 0.0465266
2.39330E+06 0.0459276
2.44949E+06 0.0453500
2.51830E+06 0.0446699
2.58712E+06 0.0440179
2.65593E+06 0.0433921
2.72475E+06 0.0427910
2.79356E+06 0.0422128
2.86237E+06 0.0416562
2.93119E+06 0.0411200
3.00000E+06 0.0406028
3.05019E+06 0.0392982
3.10038E+06 0.0380559
3.15057E+06 0.0368718
3.20076E+06 0.0357424
3.25095E+06 0.0346644
3.30114E+06 0.0336347
3.35133E+06 0.0326504
3.40152E+06 0.0317089
3.45171E+06 0.0308078
3.50189E+06 0.0299447
3.55208E+06 0.0291176
3.60227E+06 0.0283245
3.65246E+06 0.0275634
3.70265E+06 0.0268329
3.75284E+06 0.0261311
3.80303E+06 0.0254566
3.85227E+06 0.0248201
3.90152E+06 0.0242073
3.95076E+06 0.0236170
4.00000E+06 0.0230481
4.06250E+06 0.0218656
4.12500E+06 0.0207605
4.18750E+06 0.0197266
4.25000E+06 0.0187584
4.31250E+06 0.0178508
4.37500E+06 0.0169992
4.43750E+06 0.0161995
4.50000E+06 0.0154478
4.56250E+06 0.0147407
4.62500E+06 0.0140749
4.68750E+06 0.0134475
4.75000E+06 0.0128559
4.81250E+06 0.0122975
4.87500E+06 0.0117701
4.93750E+06 0.0112716
5.00000E+06 0.0108001
5.05965E+06 0.0102454
5.11931E+06 0.00972512
5.17896E+06 0.00923687
5.23862E+06 0.00877832
5.29827E+06 0.00834734
5.35792E+06 0.00794199
5.41758E+06 0.00756050
5.47723E+06 0.00720121
5.54258E+06 0.00685064
5.60792E+06 0.00652095
5.67327E+06 0.00621068
5.73862E+06 0.00591848
5.80396E+06 0.00564309
5.86931E+06 0.00538340
5.93465E+06 0.00513834
6.00000E+06 0.00490693
6.12019E+06 0.00450230
6.24037E+06 0.00413795
6.36056E+06 0.00380922
6.48074E+06 0.00351204
6.61056E+06 0.00327381
6.74037E+06 0.00305590
6.87019E+06 0.00285626
7.00000E+06 0.00267303
7.00886E+06 0.00265667
7.09990E+06 0.00249534
7.19094E+06 0.00234567
7.23762E+06 0.00227314
7.36047E+06 0.00212330
7.48331E+06 0.00198558
7.61033E+06 0.00188128
7.73734E+06 0.00178405
7.79908E+06 0.00175081
8.00000E+06 0.00164852
8.11954E+06 0.00156359
8.23907E+06 0.00148418
8.26316E+06 0.00147243
8.37422E+06 0.00141989
8.48528E+06 0.00136988
8.61396E+06 0.00133550
8.74264E+06 0.00130246
8.87132E+06 0.00127072
9.00000E+06 0.00124018
9.06020E+06 0.00122840
9.12039E+06 0.00121680
9.18059E+06 0.00120539
9.24078E+06 0.00119417
9.30229E+06 0.00118287
9.36381E+06 0.00117176
9.42532E+06 0.00116082
9.48683E+06 0.00115006
9.52099E+06 0.00114610
9.58087E+06 0.00113923
9.64074E+06 0.00113245
9.70062E+06 0.00112575
9.76050E+06 0.00111912
9.82037E+06 0.00111258
9.88025E+06 0.00110611
9.94012E+06 0.00109973
1.00000E+07 0.00109341
1.00610E+07 0.00108905
1.01220E+07 0.00108473
1.01830E+07 0.00108045
1.02441E+07 0.00107621
1.03051E+07 0.00107202
1.03661E+07 0.00106787
1.04271E+07 0.00106376
1.04881E+07 0.00105968
1.05201E+07 0.00105756
1.05521E+07 0.00105546
1.05841E+07 0.00105336
1.06161E+07 0.00105127
1.06481E+07 0.00104919
1.06801E+07 0.00104712
1.07121E+07 0.00104507
1.07441E+07 0.00104302
1.07761E+07 0.00104098
1.08080E+07 0.00103896
1.08400E+07 0.00103694
1.08720E+07 0.00103493
1.09040E+07 0.00103293
1.09360E+07 0.00103095
1.09680E+07 0.00102897
1.10000E+07 0.00102700
1.10611E+07 0.00102501
1.11223E+07 0.00102304
1.11834E+07 0.00102108
1.12446E+07 0.00101914
1.13057E+07 0.00101721
1.13668E+07 0.00101530
1.14280E+07 0.00101340
1.14891E+07 0.00101151
1.15210E+07 0.00101053
1.15530E+07 0.00100955
1.15849E+07 0.00100858
1.16168E+07 0.00100761
1.16488E+07 0.00100665
1.16807E+07 0.00100568
1.17126E+07 0.00100472
1.17446E+07 0.00100377
1.17765E+07 0.00100282
1.18084E+07 0.00100187
1.18404E+07 0.00100092
1.18723E+07 0.000999983
1.19042E+07 0.000999045
1.19361E+07 0.000998111
1.19681E+07 0.000997180
1.20000E+07 0.000996252
1.20625E+07 0.000995892
1.21250E+07 0.000995534
1.21875E+07 0.000995177
1.22500E+07 0.000994823
1.23125E+07 0.000994470
1.23750E+07 0.000994120
1.24375E+07 0.000993771
1.25000E+07 0.000993424
1.25625E+07 0.000993079
1.26250E+07 0.000992736
1.26875E+07 0.000992395
1.27500E+07 0.000992055
1.28125E+07 0.000991718
1.28750E+07 0.000991382
1.29375E+07 0.000991048
1.30000E+07 0.000990715
1.30625E+07 0.000991484
1.31250E+07 0.000992249
1.31875E+07 0.000993012
1.32500E+07 0.000993772
1.33125E+07 0.000994528
1.33750E+07 0.000995282
1.34375E+07 0.000996033
1.35000E+07 0.000996780
1.35625E+07 0.000997525
1.36250E+07 0.000998267
1.36875E+07 0.000999006
1.37500E+07 0.000999743
1.38125E+07 0.00100048
1.38750E+07 0.00100121
1.39375E+07 0.00100194
1.40000E+07 0.00100266
1.40376E+07 0.00100364
1.40954E+07 0.00100514
1.41532E+07 0.00100663
1.42110E+07 0.00100813
1.42688E+07 0.00100961
1.43266E+07 0.00101110
1.43844E+07 0.00101258
1.44422E+07 0.00101406
1.45000E+07 0.00101553
1.45625E+07 0.00101712
1.46250E+07 0.00101870
1.46875E+07 0.00102028
1.47500E+07 0.00102186
1.48125E+07 0.00102343
1.48750E+07 0.00102500
1.49375E+07 0.00102656
1.50000E+07 0.00102812
1.52500E+07 0.00103740
1.55000E+07 0.00104661
1.57500E+07 0.00105575
1.60000E+07 0.00106483
1.60412E+07 0.00106674
1.60823E+07 0.00106864
1.61235E+07 0.00107055
1.61646E+07 0.00107245
1.62058E+07 0.00107435
1.62469E+07 0.00107625
1.62881E+07 0.00107814
1.63293E+07 0.00108004
1.63704E+07 0.00108193
1.64116E+07 0.00108383
1.64527E+07 0.00108572
1.64939E+07 0.00108761
1.65350E+07 0.00108950
1.65762E+07 0.00109139
1.66174E+07 0.00109327
1.66585E+07 0.00109516
1.66585E+07 0.00109516
1.66910E+07 0.00109664
1.67234E+07 0.00109813
1.67559E+07 0.00109961
1.67884E+07 0.00110109
1.68208E+07 0.00110258
1.68533E+07 0.00110406
1.68857E+07 0.00110554
1.69182E+07 0.00110702
1.69591E+07 0.00110888
1.70000E+07 0.00111074
1.70625E+07 0.00111414
1.71250E+07 0.00111753
1.71875E+07 0.00112093
1.72500E+07 0.00112432
1.73125E+07 0.00112771
1.73750E+07 0.00113110
1.74375E+07 0.00113448
1.75000E+07 0.00113787
1.75625E+07 0.00114125
1.76250E+07 0.00114463
1.76875E+07 0.00114800
1.77500E+07 0.00115138
1.78125E+07 0.00115475
1.78750E+07 0.00115812
1.79375E+07 0.00116149
1.80000E+07 0.00116486
1.80625E+07 0.00116871
1.81250E+07 0.00117255
1.81875E+07 0.00117639
1.82500E+07 0.00118024
1.83125E+07 0.00118408
1.83750E+07 0.00118792
1.84375E+07 0.00119176
1.85000E+07 0.00119560
1.85625E+07 0.00119944
1.86250E+07 0.00120328
1.86875E+07 0.00120712
1.87500E+07 0.00121096
1.88125E+07 0.00121479
1.88750E+07 0.00121863
1.89375E+07 0.00122247
1.90000E+07 0.00122630
1.91250E+07 0.00123482
1.92500E+07 0.00124334
1.93750E+07 0.00125187
1.95000E+07 0.00126040
1.96250E+07 0.00126893
1.97500E+07 0.00127747
1.98750E+07 0.00128601
2.00000E+07 0.00129455