Ba-134(n,g) ENDF/B-VII.1
Energy(eV) XS(b)
1.00000E-05 75.6330
1.25000E-05 67.6482
1.50000E-05 61.7541
2.00000E-05 53.4806
2.75000E-05 45.6084
3.50000E-05 40.4276
4.25000E-05 36.6874
5.00000E-05 33.8241
6.25000E-05 30.2532
7.50000E-05 27.6173
0.000100000 23.9173
0.000125000 21.3923
0.000150000 19.5284
0.000200000 16.9121
0.000275000 14.4227
0.000350000 12.7843
0.000425000 11.6016
0.000500000 10.6961
0.000625000 9.56691
0.000750000 8.73335
0.00100000 7.56331
0.00125000 6.76483
0.00150000 6.17542
0.00200000 5.34807
0.00275000 4.56085
0.00350000 4.04276
0.00425000 3.66875
0.00500000 3.38242
0.00625000 3.02533
0.00750000 2.76174
0.0100000 2.39174
0.0125000 2.13924
0.0150000 1.95285
0.0200000 1.69123
0.0253000 1.50369
0.0314750 1.34815
0.0376500 1.23265
0.0500000 1.06964
0.0625000 0.956725
0.0750000 0.873373
0.100000 0.756374
0.125000 0.676532
0.150000 0.617596
0.200000 0.534870
0.275000 0.456160
0.350000 0.404362
0.500000 0.338347
0.750000 0.276308
1.00000 0.239335
1.50000 0.195499
2.00000 0.169388
2.75000 0.144573
3.50000 0.128272
5.00000 0.107566
7.50000 0.0882703
10.0000 0.0769537
15.0000 0.0640095
20.0000 0.0569197
27.5000 0.0513958
35.0000 0.0494839
50.0000 0.0542707
62.5000 0.0714615
68.7500 0.0899828
75.0000 0.123737
81.2500 0.193227
84.3750 0.258997
87.5000 0.372008
90.6250 0.591449
92.1875 0.788717
93.7500 1.11062
94.5313 1.35411
94.9219 1.50792
95.3125 1.69015
95.5078 1.79419
95.7031 1.90832
95.8984 2.03391
96.0938 2.17254
96.2891 2.32610
96.4844 2.49680
96.6797 2.68731
96.8750 2.90081
97.0703 3.14119
97.2656 3.41313
97.6563 4.07629
98.0469 4.95608
98.4375 6.15838
98.8281 7.86287
99.2188 10.3941
99.6094 14.3887
99.8047 17.3150
100.000 21.2378
100.211 27.1874
100.422 36.0437
100.633 50.0557
100.844 74.1290
100.949 93.2568
101.054 120.783
101.160 162.480
101.265 229.697
101.371 348.035
101.424 443.493
101.476 582.383
101.529 793.580
101.582 1131.25
101.634 1698.55
101.687 2670.49
101.744 4259.96
101.800 5312.43
101.857 4239.91
101.914 2642.01
101.962 1748.52
102.010 1201.15
102.058 861.759
102.106 642.838
102.201 392.455
102.297 262.448
102.393 187.174
102.489 139.950
102.680 86.4961
102.872 58.5993
103.064 42.2698
103.255 31.9068
103.447 24.9290
103.830 16.4045
104.213 11.6009
104.596 8.63045
104.979 6.66820
105.746 4.31895
106.512 3.02092
107.278 2.22955
108.044 1.71203
109.577 1.09924
111.110 0.764442
112.642 0.561994
114.175 0.430444
117.240 0.275753
120.305 0.191875
123.370 0.141442
126.436 0.108814
132.566 0.0706132
138.696 0.0499748
144.827 0.0375764
150.957 0.0295424
163.218 0.0200777
175.479 0.0148872
200.000 0.00958686
231.890 0.00646383
263.781 0.00488288
295.671 0.00408915
311.616 0.00439332
315.602 0.00497701
319.589 0.00677189
321.582 0.00933395
322.579 0.0119168
323.575 0.0166626
324.572 0.0268589
325.070 0.0370369
325.568 0.0555974
325.817 0.0712367
326.066 0.0950939
326.316 0.134155
326.565 0.204644
326.689 0.263434
326.814 0.352264
326.939 0.495684
327.063 0.749251
327.125 0.956587
327.188 1.26374
327.250 1.74645
327.312 2.56632
327.374 4.13131
327.406 5.50797
327.437 7.68167
327.468 11.4148
327.499 18.4802
327.515 24.5846
327.530 33.8379
327.546 48.5456
327.561 71.7845
327.581 114.773
327.600 143.401
327.619 114.780
327.639 71.7927
327.662 40.8089
327.684 25.1236
327.707 16.7059
327.730 11.8106
327.753 8.74331
327.775 6.72471
327.821 4.31779
327.866 2.99685
327.912 2.20039
328.002 1.32887
328.093 0.888142
328.184 0.635382
328.275 0.477202
328.366 0.371814
328.548 0.244268
328.729 0.173104
328.911 0.129377
329.093 0.100603
329.456 0.0662808
329.820 0.0473803
330.547 0.0283475
331.273 0.0194333
332.000 0.0145530
333.454 0.00966320
336.362 0.00613414
339.269 0.00488857
345.085 0.00402225
350.900 0.00382243
356.715 0.00400867
362.530 0.00500018
365.438 0.00652374
366.892 0.00808242
368.345 0.0109658
369.799 0.0171932
370.526 0.0234333
371.253 0.0348558
371.616 0.0445099
371.980 0.0592848
372.343 0.0835744
372.707 0.127679
372.889 0.164695
373.070 0.220928
373.252 0.312450
373.434 0.476345
373.525 0.611971
373.615 0.815302
373.706 1.14009
373.797 1.70523
373.888 2.82411
373.933 3.84462
373.979 5.53002
374.024 8.60817
374.047 11.1798
374.070 15.0572
374.092 21.2450
374.115 31.8301
374.138 51.4006
374.161 89.4059
374.180 143.146
374.200 178.713
374.220 142.863
374.240 89.4146
374.255 61.1575
374.270 43.2063
374.285 31.6530
374.300 23.9841
374.331 14.9361
374.361 10.1268
374.392 7.28403
374.422 5.48512
374.483 3.42065
374.544 2.33217
374.605 1.69042
374.666 1.28103
374.727 1.00417
374.849 0.664711
374.970 0.472520
375.092 0.353303
375.214 0.274366
375.457 0.179485
375.701 0.126880
375.945 0.0946895
376.188 0.0735854
376.675 0.0484902
377.162 0.0347139
378.137 0.0208803
379.111 0.0144147
380.085 0.0108789
382.033 0.00733684
385.930 0.00477386
389.827 0.00385928
397.621 0.00319181
405.415 0.00296401
421.003 0.00289123
436.591 0.00313375
452.178 0.00390450
459.972 0.00475196
467.766 0.00635727
475.560 0.00987153
479.457 0.0134164
483.354 0.0199371
485.303 0.0254720
487.251 0.0339816
489.200 0.0480517
491.148 0.0738380
492.122 0.0956727
493.096 0.129171
494.071 0.184416
495.045 0.285302
495.532 0.370429
496.019 0.500548
496.506 0.714066
496.993 1.10111
497.237 1.42525
497.480 1.91690
497.724 2.71571
497.846 3.31684
497.907 3.69517
497.968 4.14132
498.028 4.67435
498.089 5.31725
498.150 6.10239
498.211 7.07494
498.272 8.29953
498.333 9.87116
498.394 11.9340
498.455 14.7102
498.516 18.5831
498.576 24.2023
498.637 32.7880
498.698 46.8290
498.729 57.4578
498.759 72.0202
498.790 92.8164
498.820 123.588
498.851 171.828
498.881 251.636
498.911 392.782
498.942 651.173
498.971 1043.04
499.000 1303.24
499.029 1041.50
499.058 651.064
499.088 398.312
499.117 258.160
499.147 177.489
499.176 128.527
499.206 96.8320
499.235 75.4321
499.294 49.2857
499.353 34.5981
499.412 25.5963
499.529 15.5966
499.647 10.4782
499.765 7.51728
499.882 5.65326
500.000 4.40484
500.153 3.31832
500.305 2.58913
500.610 1.70212
500.916 1.20345
501.221 0.895793
501.831 0.551567
502.441 0.373597
503.051 0.269786
503.662 0.204017
504.882 0.128533
506.103 0.0885060
507.323 0.0647694
509.764 0.0392089
512.206 0.0264673
514.647 0.0192127
517.088 0.0146932
519.529 0.0116880
524.411 0.00806380
529.293 0.00604230
539.058 0.00397716
548.822 0.00298922
558.586 0.00243487
578.115 0.00185488
617.173 0.00138738
656.230 0.00118980
734.345 0.00106294
773.403 0.00122443
792.931 0.00196721
797.814 0.00273578
802.696 0.00492293
805.137 0.00797226
807.578 0.0166322
808.799 0.0286626
809.409 0.0406768
810.019 0.0626109
810.629 0.109386
810.934 0.155744
811.240 0.239679
811.392 0.309894
811.545 0.416313
811.697 0.588856
811.850 0.895868
811.926 1.14846
812.002 1.52496
812.079 2.12166
812.155 3.14791
812.231 5.14400
812.269 6.93529
812.308 9.82710
812.346 14.9505
812.365 19.1087
812.384 25.1519
812.403 34.4423
812.422 49.3308
812.441 74.7489
812.460 118.672
812.480 189.834
812.500 237.259
812.520 189.837
812.540 118.677
812.559 74.2355
812.579 48.9372
812.598 34.0851
812.617 24.8866
812.636 18.8799
812.655 14.7733
812.694 9.71298
812.732 6.84473
812.771 5.07894
812.847 3.10824
812.924 2.09313
813.001 1.50480
813.078 1.13311
813.155 0.884093
813.309 0.581047
813.462 0.410872
813.616 0.305905
813.770 0.236642
814.077 0.153815
814.384 0.108068
814.999 0.0619098
815.614 0.0402559
816.229 0.0283940
817.458 0.0165117
819.918 0.00795389
822.377 0.00494064
827.295 0.00278431
832.213 0.00203439
842.050 0.00151759
851.887 0.00136451
871.560 0.00134701
891.234 0.00152236
910.907 0.00197688
920.744 0.00244228
930.580 0.00329623
940.417 0.00512746
945.336 0.00695799
950.254 0.0103116
952.713 0.0131528
955.172 0.0175172
957.631 0.0247292
960.091 0.0379431
961.320 0.0491306
962.550 0.0662966
963.779 0.0946097
965.009 0.146318
965.624 0.189948
966.238 0.256659
966.853 0.366146
967.468 0.564661
967.775 0.730908
968.083 0.983219
968.390 1.39310
968.698 2.12516
968.851 2.72898
968.928 3.13248
969.005 3.63172
969.082 4.26127
969.159 5.06832
969.236 6.12927
969.312 7.55830
969.389 9.55254
969.466 12.4436
969.543 16.8700
969.581 20.0111
969.620 24.1060
969.658 29.5932
969.697 37.1243
969.735 47.8526
969.774 63.7978
969.812 88.7496
969.850 130.259
969.889 203.974
969.927 339.615
969.964 543.445
970.000 678.726
970.037 542.814
970.073 339.112
970.102 228.779
970.132 159.711
970.161 115.839
970.190 87.1914
970.249 53.8442
970.307 36.2928
970.365 26.0115
970.424 19.5284
970.541 12.1314
970.658 8.24921
970.775 5.96710
970.891 4.51435
971.008 3.53341
971.242 2.33262
971.476 1.65388
971.710 1.23335
971.944 0.954961
972.411 0.620985
972.879 0.435947
973.346 0.322863
973.814 0.248749
974.749 0.160726
975.684 0.112454
976.620 0.0831580
977.555 0.0640554
979.425 0.0414881
981.296 0.0291782
983.166 0.0217370
985.037 0.0169002
988.777 0.0112082
992.518 0.00811908
996.259 0.00626224
1000.00 0.00506365
1006.81 0.00376242
1013.62 0.00304237
1027.24 0.00235228
1040.86 0.00210147
1054.48 0.00206556
1068.10 0.00219692
1081.72 0.00258982
1088.53 0.00305007
1095.34 0.00419059
1098.75 0.00567285
1102.15 0.00975155
1103.85 0.0153574
1105.56 0.0311394
1106.41 0.0529716
1106.83 0.0747062
1107.26 0.114142
1107.68 0.197933
1107.90 0.280528
1108.11 0.428195
1108.22 0.551954
1108.32 0.736493
1108.43 1.03581
1108.54 1.55664
1108.59 1.98768
1108.64 2.61105
1108.70 3.57944
1108.75 5.20070
1108.80 8.21450
1108.83 10.8501
1108.85 14.7592
1108.88 21.4467
1108.91 32.9489
1108.92 43.0316
1108.93 56.5871
1108.95 76.3180
1108.96 104.905
1108.98 166.990
1109.00 208.030
1109.02 166.992
1109.04 104.908
1109.05 74.5240
1109.07 54.1644
1109.10 31.7886
1109.12 20.2101
1109.15 14.0369
1109.18 10.1679
1109.21 7.75991
1109.26 4.93123
1109.31 3.38158
1109.37 2.47371
1109.42 1.87839
1109.48 1.48064
1109.59 0.981070
1109.70 0.699632
1109.81 0.524170
1109.91 0.407482
1110.13 0.266371
1110.35 0.188272
1110.79 0.108774
1111.23 0.0712876
1111.66 0.0506921
1112.54 0.0300325
1114.28 0.0151304
1116.03 0.00991316
1119.52 0.00626729
1123.02 0.00510508
1130.01 0.00456270
1137.00 0.00475514
1150.97 0.00609775
1164.95 0.00893067
1171.94 0.0113810
1178.93 0.0151592
1185.92 0.0214018
1192.91 0.0328021
1196.40 0.0424176
1199.89 0.0571046
1203.39 0.0811920
1206.88 0.124793
1208.63 0.161284
1209.51 0.185886
1210.38 0.216572
1211.25 0.255621
1211.69 0.279246
1212.13 0.306247
1212.56 0.337450
1213.00 0.373688
1213.44 0.416105
1213.87 0.466064
1214.31 0.525753
1214.75 0.597699
1215.18 0.685496
1215.62 0.793880
1216.06 0.930493
1216.49 1.10561
1216.93 1.33513
1217.37 1.64322
1217.80 2.07232
1218.24 2.69310
1218.68 3.63797
1219.11 5.17038
1219.55 7.90192
1219.77 10.1397
1219.99 13.4193
1220.21 18.5103
1220.42 26.7925
1220.64 41.1214
1220.86 66.6294
1221.08 106.827
1221.30 133.699
1221.52 106.779
1221.74 66.5831
1221.97 40.0651
1222.20 25.6276
1222.43 17.4816
1222.66 12.5941
1222.89 9.45071
1223.12 7.33426
1223.58 4.77070
1224.04 3.33862
1224.50 2.46489
1225.42 1.49770
1226.34 1.00441
1227.25 0.719700
1228.17 0.540760
1229.09 0.421172
1230.93 0.276005
1232.77 0.194743
1234.61 0.144735
1236.44 0.111809
1240.12 0.0724891
1243.79 0.0508246
1247.47 0.0376340
1251.14 0.0290137
1258.49 0.0188078
1265.84 0.0132309
1273.20 0.00985571
1280.55 0.00766111
1295.25 0.00507817
1309.95 0.00367852
1324.65 0.00284057
1339.35 0.00230444
1368.75 0.00170294
1398.16 0.00144386
1412.86 0.00142221
1427.56 0.00155267
1442.26 0.00251710
1449.61 0.00644364
1451.45 0.0104929
1453.28 0.0219579
1454.20 0.0378423
1455.12 0.0824724
1455.58 0.143719
1455.81 0.204184
1456.04 0.312521
1456.27 0.539277
1456.39 0.758766
1456.50 1.14109
1456.56 1.45720
1456.62 1.91512
1456.67 2.64298
1456.73 3.84863
1456.79 6.15632
1456.82 8.16193
1456.85 11.1681
1456.87 16.3554
1456.90 25.4562
1456.92 33.5336
1456.93 44.6345
1456.95 61.1480
1456.96 86.1142
1456.98 138.796
1457.00 172.097
1457.02 138.797
1457.04 86.1158
1457.06 61.1498
1457.07 43.6915
1457.09 32.2682
1457.10 25.0205
1457.13 15.8965
1457.16 10.9045
1457.19 7.91377
1457.22 5.99254
1457.27 3.76706
1457.33 2.58104
1457.39 1.87688
1457.45 1.42551
1457.51 1.11916
1457.62 0.742170
1457.74 0.527960
1457.97 0.306345
1458.20 0.199985
1458.43 0.140895
1458.90 0.0809638
1459.83 0.0371750
1460.75 0.0216074
1462.61 0.0103601
1464.47 0.00639381
1471.90 0.00257115
1486.75 0.00174328
1501.61 0.00210072
1509.03 0.00382527
1512.75 0.0104996
1513.68 0.0173169
1514.61 0.0364512
1515.07 0.0626776
1515.53 0.135204
1515.77 0.232570
1515.88 0.326873
1516.00 0.493214
1516.11 0.828771
1516.17 1.14184
1516.23 1.67148
1516.29 2.67209
1516.32 3.54220
1516.35 4.90698
1516.37 7.21024
1516.40 11.4917
1516.42 15.2524
1516.43 20.4996
1516.45 29.1748
1516.46 42.2429
1516.48 67.9753
1516.50 84.5600
1516.52 67.9759
1516.54 42.2438
1516.56 26.4611
1516.58 17.2459
1516.60 11.9124
1516.61 8.78279
1516.63 6.62049
1516.65 5.15477
1516.69 3.39954
1516.73 2.38246
1516.76 1.77276
1516.84 1.08929
1516.91 0.732483
1516.99 0.528170
1517.14 0.310894
1517.43 0.145214
1517.73 0.0842061
1518.33 0.0391458
1518.92 0.0230125
1520.12 0.0113007
1521.31 0.00716576
1526.08 0.00320930
1535.62 0.00244292
1545.16 0.00264119
1554.70 0.00318473
1564.24 0.00418525
1573.78 0.00617518
1578.55 0.00809465
1583.32 0.0119118
1585.71 0.0159927
1588.09 0.0256971
1589.28 0.0379944
1590.48 0.0711300
1591.07 0.116002
1591.37 0.160148
1591.67 0.239814
1591.97 0.406950
1592.12 0.569920
1592.26 0.859747
1592.34 1.09974
1592.41 1.45234
1592.49 2.01831
1592.56 2.97870
1592.64 4.86798
1592.67 6.53663
1592.71 9.22373
1592.75 14.1103
1592.79 23.6137
1592.81 32.4778
1592.82 45.9215
1592.84 69.8986
1592.86 111.029
1592.88 176.286
1592.90 221.863
1592.92 176.287
1592.94 111.031
1592.96 63.6786
1592.99 39.1413
1593.01 25.9950
1593.03 18.3616
1593.05 13.6015
1593.08 10.4555
1593.12 6.76802
1593.17 4.69380
1593.21 3.44330
1593.31 2.08905
1593.40 1.39708
1593.49 1.00461
1593.67 0.593929
1593.85 0.394056
1594.04 0.282679
1594.40 0.169794
1594.77 0.116539
1595.13 0.0875778
1595.86 0.0590961
1597.32 0.0405427
1598.79 0.0367259
1601.71 0.0425304
1604.63 0.0612143
1606.09 0.0780917
1607.55 0.104297
1609.02 0.147658
1610.48 0.226475
1611.21 0.292581
1611.94 0.392934
1612.67 0.555947
1613.03 0.678416
1613.40 0.846445
1613.77 1.08653
1613.95 1.24685
1614.13 1.44425
1614.31 1.69402
1614.50 2.01259
1614.68 2.43268
1614.86 2.99537
1615.04 3.78262
1615.23 4.92416
1615.41 6.66696
1615.59 9.49355
1615.68 11.6483
1615.77 14.5734
1615.87 18.7202
1615.96 24.8450
1616.05 34.4805
1616.14 50.2007
1616.23 77.6948
1616.32 127.313
1616.41 204.354
1616.50 255.026
1616.59 203.414
1616.68 127.287
1616.76 80.1243
1616.85 52.9673
1616.93 36.9642
1617.02 27.1192
1617.10 20.5861
1617.19 16.1152
1617.36 10.6247
1617.53 7.49320
1617.70 5.56819
1618.04 3.40973
1618.37 2.29797
1618.71 1.65224
1619.05 1.24460
1619.39 0.971036
1620.07 0.638243
1620.75 0.451296
1621.43 0.335958
1622.10 0.259840
1623.46 0.168802
1624.82 0.118513
1626.17 0.0878409
1627.53 0.0677661
1630.24 0.0439570
1632.95 0.0309145
1635.66 0.0230060
1638.37 0.0178551
1643.80 0.0117778
1649.22 0.00847782
1654.65 0.00650294
1660.07 0.00524675
1670.92 0.00389486
1681.76 0.00357770
1687.19 0.00400797
1692.61 0.00579161
1695.32 0.00848493
1698.04 0.0163082
1699.39 0.0272551
1700.75 0.0582491
1701.43 0.101044
1701.77 0.143530
1702.10 0.220591
1702.44 0.383124
1702.61 0.542935
1702.78 0.826730
1702.87 1.06218
1702.95 1.41474
1703.04 1.97689
1703.12 2.93857
1703.21 4.84643
1703.25 6.55237
1703.29 9.33248
1703.33 14.4583
1703.35 18.6010
1703.38 24.7386
1703.40 34.3035
1703.42 50.1320
1703.44 78.0626
1703.46 131.459
1703.48 211.070
1703.50 263.144
1703.52 211.071
1703.54 131.461
1703.56 76.3195
1703.59 48.2301
1703.61 32.6441
1703.63 23.3640
1703.65 17.2575
1703.67 13.3777
1703.72 8.68346
1703.76 6.02905
1703.81 4.45239
1703.90 2.70847
1703.98 1.81086
1704.07 1.29964
1704.16 0.974926
1704.25 0.760354
1704.43 0.497563
1704.60 0.351576
1704.96 0.202512
1705.31 0.131677
1705.67 0.0927488
1706.38 0.0535060
1707.79 0.0250087
1709.21 0.0149160
1712.05 0.00762493
1714.88 0.00503691
1726.22 0.00246405
1748.90 0.00182011
1771.57 0.00190024
1794.25 0.00237488
1816.93 0.00358697
1828.27 0.00484782
1839.61 0.00718424
1845.28 0.00917083
1850.95 0.0122234
1856.62 0.0172636
1862.29 0.0264713
1865.12 0.0342419
1867.96 0.0461231
1870.79 0.0656219
1873.63 0.100956
1875.04 0.130565
1876.46 0.175467
1877.17 0.207214
1877.88 0.248459
1878.59 0.303404
1879.30 0.378731
1879.65 0.427540
1880.00 0.486254
1880.36 0.558176
1880.71 0.647036
1881.07 0.759275
1881.42 0.902963
1881.78 1.09157
1882.13 1.34588
1882.49 1.70139
1882.84 2.21613
1883.19 3.00293
1883.55 4.29040
1883.73 5.27012
1883.90 6.61136
1884.08 8.52220
1884.26 11.3627
1884.43 15.8086
1884.61 23.2076
1884.79 36.3557
1884.96 60.5778
1885.13 96.9876
1885.30 121.279
1885.47 96.9665
1885.64 60.5572
1885.75 43.3372
1885.86 31.7059
1885.98 23.8615
1886.09 18.4963
1886.32 11.8852
1886.55 8.21281
1886.77 5.98268
1887.00 4.54742
1887.45 2.87301
1887.91 1.97312
1888.36 1.43795
1888.82 1.09318
1889.27 0.859234
1890.18 0.570399
1891.09 0.405959
1892.00 0.303574
1892.91 0.235616
1894.73 0.153690
1896.54 0.108161
1898.36 0.0802529
1900.18 0.0619401
1903.81 0.0401430
1907.45 0.0281721
1911.08 0.0208989
1914.72 0.0161528
1921.99 0.0105417
1929.26 0.00748045
1936.53 0.00563106
1943.80 0.00443178
1958.34 0.00303682
1972.88 0.00233989
1980.15 0.00218615
1987.42 0.00228174
1994.69 0.00373218
1998.33 0.0100470
1999.24 0.0165739
2000.15 0.0349629
2000.60 0.0602485
2001.05 0.130104
2001.28 0.223909
2001.51 0.475086
2001.62 0.800633
2001.68 1.10547
2001.74 1.61116
2001.79 2.58243
2001.82 3.44810
2001.85 4.76293
2001.88 7.07495
2001.91 11.2459
2001.92 14.7482
2001.93 19.9660
2001.95 27.9615
2001.96 40.5798
2001.98 64.7240
2002.00 81.1667
2002.02 64.7246
2002.04 40.5805
2002.06 25.9434
2002.07 17.0887
2002.09 11.8897
2002.11 8.67231
2002.13 6.57355
2002.15 5.14004
2002.18 3.41181
2002.22 2.40057
2002.25 1.79189
2002.32 1.09888
2002.39 0.737747
2002.47 0.531425
2002.61 0.313311
2002.89 0.146158
2003.18 0.0846182
2003.75 0.0392034
2004.32 0.0229145
2006.60 0.00683932
2011.15 0.00268804
2020.27 0.00155106
2029.39 0.00127847
2038.50 0.00115343
2056.73 0.00111591
2065.85 0.00153728
2070.41 0.00338698
2072.68 0.0107221
2073.82 0.0389727
2074.11 0.0671619
2074.39 0.143740
2074.54 0.244715
2074.68 0.503683
2074.75 0.821250
2074.82 1.56365
2074.86 2.38653
2074.89 3.97520
2074.91 5.45062
2074.93 7.83560
2074.95 11.8999
2074.96 18.6740
2074.98 29.7336
2075.00 37.3113
2075.02 29.7338
2075.04 18.6743
2075.05 12.1995
2075.07 8.18530
2075.09 5.77033
2075.10 4.32144
2075.14 2.61917
2075.17 1.74421
2075.24 0.918685
2075.30 0.567813
2075.44 0.276856
2075.57 0.163415
2075.84 0.0765267
2076.10 0.0444227
2077.16 0.0121479
2079.29 0.00372519
2083.55 0.00156338
2092.05 0.000996703
2109.07 0.000826835
2143.10 0.000780719
2177.13 0.000947106
2194.15 0.00169593
2202.65 0.00467708
2204.78 0.00775090
2206.91 0.0164714
2207.97 0.0285790
2209.03 0.0626545
2209.57 0.109545
2210.10 0.239420
2210.36 0.414884
2210.50 0.585630
2210.63 0.888403
2210.76 1.50431
2210.83 2.08971
2210.90 3.07487
2210.96 4.99560
2211.00 6.66998
2211.03 9.33192
2211.06 13.9125
2211.09 22.6844
2211.11 30.5936
2211.13 42.0600
2211.14 61.5909
2211.16 91.7381
2211.18 146.415
2211.20 183.327
2211.22 146.415
2211.24 91.7393
2211.26 57.3991
2211.28 37.1608
2211.30 25.5439
2211.32 18.4719
2211.34 13.9133
2211.36 10.8272
2211.40 7.06311
2211.44 4.95553
2211.48 3.66302
2211.56 2.23033
2211.64 1.49782
2211.72 1.07436
2211.88 0.631390
2212.04 0.414054
2212.20 0.292932
2212.52 0.168558
2213.16 0.0768152
2213.79 0.0439859
2215.07 0.0201473
2216.35 0.0117040
2221.46 0.00348934
2231.67 0.00142723
2252.10 0.000951285
2272.53 0.00102271
2282.75 0.00158161
2287.86 0.00381740
2290.41 0.0126081
2291.69 0.0465988
2292.01 0.0806042
2292.32 0.173380
2292.48 0.296336
2292.64 0.614691
2292.72 1.01320
2292.80 1.96793
2292.84 3.03719
2292.88 5.24245
2292.90 7.31765
2292.92 10.7911
2292.94 17.0091
2292.96 28.2462
2292.98 44.8751
2293.00 56.4320
2293.02 44.8754
2293.04 28.2467
2293.06 16.2013
2293.08 10.1400
2293.10 6.81849
2293.12 4.85808
2293.17 2.76415
2293.21 1.78850
2293.29 0.913617
2293.38 0.551995
2293.55 0.264005
2293.72 0.154310
2294.06 0.0715653
2294.40 0.0414104
2295.76 0.0112652
2298.47 0.00348597
2303.91 0.00151591
2314.78 0.00103606
2336.52 0.000963604
2380.00 0.00110218
2423.48 0.00141320
2445.22 0.00179091
2456.09 0.00261508
2461.53 0.00545536
2464.25 0.0163990
2464.93 0.0275495
2465.60 0.0586800
2465.94 0.101151
2466.28 0.216981
2466.45 0.370774
2466.62 0.774479
2466.71 1.28126
2466.75 1.75044
2466.79 2.50666
2466.84 3.91701
2466.88 6.79844
2466.90 9.53317
2466.92 14.1555
2466.94 22.5550
2466.96 38.5987
2466.98 61.6742
2467.00 77.1593
2467.02 61.6746
2467.04 38.5992
2467.06 22.0228
2467.08 13.5941
2467.10 9.05517
2467.13 6.40934
2467.17 3.65863
2467.21 2.35058
2467.26 1.62097
2467.30 1.19161
2467.39 0.720767
2467.57 0.344209
2467.74 0.201768
2468.10 0.0939448
2468.45 0.0545984
2469.16 0.0257128
2469.86 0.0154167
2472.69 0.00535469
2478.34 0.00288263
2489.64 0.00245568
2512.24 0.00289171
2534.85 0.00380560
2557.45 0.00541782
2580.05 0.00858217
2591.36 0.0114551
2602.66 0.0161943
2613.96 0.0248707
2619.61 0.0322163
2622.44 0.0372098
2625.26 0.0434902
2628.09 0.0515454
2629.50 0.0564541
2630.91 0.0621055
2632.32 0.0686673
2633.74 0.0763408
2635.15 0.0853921
2636.56 0.0961640
2637.98 0.109143
2639.39 0.124964
2640.80 0.144529
2642.21 0.169113
2643.63 0.200695
2645.04 0.242427
2646.45 0.302060
2647.16 0.355094
2647.51 0.439918
2647.69 0.656490
2647.78 1.18075
2647.82 2.11628
2647.84 3.22973
2647.86 5.45820
2647.88 8.59363
2647.90 10.5532
2647.92 8.59599
2647.94 5.46300
2647.96 3.45661
2647.98 2.36053
2648.01 1.36079
2648.09 0.759284
2648.24 0.514007
2648.55 0.451607
2649.16 0.477727
2650.38 0.603383
2651.59 0.798325
2652.81 1.10610
2654.03 1.62775
2654.64 2.03301
2655.25 2.60023
2655.86 3.42334
2656.47 4.65549
2657.08 6.56144
2657.69 9.51060
2658.50 15.2108
2659.30 19.0040
2660.11 15.1990
2660.91 9.49916
2661.66 6.02695
2662.41 4.00953
2663.16 2.81066
2663.92 2.06158
2665.42 1.23113
2666.92 0.812421
2668.42 0.574457
2669.92 0.427041
2672.93 0.262096
2675.93 0.177007
2678.94 0.127577
2681.94 0.0963674
2684.94 0.0754260
2690.95 0.0499696
2696.96 0.0357058
2702.97 0.0269403
2708.98 0.0211940
2721.00 0.0144306
2733.01 0.0108570
2745.03 0.00888186
2757.05 0.00786293
2781.08 0.00793261
2793.10 0.00924412
2805.11 0.0122279
2811.12 0.0149239
2817.13 0.0191508
2823.14 0.0261912
2829.15 0.0390452
2832.15 0.0498316
2835.16 0.0661883
2838.16 0.0927057
2839.66 0.112614
2841.16 0.139880
2841.91 0.157458
2842.67 0.178620
2843.42 0.204410
2844.17 0.236279
2844.92 0.276290
2845.67 0.327465
2846.42 0.394355
2847.17 0.484085
2847.92 0.608291
2848.67 0.787014
2849.42 1.05708
2850.18 1.49195
2850.55 1.81609
2850.93 2.25436
2851.30 2.86887
2851.68 3.75795
2852.05 5.10832
2852.43 7.25034
2852.80 10.8342
2853.18 16.9101
2853.59 27.0626
2854.00 33.8027
2854.41 27.0264
2854.82 16.9005
2855.22 10.5247
2855.62 6.90142
2856.02 4.78891
2856.42 3.48719
2856.82 2.64038
2857.22 2.06306
2858.02 1.35443
2858.82 0.954102
2859.62 0.707634
2861.22 0.432881
2862.82 0.291753
2864.42 0.209926
2866.02 0.158331
2867.61 0.123734
2870.81 0.0816814
2874.01 0.0580731
2877.21 0.0435111
2880.41 0.0339004
2886.80 0.0223996
2893.20 0.0160417
2899.60 0.0121602
2905.99 0.00962013
2918.78 0.00663104
2931.58 0.00511523
2937.97 0.00477757
2944.37 0.00499009
2950.76 0.00821268
2953.96 0.0222222
2954.76 0.0366759
2955.56 0.0771995
2955.96 0.132642
2956.36 0.285195
2956.56 0.488611
2956.76 1.02737
2956.86 1.71149
2956.91 2.34196
2956.96 3.39414
2957.01 5.34047
2957.04 6.99552
2957.06 9.53169
2957.09 13.6710
2957.11 20.9841
2957.14 35.1626
2957.15 46.6295
2957.16 63.6981
2957.18 101.324
2957.20 127.234
2957.22 101.324
2957.24 63.5378
2957.26 36.8016
2957.28 23.0900
2957.31 15.5509
2957.33 11.0914
2957.35 8.27329
2957.37 6.39243
2957.42 4.13036
2957.46 2.88058
2957.50 2.12078
2957.59 1.28523
2957.68 0.861091
2957.77 0.617014
2957.94 0.361633
2958.30 0.168550
2958.65 0.0979142
2959.35 0.0459908
2960.06 0.0273943
2962.87 0.00907050
2968.51 0.00424868
2974.14 0.00321923
2979.78 0.00277289
3002.31 0.00207173
3047.38 0.00166806
3069.92 0.00169862
3092.45 0.00203171
3103.72 0.00255204
3114.99 0.00404103
3120.62 0.00610485
3126.25 0.0119381
3129.07 0.0200288
3131.89 0.0428696
3133.30 0.0744044
3134.00 0.105698
3134.70 0.162470
3135.41 0.282277
3135.76 0.399705
3136.11 0.609645
3136.29 0.782975
3136.46 1.04236
3136.64 1.45566
3136.82 2.17333
3136.99 3.58548
3137.08 4.86793
3137.17 6.97438
3137.26 10.7786
3137.30 13.9344
3137.34 18.6517
3137.39 26.0919
3137.43 38.6105
3137.48 61.2154
3137.52 104.572
3137.56 167.600
3137.60 209.044
3137.64 167.597
3137.68 104.440
3137.73 61.2155
3137.77 38.6113
3137.81 25.8798
3137.86 18.5212
3137.90 13.7642
3137.95 10.6620
3138.04 6.91337
3138.12 4.81439
3138.21 3.54030
3138.39 2.14673
3138.57 1.43529
3138.75 1.02832
3138.92 0.772748
3139.10 0.601886
3139.45 0.394410
3139.81 0.278709
3140.52 0.160468
3141.23 0.104447
3141.94 0.0735726
3143.35 0.0424853
3146.19 0.0199766
3149.03 0.0120384
3154.70 0.00638589
3160.37 0.00447540
3183.06 0.00342720
3194.41 0.00440966
3200.08 0.00552770
3205.76 0.00761696
3211.43 0.0121012
3214.27 0.0165601
3217.10 0.0246702
3218.52 0.0315015
3219.94 0.0419266
3221.36 0.0590220
3222.78 0.0900150
3223.48 0.115984
3224.19 0.155433
3224.90 0.219615
3225.61 0.334531
3225.97 0.429726
3226.32 0.572023
3226.68 0.799970
3227.03 1.19605
3227.38 1.98219
3227.56 2.69866
3227.74 3.88247
3227.92 6.05652
3228.01 7.88311
3228.09 10.6096
3228.18 15.0205
3228.27 22.5011
3228.36 36.5593
3228.45 63.7243
3228.52 102.432
3228.60 127.873
3228.68 101.888
3228.75 63.7201
3228.80 46.4175
3228.85 34.6746
3228.95 20.6991
3229.04 13.4942
3229.14 9.41442
3229.24 6.91326
3229.34 5.28013
3229.53 3.36528
3229.72 2.32252
3229.92 1.70014
3230.30 1.02178
3230.69 0.681304
3231.08 0.486786
3231.46 0.365391
3231.85 0.284614
3232.63 0.187145
3233.40 0.133016
3234.17 0.0998958
3234.95 0.0782194
3236.50 0.0526665
3238.04 0.0390388
3239.59 0.0312840
3241.14 0.0269406
3244.24 0.0251986
3247.33 0.0356707
3248.88 0.0540235
3250.43 0.107983
3251.21 0.182703
3251.59 0.256502
3251.98 0.389304
3252.37 0.665572
3252.56 0.932885
3252.75 1.39957
3252.85 1.77960
3252.95 2.33857
3253.04 3.20849
3253.14 4.64879
3253.24 7.35389
3253.29 9.70139
3253.33 13.2534
3253.38 19.2455
3253.43 29.7936
3253.48 50.6567
3253.50 68.7552
3253.53 96.2380
3253.56 154.178
3253.60 192.355
3253.64 154.176
3253.67 96.1046
3253.71 56.6320
3253.75 35.5306
3253.79 23.9193
3253.83 17.0522
3253.87 12.7142
3253.91 9.82031
3253.99 6.37323
3254.07 4.43967
3254.15 3.26598
3254.31 1.98276
3254.47 1.32709
3254.63 0.952209
3254.95 0.559250
3255.27 0.367916
3255.58 0.261202
3256.22 0.152028
3257.50 0.0715544
3258.77 0.0426186
3261.32 0.0213820
3263.87 0.0136691
3268.97 0.00787028
3274.06 0.00568655
3284.26 0.00402963
3294.45 0.00349108
3314.85 0.00349249
3335.24 0.00439348
3345.43 0.00529967
3355.63 0.00674814
3365.82 0.00918197
3376.02 0.0136573
3381.12 0.0174363
3386.21 0.0232068
3391.31 0.0326516
3396.41 0.0496922
3398.96 0.0638948
3401.51 0.0853439
3402.78 0.100437
3404.06 0.119952
3405.33 0.145819
3406.60 0.181122
3407.24 0.203851
3407.88 0.231111
3408.52 0.264244
3409.15 0.305060
3409.79 0.356213
3410.43 0.421271
3411.06 0.505883
3411.70 0.618690
3412.34 0.773935
3412.98 0.994851
3413.61 1.32436
3414.25 1.84547
3414.89 2.73526
3415.21 3.43388
3415.52 4.41880
3415.84 5.86644
3416.16 8.06213
3416.48 11.5282
3416.80 17.0013
3417.20 27.1902
3417.60 33.9749
3418.00 27.1822
3418.40 16.9935
3418.66 12.3598
3418.92 9.17589
3419.44 5.44797
3419.95 3.53904
3420.47 2.46467
3420.99 1.80656
3421.50 1.37857
3422.54 0.875356
3423.57 0.603653
3424.60 0.440970
3426.67 0.264567
3428.73 0.176189
3430.80 0.125753
3432.87 0.0942996
3434.93 0.0733790
3439.06 0.0481617
3443.20 0.0341258
3447.33 0.0255223
3451.46 0.0198723
3459.72 0.0131511
3467.99 0.00946275
3476.25 0.00722677
3484.52 0.00577313
3501.05 0.00407038
3517.57 0.00316273
3550.63 0.00232235
3583.69 0.00203558
3616.74 0.00202933
3649.80 0.00236452
3666.33 0.00329122
3674.59 0.00652296
3678.73 0.0190038
3679.76 0.0317547
3680.79 0.0675963
3681.31 0.116831
3681.83 0.252857
3682.08 0.436600
3682.34 0.928169
3682.47 1.56256
3682.54 2.16153
3682.60 3.16141
3682.67 5.08900
3682.70 6.74795
3682.73 9.35155
3682.76 13.9326
3682.79 22.2976
3682.81 29.3838
3682.83 40.0286
3682.84 56.5049
3682.86 82.1099
3682.88 131.313
3682.90 164.090
3682.92 131.314
3682.94 82.1104
3682.96 49.4508
3682.99 32.2436
3683.01 22.2981
3683.03 16.2022
3683.05 12.2499
3683.07 9.56159
3683.11 6.26563
3683.15 4.41000
3683.20 3.26752
3683.28 1.99625
3683.36 1.33808
3683.45 0.962220
3683.62 0.566040
3683.95 0.263517
3684.29 0.152383
3684.96 0.0704982
3685.64 0.0411425
3686.99 0.0198577
3688.33 0.0123299
3693.73 0.00506691
3704.51 0.00340599
3726.07 0.00346149
3747.64 0.00416374
3769.20 0.00538993
3790.76 0.00756403
3812.33 0.0120443
3823.11 0.0165960
3828.50 0.0203196
3833.89 0.0261359
3836.59 0.0305184
3839.28 0.0367184
3841.98 0.0461883
3844.67 0.0622991
3846.02 0.0753045
3847.37 0.0946428
3848.72 0.125586
3850.06 0.180321
3850.74 0.225425
3851.41 0.293015
3852.09 0.401219
3852.76 0.590894
3853.43 0.970698
3853.77 1.32262
3854.11 1.91380
3854.45 3.01892
3854.61 3.97278
3854.78 5.44298
3854.95 7.89848
3855.12 12.3214
3855.20 15.9479
3855.29 21.2277
3855.37 29.0868
3855.46 40.7724
3855.58 65.3766
3855.70 81.6202
3855.82 65.1570
3855.95 40.7690
3856.03 29.4292
3856.11 21.7688
3856.27 12.8413
3856.43 8.31500
3856.59 5.79198
3856.75 4.24502
3856.91 3.24582
3857.23 2.07081
3857.55 1.43798
3857.87 1.05979
3858.51 0.650719
3859.16 0.446579
3859.80 0.330696
3861.08 0.211751
3862.37 0.156077
3863.65 0.126692
3866.22 0.101046
3868.79 0.0947119
3871.36 0.0979211
3873.93 0.108002
3876.49 0.124918
3879.06 0.150384
3881.63 0.188106
3884.20 0.245251
3886.77 0.335747
3889.34 0.489129
3890.62 0.607967
3891.90 0.774101
3893.19 1.01378
3894.47 1.37110
3895.76 1.91879
3897.04 2.76026
3898.77 4.41167
3900.50 5.50970
3902.23 4.40631
3903.96 2.75478
3906.00 1.56186
3908.05 0.958844
3910.09 0.636751
3912.13 0.450225
3914.18 0.334039
3916.22 0.257418
3920.31 0.166511
3924.40 0.117594
3928.48 0.0904775
3930.53 0.0839916
3932.57 0.0873361
3933.59 0.100366
3934.61 0.144163
3935.12 0.207355
3935.63 0.384916
3935.89 0.625069
3936.02 0.858170
3936.15 1.26553
3936.27 2.09202
3936.34 2.86283
3936.40 4.13915
3936.46 6.57081
3936.50 8.67737
3936.53 11.9682
3936.56 17.4886
3936.59 27.6524
3936.61 36.1329
3936.62 48.6851
3936.64 67.7507
3936.66 96.2983
3936.68 154.397
3936.70 192.694
3936.72 154.397
3936.74 96.2986
3936.76 67.7511
3936.78 48.6853
3936.79 36.1331
3936.81 28.0953
3936.84 17.7171
3936.87 12.2319
3936.90 8.84050
3936.93 6.73298
3937.00 4.27447
3937.06 2.93897
3937.12 2.14782
3937.25 1.30272
3937.37 0.878622
3937.50 0.639510
3937.75 0.390631
3938.25 0.204131
3938.75 0.135945
3939.76 0.0846627
3940.76 0.0651465
3942.77 0.0488220
3944.77 0.0411480
3952.80 0.0274218
3960.83 0.0207411
3968.85 0.0165937
3984.91 0.0122201
3992.93 0.0126583
3996.95 0.0195187
3998.95 0.0482972
3999.46 0.0776707
3999.96 0.158980
4000.21 0.268642
4000.46 0.563616
4000.59 0.947853
4000.71 1.91323
4000.77 3.08077
4000.84 5.67151
4000.87 8.47224
4000.90 13.6124
4000.91 18.1657
4000.93 24.6134
4000.95 35.3600
4000.96 51.2768
4000.98 81.9763
4001.00 102.589
4001.02 81.9765
4001.04 51.2772
4001.06 34.5302
4001.07 23.5897
4001.09 16.8470
4001.11 12.7303
4001.14 7.81197
4001.17 5.24321
4001.24 2.81108
4001.30 1.74485
4001.44 0.856474
4001.57 0.510598
4001.83 0.243097
4002.10 0.143930
4002.63 0.0704030
4003.16 0.0439207
4005.28 0.0176128
4009.51 0.0105898
4017.99 0.00839454
4034.94 0.00760616
4051.88 0.00803794
4068.83 0.00979957
4085.78 0.0143323
4094.25 0.0190370
4102.73 0.0276546
4106.96 0.0348768
4111.20 0.0458049
4115.44 0.0634499
4117.56 0.0766457
4119.67 0.0946401
4120.73 0.106212
4121.79 0.120092
4122.85 0.136952
4123.91 0.157708
4124.97 0.183679
4126.03 0.216695
4127.09 0.259579
4128.15 0.316663
4129.21 0.395006
4130.27 0.506261
4131.33 0.671633
4132.38 0.931915
4133.44 1.37329
4133.97 1.71719
4134.50 2.19948
4135.03 2.90149
4135.56 3.95590
4136.09 5.59464
4136.62 8.14211
4137.31 13.0041
4138.00 16.2342
4138.69 12.9986
4139.38 8.13674
4139.96 5.38772
4140.55 3.70148
4141.13 2.65573
4141.71 1.98222
4142.88 1.21063
4144.04 0.810465
4145.21 0.578620
4146.37 0.433317
4148.70 0.268719
4151.04 0.182879
4153.37 0.132627
4155.70 0.100733
4158.03 0.0792458
4162.69 0.0530108
4167.35 0.0382286
4172.01 0.0291003
4176.68 0.0230839
4186.00 0.0159322
4195.32 0.0120698
4213.97 0.00855102
4232.62 0.00785166
4241.94 0.00847305
4251.27 0.0102381
4260.59 0.0146151
4265.25 0.0191636
4269.91 0.0275599
4272.24 0.0346593
4274.57 0.0454975
4276.91 0.0632118
4279.24 0.0950835
4281.57 0.161370
4282.73 0.225318
4283.32 0.272900
4283.61 0.302575
4283.90 0.337422
4284.48 0.428317
4284.77 0.488406
4285.06 0.561861
4285.36 0.653615
4285.65 0.769384
4285.94 0.918809
4286.23 1.11619
4286.52 1.38528
4286.81 1.76203
4287.10 2.31323
4287.39 3.16223
4287.69 4.56448
4287.83 5.62510
4287.98 7.06466
4288.12 9.09821
4288.27 12.0052
4288.41 16.3019
4288.56 22.5479
4288.78 36.1284
4289.00 45.1343
4289.22 36.0582
4289.44 22.5435
4289.65 14.3583
4289.85 9.57597
4290.05 6.72500
4290.26 4.93946
4290.67 2.95539
4291.07 1.95463
4291.48 1.38330
4291.89 1.02906
4292.70 0.632692
4293.52 0.427745
4294.33 0.308663
4295.15 0.233382
4295.96 0.182806
4297.60 0.121184
4299.23 0.0865537
4300.86 0.0651579
4302.49 0.0510370
4305.75 0.0341251
4309.01 0.0247776
4312.27 0.0190718
4315.53 0.0153352
4322.05 0.0109033
4328.58 0.00848221
4341.62 0.00609124
4354.67 0.00504189
4367.71 0.00455548
4393.80 0.00437579
4419.89 0.00485377
4445.98 0.00603301
4472.07 0.00853729
4485.11 0.0114253
4491.64 0.0165807
4494.90 0.0325939
4495.71 0.0484037
4496.53 0.0922926
4496.94 0.152115
4497.34 0.315745
4497.55 0.533785
4497.75 1.10982
4497.85 1.83900
4497.90 2.50919
4497.96 3.62435
4498.01 5.67789
4498.03 7.45739
4498.06 10.0661
4498.08 14.4711
4498.11 21.8753
4498.13 35.8294
4498.15 47.9327
4498.16 64.1522
4498.18 102.341
4498.20 128.293
4498.22 102.341
4498.24 64.1526
4498.26 40.8679
4498.28 26.8884
4498.30 18.6952
4498.32 13.6312
4498.36 8.07759
4498.40 5.30651
4498.44 3.74204
4498.48 2.77724
4498.56 1.71153
4498.72 0.835996
4498.88 0.496650
4499.20 0.237772
4499.51 0.142455
4500.15 0.0721466
4500.79 0.0470778
4503.33 0.0230150
4508.42 0.0185235
4513.52 0.0195940
4518.61 0.0219749
4521.15 0.0235200
4523.70 0.0253089
4526.24 0.0273678
4528.79 0.0297352
4531.34 0.0324659
4533.88 0.0356267
4536.43 0.0393089
4538.97 0.0436249
4541.52 0.0487284
4544.06 0.0548163
4546.61 0.0621550
4549.15 0.0711032
4551.70 0.0821719
4554.25 0.0960681
4556.79 0.113846
4559.34 0.137057
4561.88 0.168148
4564.43 0.211015
4566.97 0.272321
4569.52 0.363830
4572.06 0.508010
4574.61 0.749971
4577.16 1.18554
4578.43 1.53070
4579.70 2.00093
4582.05 3.20164
4584.40 4.00074
4586.75 3.19740
4589.10 1.99686
4591.03 1.33620
4592.95 0.925851
4594.88 0.668559
4596.81 0.501268
4600.66 0.308272
4604.51 0.207270
4608.37 0.148488
4612.22 0.111499
4619.93 0.0694880
4627.63 0.0475217
4635.34 0.0346536
4643.05 0.0264907
4650.75 0.0210022
4666.16 0.0143434
4681.58 0.0106631
4696.99 0.00848598
4712.40 0.00718216
4743.23 0.00625891
4758.64 0.00661439
4774.05 0.00787662
4789.47 0.0111573
4797.17 0.0145999
4804.88 0.0209555
4808.73 0.0263149
4812.59 0.0344631
4816.44 0.0477009
4820.29 0.0713019
4822.22 0.0907260
4824.15 0.119676
4825.11 0.139826
4826.07 0.165617
4827.04 0.199405
4828.00 0.244870
4828.48 0.273770
4828.96 0.308158
4829.44 0.349517
4829.93 0.399752
4830.41 0.461879
4830.89 0.539633
4831.37 0.639207
4831.85 0.769072
4832.33 0.943865
4832.82 1.18692
4833.30 1.54047
4833.78 2.08687
4834.26 3.02266
4834.50 3.78415
4834.74 4.94032
4834.98 6.93548
4835.10 8.60146
4835.22 11.1760
4835.34 15.6974
4835.46 24.8843
4835.52 33.6927
4835.58 48.9763
4835.64 78.1284
4835.67 102.627
4835.70 137.661
4835.75 216.723
4835.80 269.515
4835.82 260.716
4835.86 201.465
4835.90 138.739
4835.93 102.321
4835.96 78.1473
4836.02 49.8082
4836.09 35.6720
4836.15 28.0716
4836.27 20.8241
4836.40 18.0611
4836.90 15.9054
4837.44 12.0312
4837.98 7.46844
4838.40 5.14110
4838.81 3.65060
4839.22 2.68806
4839.64 2.04642
4840.47 1.28663
4841.29 0.877961
4842.12 0.635540
4842.95 0.480741
4844.61 0.302302
4846.26 0.207555
4847.92 0.151397
4849.57 0.115426
4851.23 0.0910207
4854.54 0.0609874
4857.85 0.0439150
4861.17 0.0332920
4864.48 0.0262374
4871.10 0.0177385
4877.72 0.0130111
4890.97 0.00821939
4904.22 0.00600088
4917.47 0.00491251
4930.71 0.00490556
4937.34 0.00729195
4940.65 0.0172918
4942.30 0.0562942
4942.72 0.0955887
4943.13 0.203723
4943.34 0.347964
4943.55 0.730264
4943.65 1.21959
4943.75 2.41305
4943.81 3.80945
4943.86 6.75127
4943.88 9.70648
4943.91 14.9551
4943.93 25.2167
4943.95 34.0045
4943.96 46.2725
4943.98 74.3643
4944.00 92.6185
4944.02 74.3644
4944.04 46.2728
4944.06 32.4269
4944.07 23.6190
4944.08 17.7197
4944.10 13.6754
4944.13 8.75016
4944.15 6.03112
4944.21 3.30402
4944.27 2.08876
4944.38 1.04275
4944.49 0.623182
4944.72 0.295722
4944.94 0.172949
4945.40 0.0812872
4945.85 0.0481380
4947.65 0.0152731
4951.27 0.00702491
4958.50 0.00609679
4965.72 0.0129209
4967.53 0.0204096
4969.34 0.0417340
4970.24 0.0712746
4971.14 0.153884
4971.60 0.266601
4972.05 0.574430
4972.27 0.983106
4972.39 1.37454
4972.50 2.05632
4972.61 3.40431
4972.67 4.64841
4972.73 6.66660
4972.78 10.4107
4972.81 13.4916
4972.84 18.1182
4972.87 25.4610
4972.89 37.9235
4972.92 60.7056
4972.95 104.500
4972.98 167.034
4973.00 208.934
4973.03 167.034
4973.05 104.501
4973.08 62.9675
4973.10 40.3707
4973.13 27.2113
4973.16 19.6347
4973.18 14.6192
4973.21 11.3801
4973.26 7.42990
4973.31 5.18475
4973.37 3.81808
4973.47 2.32344
4973.58 1.55489
4973.68 1.11614
4973.89 0.655093
4974.31 0.304379
4974.73 0.175827
4975.58 0.0812301
4976.42 0.0473380
4978.10 0.0227397
4979.79 0.0140191
4986.53 0.00546271
4993.26 0.00381209
5000.00 0.00320526
5019.87 0.00265114
5039.73 0.00254251
5079.46 0.00272221
5119.19 0.00332223
5158.92 0.00459826
5178.79 0.00571960
5198.65 0.00745682
5218.52 0.0103268
5238.38 0.0155435
5248.31 0.0199141
5258.25 0.0265459
5268.18 0.0373195
5278.11 0.0565673
5283.08 0.0724614
5288.04 0.0962513
5293.01 0.134194
5295.49 0.162262
5296.73 0.179745
5297.98 0.200207
5299.22 0.224406
5300.46 0.253282
5301.70 0.288119
5302.94 0.330630
5304.18 0.383326
5305.43 0.449597
5306.67 0.534647
5307.91 0.646018
5309.15 0.795905
5310.39 1.00361
5311.63 1.30288
5312.87 1.75363
5314.12 2.47339
5315.36 3.70315
5315.98 4.65745
5316.60 5.97742
5317.22 7.82437
5317.84 10.3855
5318.92 16.5905
5320.00 20.7137
5321.08 16.5823
5322.16 10.3777
5323.33 6.14276
5324.51 3.88392
5325.68 2.62819
5326.85 1.88134
5328.03 1.40703
5329.20 1.08990
5331.55 0.707520
5333.90 0.496169
5336.24 0.368039
5340.94 0.229188
5345.63 0.164063
5350.32 0.142369
5352.67 0.155079
5353.84 0.175723
5355.02 0.218382
5356.19 0.314091
5356.78 0.409440
5357.36 0.579425
5357.95 0.926081
5358.24 1.25076
5358.54 1.80205
5358.83 2.85331
5358.98 3.77339
5359.12 5.21326
5359.27 7.67632
5359.42 12.2659
5359.49 16.2289
5359.56 22.1357
5359.64 31.3185
5359.71 45.6673
5359.81 73.1316
5359.90 91.4818
5360.00 73.1276
5360.09 45.6641
5360.19 27.4285
5360.29 17.5319
5360.39 11.9624
5360.49 8.64194
5360.59 6.49443
5360.69 5.06226
5360.89 3.31302
5361.09 2.33390
5361.29 1.73855
5361.68 1.07955
5362.08 0.742125
5362.48 0.547508
5363.28 0.342248
5364.08 0.241715
5364.87 0.184830
5366.47 0.125656
5368.06 0.0966635
5369.65 0.0802200
5372.84 0.0639269
5376.03 0.0599260
5379.22 0.0719657
5380.81 0.0954551
5381.61 0.120175
5382.40 0.165940
5383.20 0.263372
5383.60 0.359067
5384.00 0.529157
5384.40 0.878066
5384.60 1.20754
5384.79 1.77322
5384.99 2.86643
5385.09 3.84618
5385.19 5.40620
5385.29 8.16605
5385.34 10.3896
5385.39 13.5402
5385.44 18.3929
5385.49 26.1116
5385.52 31.7011
5385.54 38.9878
5385.57 48.5173
5385.59 60.5799
5385.65 96.7329
5385.70 121.129
5385.73 113.696
5385.76 96.7309
5385.81 60.5777
5385.85 42.4954
5385.89 30.4613
5385.93 22.5638
5385.97 17.3522
5386.05 10.9949
5386.13 7.53318
5386.21 5.46583
5386.28 4.14065
5386.44 2.60883
5386.60 1.79406
5386.76 1.31090
5387.07 0.791469
5387.39 0.532596
5387.71 0.386064
5388.02 0.294871
5388.34 0.234267
5388.97 0.161099
5389.60 0.120331
5390.87 0.0785433
5392.13 0.0584514
5393.40 0.0471124
5395.93 0.0351696
5400.99 0.0256114
5406.05 0.0221387
5411.11 0.0220136
5416.17 0.0279430
5418.70 0.0382070
5421.23 0.0686710
5422.49 0.111084
5423.76 0.228837
5424.39 0.387082
5424.71 0.539944
5425.02 0.808988
5425.34 1.34972
5425.50 1.85213
5425.66 2.69810
5425.81 4.28473
5425.89 5.65369
5425.97 7.78337
5426.05 11.3349
5426.13 17.8163
5426.17 23.2581
5426.21 31.0444
5426.25 43.0567
5426.29 60.6574
5426.34 97.0506
5426.40 121.314
5426.46 97.0493
5426.51 60.6568
5426.57 35.5418
5426.64 22.3059
5426.70 15.0224
5426.76 10.7139
5426.82 7.99162
5426.88 6.17510
5427.01 3.99110
5427.13 2.78491
5427.26 2.05184
5427.50 1.24815
5427.75 0.838179
5428.00 0.603126
5428.49 0.356442
5429.48 0.169663
5430.47 0.101303
5432.46 0.0508081
5434.44 0.0325332
5438.40 0.0189066
5442.36 0.0137477
5450.28 0.00949211
5458.20 0.00755955
5474.05 0.00556026
5489.89 0.00443480
5521.58 0.00313703
5553.27 0.00240533
5616.65 0.00164107
5680.03 0.00129084
5743.41 0.00114377
5806.79 0.00115089
5870.17 0.00142230
5886.01 0.00162361
5901.86 0.00206930
5917.70 0.00399229
5925.63 0.0110727
5929.59 0.0385945
5930.58 0.0666696
5931.57 0.145160
5932.06 0.252141
5932.56 0.545348
5932.81 0.935605
5932.93 1.31028
5933.05 1.95754
5933.18 3.24862
5933.24 4.43078
5933.30 6.38968
5933.36 9.97425
5933.39 12.9880
5933.42 17.5532
5933.46 24.8845
5933.49 37.5337
5933.52 61.1946
5933.55 105.921
5933.57 170.626
5933.60 211.845
5933.63 170.626
5933.65 105.920
5933.68 66.7407
5933.70 43.5440
5933.73 30.0956
5933.76 21.8487
5933.78 16.5041
5933.81 12.8714
5933.86 8.42258
5933.91 5.92152
5933.96 4.38351
5934.07 2.68568
5934.17 1.80466
5934.28 1.29508
5934.48 0.761247
5934.90 0.353756
5935.31 0.204012
5936.14 0.0936582
5936.97 0.0541243
5938.63 0.0254190
5940.29 0.0152789
5946.93 0.00553019
5960.20 0.00347169
5973.48 0.00371743
5986.76 0.00482212
6000.03 0.00740185
6006.67 0.00999192
6013.31 0.0147033
6016.63 0.0186606
6019.95 0.0246873
6023.27 0.0345298
6026.58 0.0522598
6028.24 0.0670217
6029.90 0.0892806
6031.56 0.125176
6033.22 0.188520
6034.05 0.240201
6034.88 0.316617
6035.30 0.369328
6035.71 0.436400
6036.13 0.523534
6036.54 0.639221
6036.96 0.798177
6037.37 1.02414
6037.79 1.36010
6038.20 1.88746
6038.62 2.78369
6038.82 3.48341
6039.03 4.46207
6039.24 5.89134
6039.45 8.03267
6039.65 11.3526
6039.86 16.5216
6040.13 26.4375
6040.40 33.0081
6040.67 26.3956
6040.94 16.4883
6041.11 12.1605
6041.28 9.14104
6041.61 5.53117
6041.94 3.63720
6042.27 2.55228
6042.60 1.88191
6042.94 1.44173
6043.60 0.920862
6044.26 0.637261
6044.93 0.466955
6046.26 0.281454
6047.59 0.188080
6048.91 0.134705
6050.24 0.101340
6051.57 0.0791403
6054.23 0.0523457
6056.88 0.0374264
6059.54 0.0282865
6062.20 0.0222949
6067.51 0.0151935
6072.82 0.0113367
6083.45 0.00759430
6094.08 0.00604651
6104.71 0.00550232
6115.33 0.00607518
6120.65 0.00913303
6123.30 0.0210311
6124.63 0.0667595
6125.30 0.236819
6125.46 0.400547
6125.63 0.825803
6125.71 1.35264
6125.79 2.60275
6125.84 4.01004
6125.88 6.80316
6125.90 9.45453
6125.92 13.8577
6125.94 21.6561
6125.96 35.7685
6125.98 57.3691
6126.00 71.5916
6126.02 57.3692
6126.04 35.7686
6126.05 26.1212
6126.07 19.7872
6126.09 12.1187
6126.11 7.91076
6126.14 5.59621
6126.19 3.16237
6126.24 2.03725
6126.33 1.03186
6126.43 0.624496
6126.63 0.299720
6126.82 0.177045
6127.60 0.0505543
6129.15 0.0169666
6132.27 0.00844710
6138.49 0.00665559
6150.95 0.00757110
6163.40 0.0113064
6169.63 0.0191796
6172.74 0.0433768
6173.52 0.0669821
6174.30 0.132067
6174.69 0.220099
6175.08 0.459701
6175.27 0.776510
6175.46 1.59648
6175.56 2.62756
6175.66 5.06460
6175.71 7.81182
6175.76 13.3096
6175.78 18.6729
6175.81 27.2578
6175.83 42.3776
6175.85 71.2010
6175.88 114.061
6175.90 142.287
6175.92 114.061
6175.95 71.2012
6175.96 51.9230
6175.98 38.4434
6176.01 23.1188
6176.03 15.1494
6176.06 10.6086
6176.12 5.98044
6176.18 3.81746
6176.30 1.92839
6176.41 1.16599
6176.65 0.561284
6176.88 0.333529
6177.34 0.162115
6177.81 0.0999766
6179.67 0.0395845
6183.39 0.0283989
6187.11 0.0331446
6190.83 0.0458466
6192.69 0.0569067
6194.55 0.0736989
6196.41 0.100768
6198.27 0.148316
6200.13 0.243612
6201.06 0.331797
6201.99 0.479725
6202.92 0.756020
6203.39 0.992886
6203.85 1.35925
6204.32 1.96524
6204.78 3.05769
6205.02 3.95243
6205.25 5.24496
6205.48 7.16899
6205.71 10.0035
6206.06 16.0104
6206.40 20.0171
6206.74 16.0074
6207.09 10.0016
6207.44 6.08190
6207.79 3.92076
6208.14 2.68995
6208.49 1.94412
6208.85 1.46475
6209.20 1.14084
6209.90 0.746496
6210.61 0.526058
6211.31 0.391026
6212.72 0.241624
6214.13 0.165328
6215.53 0.121374
6218.35 0.0754677
6221.16 0.0534742
6223.98 0.0414926
6229.61 0.0301873
6235.24 0.0261415
6240.87 0.0254811
6252.13 0.0306442
6254.94 0.0333214
6257.76 0.0367162
6260.57 0.0409937
6263.39 0.0463912
6266.20 0.0532513
6267.61 0.0573799
6269.02 0.0620760
6270.43 0.0674492
6271.83 0.0736189
6274.65 0.0890451
6277.47 0.110236
6280.28 0.140330
6283.10 0.184956
6285.91 0.254868
6287.32 0.305539
6288.73 0.372521
6290.13 0.463409
6291.54 0.590066
6292.95 0.772432
6294.36 1.04328
6295.76 1.45719
6297.17 2.09013
6299.09 3.34327
6301.00 4.17767
6302.92 3.34056
6304.83 2.08742
6306.57 1.33906
6308.32 0.898195
6310.06 0.633465
6311.80 0.466776
6315.29 0.280553
6318.78 0.186022
6322.26 0.132032
6325.75 0.0984839
6332.72 0.0608116
6339.69 0.0413013
6346.67 0.0299251
6353.64 0.0227178
6360.61 0.0178666
6374.56 0.0119415
6388.50 0.00859670
6402.45 0.00652554
6416.39 0.00515652
6444.28 0.00353029
6472.17 0.00269107
6500.06 0.00250797
6514.01 0.00369201
6520.98 0.00897823
6524.47 0.0299881
6525.34 0.0514515
6526.21 0.111396
6526.64 0.193101
6527.08 0.416775
6527.30 0.713129
6527.52 1.49047
6527.63 2.46543
6527.73 4.82020
6527.79 7.51756
6527.84 13.0506
6527.87 18.3050
6527.90 27.1945
6527.92 43.3795
6527.95 75.1580
6527.98 120.625
6528.00 150.265
6528.02 120.625
6528.05 75.1581
6528.07 51.5498
6528.09 36.1650
6528.11 26.3487
6528.12 20.1605
6528.16 12.4637
6528.20 8.47961
6528.27 4.58388
6528.35 2.85515
6528.50 1.40881
6528.65 0.836015
6528.95 0.392732
6529.25 0.227984
6529.85 0.104981
6530.45 0.0606451
6532.84 0.0167921
6537.64 0.00556327
6547.23 0.00274991
6556.82 0.00233215
6566.41 0.00242429
6576.00 0.00302356
6585.59 0.00504440
6590.39 0.00795617
6595.18 0.0162703
6597.58 0.0277969
6599.98 0.0600856
6601.18 0.104156
6601.78 0.147506
6602.38 0.225092
6602.98 0.386002
6603.28 0.540529
6603.58 0.809268
6603.88 1.34411
6604.03 1.83448
6604.18 2.64116
6604.33 4.12692
6604.40 5.37804
6604.48 7.27635
6604.55 10.3322
6604.63 15.6243
6604.70 25.5838
6604.77 45.0150
6604.84 72.0106
6604.90 90.0013
6604.96 72.0091
6605.03 44.9785
6605.07 32.9118
6605.11 24.6891
6605.18 14.8103
6605.26 9.68394
6605.34 6.76904
6605.42 4.97708
6605.50 3.80476
6605.66 2.42256
6605.82 1.67345
6605.97 1.22379
6606.29 0.735078
6606.61 0.489692
6606.92 0.349452
6607.55 0.203620
6608.19 0.133303
6608.82 0.0941220
6610.08 0.0543003
6612.61 0.0251017
6615.14 0.0146788
6620.19 0.00712437
6625.25 0.00444209
6635.36 0.00249423
6645.47 0.00179455
6665.68 0.00128291
6685.90 0.00112736
6706.12 0.00114933
6726.34 0.00147909
6746.56 0.00360041
6751.62 0.00582556
6756.67 0.0121427
6759.20 0.0208931
6761.73 0.0454368
6762.99 0.0790122
6763.62 0.112076
6764.25 0.171374
6764.88 0.294739
6765.20 0.413628
6765.52 0.622151
6765.83 1.03901
6765.99 1.42410
6766.15 2.06846
6766.31 3.26530
6766.39 4.28745
6766.46 5.86084
6766.54 8.44533
6766.62 13.0558
6766.70 22.1322
6766.74 29.8399
6766.78 41.0905
6766.84 65.9059
6766.90 82.1535
6766.96 65.9045
6767.02 41.0557
6767.07 28.4551
6767.11 20.2904
6767.16 14.9698
6767.20 11.4034
6767.29 7.16325
6767.38 4.87791
6767.47 3.52234
6767.56 2.65755
6767.74 1.66252
6767.92 1.13561
6768.10 0.824073
6768.46 0.490096
6768.82 0.324177
6769.18 0.230429
6769.90 0.133602
6770.62 0.0871565
6771.34 0.0614216
6772.78 0.0353387
6775.67 0.0162995
6778.55 0.00952963
6784.31 0.00464479
6790.07 0.00292696
6801.60 0.00171963
6813.12 0.00135733
6836.17 0.00174543
6847.70 0.00453929
6853.46 0.0158194
6854.90 0.0273652
6856.34 0.0596846
6857.07 0.103857
6857.79 0.224967
6858.15 0.385930
6858.51 0.810184
6858.69 1.34563
6858.78 1.83651
6858.87 2.65111
6858.96 4.14535
6859.00 5.40508
6859.05 7.31903
6859.09 10.4067
6859.14 15.7731
6859.18 25.9393
6859.20 34.6240
6859.23 46.9698
6859.26 75.1636
6859.30 93.8797
6859.34 75.1629
6859.37 46.9061
6859.42 27.2311
6859.46 16.9439
6859.50 11.3446
6859.54 8.05733
6859.58 5.99142
6859.63 4.61827
6859.71 2.97380
6859.79 2.06905
6859.88 1.52058
6860.05 0.921481
6860.38 0.441098
6860.72 0.257744
6861.39 0.119240
6862.06 0.0686106
6863.40 0.0314046
6864.74 0.0181079
6870.10 0.00505400
6880.82 0.00171583
6902.26 0.000850675
6945.15 0.000640363
6988.04 0.000792003
7009.49 0.00155656
7020.21 0.00455753
7025.57 0.0163186
7028.25 0.0619052
7028.92 0.107691
7029.59 0.233232
7029.92 0.399917
7030.26 0.838575
7030.43 1.39348
7030.59 2.73404
7030.68 4.27149
7030.76 7.52846
7030.80 10.6861
7030.85 16.1484
7030.89 26.4076
7030.93 46.0604
7030.97 74.1124
7031.00 92.1230
7031.04 73.2816
7031.07 46.0602
7031.11 26.7469
7031.15 16.6793
7031.19 11.1842
7031.23 7.95183
7031.31 4.56390
7031.39 2.95574
7031.55 1.51058
7031.71 0.915251
7032.03 0.437968
7032.35 0.256239
7032.98 0.118575
7033.62 0.0682348
7036.17 0.0180233
7041.27 0.00509202
7051.46 0.00198514
7061.66 0.00233425
7066.76 0.00595425
7069.31 0.0205571
7070.58 0.0766329
7071.22 0.282441
7071.38 0.479105
7071.54 0.978497
7071.62 1.58834
7071.69 2.96990
7071.73 4.45789
7071.77 7.34835
7071.81 13.8861
7071.83 20.3897
7071.85 31.0003
7071.88 49.6862
7071.90 62.0005
7071.92 49.6862
7071.95 31.0004
7071.96 22.6009
7071.98 17.0553
7072.00 10.2193
7072.03 6.67647
7072.06 4.66404
7072.12 2.61957
7072.18 1.66717
7072.29 0.841796
7072.41 0.507497
7072.64 0.240962
7072.87 0.140634
7073.80 0.0376224
7075.65 0.0102784
7079.35 0.00321864
7086.75 0.00141504
7101.55 0.00100096
7131.15 0.00128424
7145.95 0.00188197
7160.76 0.00363641
7168.16 0.00608900
7175.56 0.0130205
7179.26 0.0225757
7181.11 0.0320461
7182.96 0.0491946
7184.81 0.0852683
7185.73 0.120501
7186.66 0.183238
7187.12 0.234892
7187.58 0.311713
7188.05 0.433724
7188.51 0.643451
7188.97 1.05194
7189.20 1.41723
7189.43 2.00825
7189.67 3.05801
7189.78 3.91104
7189.90 5.14702
7190.01 7.05488
7190.13 10.1042
7190.24 15.3340
7190.36 24.3523
7190.48 38.9636
7190.60 48.7032
7190.72 38.9616
7190.84 24.3511
7190.93 17.3030
7191.01 12.5837
7191.09 9.42608
7191.18 7.26451
7191.35 4.63766
7191.51 3.19761
7191.68 2.32485
7191.85 1.76545
7192.18 1.11274
7192.52 0.763690
7192.85 0.555995
7193.19 0.422650
7193.52 0.332044
7194.19 0.220294
7194.86 0.156839
7195.53 0.117344
7196.20 0.0911115
7197.55 0.0595156
7198.89 0.0419659
7201.57 0.0241542
7204.25 0.0157515
7206.93 0.0111356
7212.29 0.00649757
7223.01 0.00314671
7233.73 0.00196447
7255.18 0.00111892
7276.62 0.000827906
7319.51 0.000640032
7362.40 0.000609433
7405.29 0.000649667
7448.18 0.000769239
7469.62 0.000884656
7491.07 0.00108864
7501.79 0.00127186
7512.51 0.00163028
7523.23 0.00299688
7528.60 0.00779118
7531.28 0.0262181
7532.62 0.0969197
7532.95 0.167381
7533.29 0.358682
7533.45 0.610590
7533.62 1.25689
7533.71 2.05604
7533.79 3.93692
7533.83 5.99855
7533.87 10.1329
7533.89 13.9055
7533.92 20.0146
7533.94 30.4517
7533.96 48.0187
7533.98 76.5125
7534.00 95.9633
7534.02 76.5125
7534.04 48.0189
7534.06 30.4518
7534.09 20.0148
7534.11 13.9057
7534.13 10.1330
7534.17 5.99868
7534.21 3.93704
7534.30 2.05613
7534.38 1.25698
7534.55 0.608454
7534.71 0.358756
7535.05 0.167463
7535.38 0.0970160
7536.72 0.0263833
7539.40 0.00811037
7544.76 0.00363663
7555.48 0.00302877
7566.20 0.00375118
7576.92 0.00538880
7582.28 0.00681131
7587.64 0.00899969
7593.00 0.0125986
7598.36 0.0191224
7601.04 0.0245797
7603.72 0.0328512
7606.40 0.0462619
7609.08 0.0701447
7611.76 0.119066
7613.10 0.165477
7613.77 0.199598
7614.44 0.245460
7615.11 0.309106
7615.78 0.400986
7616.12 0.462991
7616.45 0.540433
7616.79 0.638827
7617.12 0.766341
7617.46 0.935465
7617.79 1.16598
7618.13 1.49054
7618.46 1.96558
7618.80 2.69368
7619.13 3.87058
7619.47 5.87798
7619.80 9.38528
7620.15 15.0098
7620.50 18.7562
7620.85 15.0081
7621.20 9.38361
7621.42 6.80426
7621.65 5.03935
7622.10 2.98458
7622.55 1.93590
7623.01 1.34604
7623.46 0.985452
7623.91 0.751399
7624.81 0.476819
7625.72 0.328587
7626.62 0.240009
7628.43 0.144003
7630.24 0.0959025
7632.05 0.0684660
7633.86 0.0513609
7635.67 0.0399916
7639.28 0.0262818
7642.90 0.0186549
7646.52 0.0139797
7650.14 0.0109113
7657.37 0.00726335
7664.61 0.00526488
7671.84 0.00405785
7679.08 0.00327908
7693.55 0.00239477
7708.02 0.00201878
7722.49 0.00237328
7729.72 0.00483303
7733.34 0.0148891
7735.15 0.0541555
7736.05 0.202558
7736.28 0.347710
7736.50 0.732275
7736.62 1.22084
7736.73 2.42362
7736.79 3.83399
7736.84 6.82344
7736.87 9.90468
7736.90 15.2107
7736.93 25.5281
7736.94 34.3279
7736.96 47.2706
7736.98 75.5286
7737.00 94.6126
7737.02 75.5287
7737.04 47.2707
7737.07 27.7142
7737.09 17.1558
7737.12 11.4429
7737.14 8.20935
7737.19 4.67467
7737.24 3.02201
7737.34 1.54352
7737.44 0.936678
7737.64 0.447268
7737.83 0.261798
7738.62 0.0701614
7740.20 0.0190040
7743.36 0.00576720
7749.67 0.00236468
7762.29 0.00145224
7787.54 0.00117395
7838.04 0.00114783
7888.55 0.00131527
7939.05 0.00166686
7989.55 0.00234036
8014.80 0.00290987
8040.05 0.00377837
8065.30 0.00521092
8090.55 0.00791742
8103.17 0.0104173
8115.80 0.0150436
8122.11 0.0194860
8128.42 0.0286001
8131.58 0.0386249
8133.16 0.0475326
8134.73 0.0625782
8136.31 0.0924557
8137.10 0.120786
8137.89 0.170595
8138.68 0.272311
8139.07 0.369552
8139.47 0.538695
8139.86 0.875986
8140.06 1.18571
8140.26 1.70204
8140.46 2.66314
8140.55 3.48272
8140.65 4.72654
8140.75 6.78036
8140.85 10.3791
8140.95 17.4616
8141.00 23.4513
8141.05 32.1624
8141.12 51.3875
8141.20 64.2675
8141.28 51.3870
8141.35 32.1421
8141.40 23.4527
8141.45 17.4637
8141.50 13.2623
8141.55 10.3823
8141.65 6.75769
8141.75 4.73155
8141.85 3.47853
8141.95 2.66988
8142.14 1.71395
8142.34 1.19792
8142.54 0.889246
8142.93 0.555551
8143.33 0.389423
8143.72 0.296307
8144.51 0.203422
8146.08 0.148523
8147.66 0.156538
8148.45 0.177966
8149.24 0.215656
8150.03 0.280302
8150.82 0.396509
8151.21 0.491438
8151.60 0.630436
8152.00 0.845395
8152.39 1.20219
8152.79 1.85816
8152.98 2.40927
8153.18 3.24493
8153.38 4.58895
8153.58 6.91369
8153.77 11.2825
8153.87 14.9084
8153.97 19.9575
8154.14 31.9249
8154.30 39.8278
8154.47 31.8459
8154.63 19.8959
8154.83 11.2208
8155.03 6.86621
8155.23 4.55348
8155.42 3.21790
8155.62 2.38803
8155.82 1.84093
8156.22 1.19103
8156.61 0.836271
8157.01 0.622358
8157.80 0.389014
8158.59 0.271619
8159.38 0.204619
8160.97 0.135526
8162.55 0.103124
8164.14 0.0860691
8167.30 0.0715680
8170.47 0.0687130
8173.64 0.0717811
8176.81 0.0792062
8179.98 0.0909668
8183.14 0.108011
8186.31 0.132333
8189.48 0.167527
8192.65 0.220039
8195.82 0.301894
8198.98 0.436638
8202.15 0.671731
8205.32 1.09402
8208.46 1.74861
8211.60 2.18423
8214.74 1.74654
8217.88 1.09167
8219.83 0.803701
8221.78 0.602396
8225.68 0.363092
8229.58 0.238326
8233.48 0.167164
8237.37 0.123299
8241.27 0.0945562
8249.07 0.0605964
8256.87 0.0421576
8264.66 0.0310828
8280.26 0.0190791
8295.85 0.0131782
8311.45 0.0101726
8319.24 0.00957292
8327.04 0.0101945
8330.94 0.0118902
8334.84 0.0173286
8338.74 0.0472293
8339.71 0.0777494
8340.68 0.162610
8341.17 0.277720
8341.66 0.589107
8341.90 0.997336
8342.15 2.04183
8342.27 3.32335
8342.33 4.46712
8342.39 6.31094
8342.45 9.54883
8342.51 15.9506
8342.54 21.8229
8342.57 30.8820
8342.60 45.9192
8342.63 72.2302
8342.67 115.653
8342.70 144.347
8342.73 115.652
8342.77 72.1212
8342.80 45.9194
8342.83 30.8822
8342.86 21.5891
8342.89 15.9509
8342.95 9.54907
8343.01 6.35023
8343.07 4.49070
8343.13 3.33857
8343.25 2.05653
8343.50 1.00240
8343.74 0.592559
8344.22 0.279227
8344.71 0.163628
8345.68 0.0782371
8346.65 0.0475917
8350.54 0.0177759
8358.32 0.0126787
8362.20 0.0158074
8366.09 0.0271360
8368.04 0.0434306
8369.98 0.0892724
8370.95 0.151497
8371.92 0.320255
8372.41 0.540949
8372.65 0.749687
8372.90 1.10817
8373.14 1.80137
8373.26 2.42234
8373.38 3.41356
8373.50 5.16536
8373.62 8.58701
8373.69 11.6743
8373.75 16.4842
8373.81 24.6039
8373.87 38.0856
8373.93 60.9367
8374.00 76.1712
8374.07 60.9358
8374.13 38.0851
8374.18 26.9684
8374.23 19.6852
8374.27 14.7038
8374.32 11.3666
8374.41 7.25813
8374.51 5.01395
8374.60 3.64566
8374.69 2.77233
8374.88 1.74961
8375.06 1.20232
8375.25 0.876521
8375.62 0.525065
8375.99 0.349801
8376.36 0.250061
8377.10 0.146719
8378.58 0.0694000
8380.06 0.0413063
8383.02 0.0206765
8385.98 0.0132369
8391.90 0.00771134
8397.82 0.00563353
8409.66 0.00394516
8421.50 0.00319997
8445.18 0.00245815
8468.86 0.00205955
8516.22 0.00163094
8563.58 0.00142866
8658.30 0.00138958
8705.67 0.00164954
8729.35 0.00231713
8741.19 0.00450429
8747.11 0.0127585
8750.07 0.0446022
8751.55 0.164702
8751.92 0.282059
8752.29 0.592666
8752.47 0.986772
8752.66 1.95522
8752.75 3.08282
8752.84 5.48240
8752.89 7.90939
8752.94 12.1201
8752.98 20.2735
8753.00 27.2003
8753.03 37.4455
8753.06 60.0777
8753.10 74.8908
8753.14 60.0774
8753.17 37.4453
8753.21 21.8391
8753.25 13.5880
8753.30 9.09636
8753.34 6.45974
8753.42 3.70203
8753.50 2.39537
8753.66 1.22349
8753.83 0.741348
8754.15 0.355243
8754.48 0.208346
8755.13 0.0970495
8755.79 0.0564625
8758.40 0.0159979
8763.63 0.00564652
8774.08 0.00328767
8794.99 0.00396026
8805.45 0.00569984
8815.90 0.0107576
8821.13 0.0177891
8823.75 0.0248038
8826.36 0.0375923
8828.97 0.0648266
8830.28 0.0917821
8831.59 0.140462
8832.89 0.242655
8833.55 0.342284
8834.20 0.518851
8834.53 0.663788
8834.85 0.879215
8835.18 1.21930
8835.51 1.79956
8835.83 2.91943
8836.00 3.90925
8836.16 5.49211
8836.32 8.26195
8836.49 13.6188
8836.57 18.3815
8836.65 25.7424
8836.73 37.9130
8836.81 57.9703
8836.91 92.6436
8837.00 115.919
8837.09 92.6411
8837.19 57.9379
8837.30 33.2024
8837.41 20.4670
8837.51 13.6191
8837.62 9.66070
8837.73 7.15959
8837.84 5.51747
8838.06 3.54571
8838.27 2.46016
8838.49 1.80698
8838.93 1.09153
8839.36 0.729095
8839.79 0.521610
8840.23 0.391649
8840.66 0.304928
8841.53 0.199955
8842.40 0.141408
8844.14 0.0817218
8845.87 0.0534807
8847.61 0.0379307
8851.08 0.0222889
8858.03 0.0109881
8864.98 0.00701849
8892.77 0.00333115
8920.57 0.00298092
8934.46 0.00345661
8941.41 0.00534373
8944.88 0.0126597
8946.62 0.0410027
8947.49 0.148108
8947.92 0.529536
8948.03 0.883075
8948.14 1.74359
8948.20 2.76004
8948.25 4.91696
8948.30 10.8025
8948.33 18.1006
8948.36 34.0683
8948.38 54.5595
8948.40 68.1341
8948.42 54.5595
8948.44 34.0684
8948.46 24.0511
8948.47 17.7262
8948.50 10.2605
8948.53 6.56099
8948.56 4.57333
8948.62 2.51883
8948.67 1.59695
8948.79 0.799799
8948.90 0.480671
8949.36 0.133997
8950.28 0.0372846
8952.11 0.0117530
8955.77 0.00523391
8963.11 0.00367165
8977.77 0.00352151
9007.09 0.00439119
9036.42 0.00777403
9043.75 0.0107659
9051.08 0.0188495
9054.75 0.0298352
9058.41 0.0604602
9060.25 0.102325
9061.16 0.143634
9062.08 0.217949
9063.00 0.373187
9063.45 0.523332
9063.91 0.787989
9064.14 1.00340
9064.37 1.32130
9064.60 1.81828
9064.83 2.65792
9065.06 4.24083
9065.17 5.62146
9065.29 7.76269
9065.40 11.3960
9065.52 18.0503
9065.57 23.7296
9065.63 32.0367
9065.69 44.6973
9065.74 64.1129
9065.82 102.510
9065.90 128.188
9065.98 102.508
9066.06 64.0707
9066.13 40.8207
9066.20 27.2440
9066.27 19.1423
9066.34 14.0646
9066.49 8.39164
9066.63 5.54883
9066.78 3.92037
9066.92 2.91817
9067.21 1.79416
9067.50 1.21155
9067.79 0.872884
9068.37 0.515767
9068.94 0.340802
9069.52 0.242634
9070.67 0.142011
9071.83 0.0941147
9072.98 0.0676790
9075.29 0.0410685
9079.91 0.0219073
9084.53 0.0153078
9093.77 0.0110090
9103.00 0.0100816
9121.48 0.0115040
9130.72 0.0150298
9135.33 0.0243099
9137.64 0.0567622
9138.80 0.178063
9139.09 0.297669
9139.38 0.616702
9139.52 1.03117
9139.66 2.06802
9139.74 3.30033
9139.81 6.05621
9139.84 8.90026
9139.88 14.1945
9139.92 25.3543
9139.93 35.6714
9139.95 51.9751
9139.98 82.9423
9140.00 103.936
9140.02 82.9423
9140.05 51.9752
9140.07 34.9705
9140.09 24.4637
9140.11 17.5153
9140.13 13.2244
9140.16 8.12080
9140.20 5.45287
9140.28 2.92599
9140.36 1.82811
9140.51 0.906242
9140.67 0.542754
9140.98 0.262333
9141.29 0.158215
9142.53 0.0535786
9145.01 0.0279973
9149.97 0.0291563
9152.45 0.0389515
9154.93 0.0675966
9156.18 0.106949
9157.42 0.215548
9158.04 0.361535
9158.35 0.502747
9158.66 0.751805
9158.97 1.25420
9159.12 1.72291
9159.28 2.51582
9159.43 4.01372
9159.51 5.32644
9159.59 7.35854
9159.66 10.8336
9159.74 17.2045
9159.78 22.6366
9159.82 30.7744
9159.86 43.3238
9159.90 62.4308
9159.95 99.6896
9160.00 124.851
9160.05 99.6883
9160.10 62.4301
9160.15 39.2049
9160.20 25.7698
9160.25 17.9115
9160.30 13.0589
9160.35 9.89760
9160.40 7.74009
9160.50 5.10605
9160.60 3.60010
9160.70 2.67201
9160.90 1.64211
9161.10 1.10987
9161.30 0.802727
9161.70 0.478086
9162.10 0.319701
9162.50 0.230825
9163.29 0.140019
9164.89 0.0731731
9166.49 0.0494696
9169.68 0.0328575
9172.87 0.0276606
9179.25 0.0255674
9185.63 0.0269252
9192.01 0.0298296
9198.39 0.0339888
9204.78 0.0395467
9211.16 0.0469044
9217.54 0.0567561
9223.92 0.0702325
9230.30 0.0892149
9236.68 0.116948
9243.07 0.159317
9249.45 0.227435
9255.83 0.342779
9262.21 0.542377
9268.96 0.866582
9275.70 1.08189
9282.45 0.865092
9289.19 0.541101
9293.30 0.401066
9297.40 0.302464
9305.61 0.184362
9313.82 0.122534
9322.03 0.0876447
9330.24 0.0673736
9338.44 0.0580449
9342.55 0.0598004
9346.65 0.0755113
9348.71 0.101404
9349.73 0.128099
9350.76 0.177203
9351.78 0.281426
9352.30 0.383537
9352.81 0.565474
9353.32 0.937775
9353.58 1.29118
9353.84 1.89632
9354.09 3.07307
9354.22 4.11970
9354.35 5.80553
9354.48 8.79385
9354.61 14.6656
9354.67 19.9415
9354.73 28.3513
9354.80 42.4252
9354.86 66.4400
9354.93 106.595
9355.00 132.855
9355.07 105.981
9355.14 66.4389
9355.19 45.0842
9355.25 31.7796
9355.30 23.2482
9355.36 17.6000
9355.46 10.9683
9355.57 7.43659
9355.68 5.34284
9355.79 4.02889
9356.01 2.52369
9356.22 1.72709
9356.44 1.25994
9356.87 0.759186
9357.30 0.511525
9357.74 0.371251
9358.60 0.226388
9359.47 0.156817
9360.34 0.118016
9362.07 0.0782702
9363.80 0.0590741
9365.53 0.0481668
9368.99 0.0364678
9375.92 0.0264266
9382.85 0.0216621
9396.70 0.0172833
9400.16 0.0173589
9403.63 0.0193559
9407.09 0.0335591
9408.82 0.0910365
9409.69 0.307573
9409.90 0.518441
9410.12 1.06866
9410.23 1.75683
9410.34 3.41236
9410.39 5.27638
9410.44 9.14965
9410.47 12.8266
9410.50 19.0444
9410.52 30.3560
9410.55 52.4236
9410.58 84.1809
9410.60 104.763
9410.62 84.1808
9410.65 52.4237
9410.68 29.7957
9410.71 18.1666
9410.74 12.0017
9410.76 8.44786
9410.82 4.79092
9410.88 3.08951
9410.99 1.57852
9411.11 0.956598
9411.34 0.461431
9411.57 0.274321
9412.49 0.0814606
9414.34 0.0299558
9418.02 0.0161865
9421.71 0.0131940
9425.39 0.0118563
9440.14 0.00952173
9469.63 0.00753999
9499.12 0.00677047
9528.62 0.00688168
9558.11 0.00817507
9572.85 0.00965675
9587.60 0.0123350
9602.35 0.0177305
9609.72 0.0227646
9613.41 0.0264426
9617.09 0.0313756
9620.78 0.0382319
9622.62 0.0427161
9624.46 0.0481855
9626.31 0.0549611
9628.15 0.0634909
9629.99 0.0744508
9631.84 0.0888675
9633.68 0.108380
9635.52 0.135666
9637.37 0.175448
9639.21 0.236520
9641.05 0.336599
9641.98 0.412021
9642.90 0.514748
9643.82 0.658622
9644.74 0.864834
9645.66 1.16670
9646.58 1.60625
9647.99 2.56325
9649.40 3.20082
9650.81 2.56293
9652.22 1.60663
9653.39 1.07560
9654.55 0.747469
9655.72 0.542398
9656.88 0.409613
9659.22 0.257172
9661.55 0.178043
9663.88 0.132511
9666.22 0.104321
9670.88 0.0735760
9675.55 0.0592621
9680.21 0.0529592
9689.54 0.0539386
9694.21 0.0601908
9698.88 0.0713211
9701.21 0.0793940
9703.54 0.0897618
9704.71 0.0960279
9705.88 0.103163
9707.04 0.111320
9708.21 0.120682
9709.37 0.131486
9710.54 0.143995
9711.71 0.158588
9712.87 0.175692
9715.21 0.219980
9717.54 0.283949
9719.87 0.380062
9722.21 0.531027
9724.54 0.778441
9726.87 1.18942
9729.54 1.89815
9732.20 2.36984
9733.53 2.23043
9734.87 1.89693
9737.53 1.18844
9740.33 0.718253
9743.12 0.462879
9745.92 0.319994
9748.72 0.236208
9751.52 0.187622
9754.31 0.170289
9755.71 0.183864
9756.41 0.205173
9757.11 0.249318
9757.81 0.349135
9758.51 0.629163
9758.86 1.00065
9759.21 1.95818
9759.38 3.13640
9759.47 4.19788
9759.56 5.89312
9759.65 8.91546
9759.73 14.8493
9759.78 20.2682
9759.82 28.7260
9759.86 43.2662
9759.91 67.8172
9759.95 108.283
9760.00 135.478
9760.05 108.282
9760.09 67.7436
9760.12 50.3508
9760.15 38.1158
9760.21 23.1292
9760.26 15.2467
9760.32 10.7871
9760.38 7.96961
9760.43 6.12055
9760.55 3.94761
9760.66 2.75332
9760.77 2.04054
9761.00 1.26135
9761.45 0.639968
9761.91 0.403624
9762.81 0.223105
9763.72 0.155074
9764.63 0.121142
9765.53 0.101147
9767.35 0.0785046
9770.97 0.0569527
9774.60 0.0455076
9781.86 0.0324447
9789.11 0.0248982
9803.62 0.0165937
9818.12 0.0124222
9832.63 0.0103996
9847.14 0.0105121
9854.39 0.0124225
9858.02 0.0146940
9861.64 0.0191048
9865.27 0.0288651
9868.90 0.0567341
9870.71 0.0951680
9871.62 0.133172
9872.52 0.201633
9873.43 0.344814
9873.88 0.483421
9874.34 0.727944
9874.79 1.22289
9875.02 1.68551
9875.24 2.46509
9875.47 3.94606
9875.58 5.22975
9875.70 7.24294
9875.81 10.6794
9875.92 17.0290
9875.98 22.4409
9876.04 30.3932
9876.09 42.8638
9876.15 62.1307
9876.23 99.4428
9876.30 124.222
9876.38 99.4413
9876.45 62.0885
9876.51 41.7954
9876.57 29.2080
9876.63 21.1193
9876.69 15.9150
9876.81 9.81794
9876.93 6.62977
9877.05 4.74890
9877.18 3.56264
9877.42 2.21650
9877.66 1.50729
9877.90 1.09229
9878.38 0.649321
9878.86 0.430230
9879.35 0.306628
9880.31 0.179147
9882.24 0.0843823
9884.17 0.0501698
9888.03 0.0251584
9891.89 0.0161937
9899.62 0.00960044
9907.34 0.00717624
9922.78 0.00532490
9938.23 0.00466629
9969.11 0.00464773
9984.56 0.00538741
10000.0 0.00835597
10008.5 0.0185178
10010.6 0.0285573
10012.7 0.0563697
10013.8 0.0945926
10014.8 0.199050
10015.3 0.340484
10015.9 0.721302
10016.1 1.22905
10016.4 2.46932
10016.5 3.93797
10016.7 7.20805
10016.7 10.9172
10016.8 16.8016
10016.8 23.5833
10016.9 31.4358
10016.9 43.2084
10016.9 64.6604
10017.0 105.872
10017.0 129.317
10017.0 105.872
10017.1 64.6602
10017.1 48.3502
10017.1 34.8338
10017.2 25.8678
10017.2 19.7893
10017.3 12.4923
10017.3 8.52878
10017.4 6.16817
10017.4 4.65869
10017.6 2.91869
10017.8 1.45019
10018.0 0.881416
10018.5 0.420708
10019.0 0.247161
10019.9 0.117241
10020.9 0.0701465
10024.6 0.0238753
10032.2 0.0136332
10047.2 0.0185748
10054.8 0.0286709
10058.5 0.0385949
10062.3 0.0562100
10064.2 0.0707311
10066.1 0.0923179
10068.0 0.126976
10069.9 0.187314
10071.7 0.309026
10072.7 0.421780
10073.6 0.612243
10074.6 0.971936
10075.0 1.28489
10075.5 1.77630
10076.0 2.60706
10076.4 4.15544
10076.7 5.49769
10076.9 7.42460
10077.2 10.5296
10077.4 15.1306
10077.7 24.1306
10078.0 30.1022
10078.3 24.1294
10078.6 15.1315
10078.9 9.76507
10079.2 6.66731
10079.5 4.71178
10079.7 3.51426
10080.3 2.13495
10080.8 1.42992
10081.4 1.02638
10081.9 0.775757
10083.0 0.498090
10084.1 0.356238
10085.2 0.278215
10087.4 0.213286
10089.6 0.221273
10090.7 0.256034
10091.3 0.285607
10091.8 0.326409
10092.3 0.385196
10092.9 0.470240
10093.4 0.597263
10094.0 0.791287
10094.3 0.935692
10094.5 1.11818
10094.8 1.37168
10095.1 1.70682
10095.4 2.19614
10095.6 2.87704
10095.9 3.87174
10096.2 5.31970
10096.6 8.52697
10097.0 10.5967
10097.2 9.96035
10097.4 8.44199
10097.8 5.31348
10098.2 3.41151
10098.6 2.29314
10099.0 1.62291
10099.3 1.21034
10100.1 0.739438
10100.8 0.498853
10101.6 0.360752
10102.3 0.274495
10103.8 0.177061
10105.4 0.126085
10106.9 0.0966930
10109.9 0.0669756
10112.9 0.0572748
10114.4 0.0589142
10115.9 0.0676009
10117.4 0.0919991
10118.1 0.117919
10118.9 0.165929
10119.6 0.267630
10120.0 0.368334
10120.4 0.541464
10120.8 0.900849
10120.9 1.23899
10121.1 1.77616
10121.3 2.83794
10121.4 3.82581
10121.5 5.22440
10121.6 7.87207
10121.7 12.3126
10121.7 16.4593
10121.8 21.2940
10121.8 30.3547
10121.9 41.1292
10121.9 67.8197
10122.0 82.2744
10122.1 63.7724
10122.1 41.1282
10122.2 28.1997
10122.2 21.2933
10122.3 13.0135
10122.4 8.63074
10122.5 6.09801
10122.6 4.36790
10122.6 3.37574
10122.8 2.18584
10123.0 1.49879
10123.1 1.11121
10123.4 0.682750
10123.8 0.458977
10124.1 0.331445
10124.8 0.200344
10125.4 0.135791
10126.1 0.100161
10127.4 0.0631429
10128.7 0.0452507
10130.0 0.0351107
10132.6 0.0244038
10135.2 0.0189158
10137.8 0.0156307
10143.1 0.0118774
10153.5 0.00856113
10164.0 0.00733479
10174.5 0.00737769
10184.9 0.00964662
10195.4 0.0245373
10198.0 0.0400779
10200.6 0.0834745
10201.9 0.142813
10202.6 0.201669
10203.2 0.305502
10203.9 0.523857
10204.2 0.734437
10204.6 1.08900
10204.9 1.81079
10205.0 2.44899
10205.2 3.49120
10205.4 5.52148
10205.5 7.13322
10205.5 9.54143
10205.6 13.3394
10205.7 19.7346
10205.8 31.3196
10205.8 40.5861
10205.9 55.6424
10205.9 90.0925
10206.0 111.442
10206.1 90.0910
10206.1 55.6416
10206.2 35.5738
10206.3 24.6265
10206.3 16.9114
10206.4 12.7565
10206.5 7.64410
10206.7 5.05371
10206.8 3.57740
10206.9 2.66123
10207.2 1.66202
10207.4 1.11935
10207.7 0.804795
10208.2 0.477873
10208.7 0.314393
10209.2 0.224228
10210.3 0.130613
10211.3 0.0860488
10212.3 0.0614125
10214.4 0.0366072
10218.5 0.0184506
10222.6 0.0120113
10230.8 0.00735426
10239.1 0.00572969
10255.5 0.00466328
10272.0 0.00448002
10304.9 0.00507515
10337.8 0.00676946
10370.7 0.0105016
10387.1 0.0140309
10391.3 0.0152261
10395.4 0.0165897
10399.5 0.0181577
10403.6 0.0199724
10407.7 0.0220926
10411.8 0.0245768
10415.9 0.0275264
10420.1 0.0310448
10424.2 0.0353068
10428.3 0.0405053
10432.4 0.0469447
10436.5 0.0550407
10440.6 0.0654208
10444.7 0.0789188
10448.8 0.0968890
10453.0 0.121387
10457.1 0.155744
10461.2 0.204910
10465.3 0.276739
10469.4 0.381325
10475.7 0.609295
10482.0 0.761052
10485.2 0.716506
10488.3 0.609795
10494.6 0.384523
10498.4 0.289877
10502.3 0.231171
10504.2 0.219241
10506.1 0.237788
10507.0 0.283949
10507.5 0.334567
10508.0 0.426894
10508.5 0.626609
10508.7 0.821122
10509.0 1.16388
10509.2 1.85104
10509.3 2.48647
10509.4 3.54968
10509.6 5.52247
10509.6 7.20426
10509.7 9.78652
10509.7 14.0093
10509.8 21.4791
10509.9 35.9310
10509.9 60.8375
10510.0 96.0592
10510.0 121.549
10510.1 96.0576
10510.1 60.8356
10510.1 39.5079
10510.2 27.4509
10510.2 19.8880
10510.3 14.9607
10510.3 10.9533
10510.4 8.78603
10510.4 6.00426
10510.5 4.20712
10510.6 3.21628
10510.8 2.01927
10510.9 1.40064
10511.1 1.04036
10511.4 0.666367
10512.1 0.369586
10512.8 0.256998
10513.5 0.201308
10514.1 0.168915
10515.5 0.133007
10518.1 0.0999469
10520.8 0.0825583
10526.2 0.0619166
10531.6 0.0490815
10542.3 0.0334819
10553.0 0.0245542
10563.7 0.0191184
10574.5 0.0161845
10579.8 0.0160421
10585.2 0.0186121
10587.9 0.0233787
10590.6 0.0378919
10593.2 0.115757
10593.9 0.193707
10594.6 0.405417
10594.9 0.689046
10595.2 1.39883
10595.4 2.29758
10595.6 4.44415
10595.7 7.03571
10595.8 11.7536
10595.8 16.0156
10595.8 22.8686
10595.9 34.5407
10595.9 43.4037
10595.9 61.6650
10596.0 98.9607
10596.0 122.944
10596.0 98.9603
10596.1 61.6648
10596.1 43.4037
10596.1 34.5407
10596.2 20.8173
10596.2 13.6485
10596.3 9.55688
10596.4 5.38394
10596.5 3.43376
10596.7 1.73990
10596.9 1.07243
10597.3 0.510549
10597.7 0.303182
10598.5 0.144306
10599.2 0.0863903
10602.4 0.0284817
10605.6 0.0171279
10608.7 0.0128822
10615.0 0.00940194
10621.3 0.00781565
10634.0 0.00611580
10646.6 0.00508966
10671.8 0.00378904
10697.1 0.00297081
10747.6 0.00200027
10798.0 0.00145813
10899.0 0.000896069
11000.0 0.000620530
11000.0 0.362603
12500.0 0.343453
15000.0 0.318002
17000.0 0.301508
20000.0 0.281008
25000.0 0.254218
30000.0 0.234763
35000.0 0.218888
40000.0 0.205806
50000.0 0.185597
60000.0 0.170746
70000.0 0.159624
80000.0 0.152232
90000.0 0.146523
99999.9 0.141450
100000 0.141701
150000 0.128983
200000 0.125379
250000 0.125207
300000 0.126462
500000 0.138714
609255 0.149055
700000 0.121057
800000 0.121281
900000 0.126222
1.00000E+06 0.133281
1.08835E+06 0.141385
1.17670E+06 0.149291
1.25000E+06 0.147300
1.28615E+06 0.149403
1.41115E+06 0.156456
1.41115E+06 0.156456
1.50000E+06 0.153008
1.52016E+06 0.153931
1.52017E+06 0.153931
1.65568E+06 0.159967
1.75000E+06 0.160741
1.77376E+06 0.161327
1.77376E+06 0.161327
1.87925E+06 0.164045
1.98474E+06 0.166656
2.00000E+06 0.165495
2.04449E+06 0.165323
2.10403E+06 0.164024
2.10403E+06 0.164024
2.17597E+06 0.161944
2.27158E+06 0.160740
2.27158E+06 0.160740
2.35440E+06 0.159097
2.35440E+06 0.159097
2.39702E+06 0.158590
2.39702E+06 0.158590
2.50735E+06 0.158161
2.55913E+06 0.158379
2.55913E+06 0.158379
2.66935E+06 0.156849
2.77957E+06 0.155395
2.88978E+06 0.154010
3.00000E+06 0.152688
3.06250E+06 0.149900
3.12500E+06 0.147217
3.18750E+06 0.144634
3.25000E+06 0.142145
3.31250E+06 0.139745
3.37500E+06 0.137430
3.43750E+06 0.135194
3.50000E+06 0.133034
3.56250E+06 0.130946
3.62500E+06 0.128926
3.68750E+06 0.126971
3.75000E+06 0.125078
3.81250E+06 0.123243
3.87500E+06 0.121465
3.93750E+06 0.119740
4.00000E+06 0.118066
4.06250E+06 0.115276
4.12500E+06 0.112593
4.18750E+06 0.110011
4.25000E+06 0.107526
4.31250E+06 0.105131
4.37500E+06 0.102824
4.43750E+06 0.100598
4.50000E+06 0.0984512
4.56250E+06 0.0963787
4.62500E+06 0.0943770
4.68750E+06 0.0924430
4.75000E+06 0.0905735
4.81250E+06 0.0887655
4.87500E+06 0.0870162
4.93750E+06 0.0853230
5.00000E+06 0.0836834
5.05667E+06 0.0820687
5.11334E+06 0.0805027
5.17001E+06 0.0789833
5.22667E+06 0.0775086
5.28334E+06 0.0760770
5.34001E+06 0.0746867
5.39668E+06 0.0733360
5.45335E+06 0.0720236
5.51001E+06 0.0707477
5.56668E+06 0.0695073
5.62335E+06 0.0683008
5.68002E+06 0.0671270
5.73669E+06 0.0659847
5.79335E+06 0.0648729
5.85002E+06 0.0637903
5.90669E+06 0.0627360
5.95335E+06 0.0618884
6.00000E+06 0.0610588
6.07339E+06 0.0590721
6.14677E+06 0.0571728
6.22016E+06 0.0553561
6.29355E+06 0.0536173
6.36693E+06 0.0519524
6.44032E+06 0.0503574
6.51370E+06 0.0488286
6.58709E+06 0.0473626
6.69032E+06 0.0454005
6.79355E+06 0.0435480
6.89677E+06 0.0417972
7.00000E+06 0.0401413
7.10951E+06 0.0377079
7.21902E+06 0.0354558
7.32853E+06 0.0333692
7.43804E+06 0.0314337
7.54754E+06 0.0296363
7.65705E+06 0.0279653
7.76656E+06 0.0264104
7.87607E+06 0.0249619
7.93804E+06 0.0241861
8.00000E+06 0.0234402
8.05855E+06 0.0226489
8.11711E+06 0.0218898
8.17566E+06 0.0211613
8.23421E+06 0.0204620
8.29653E+06 0.0197483
8.35885E+06 0.0190645
8.42117E+06 0.0184092
8.48349E+06 0.0177810
8.54580E+06 0.0171786
8.60812E+06 0.0166008
8.67044E+06 0.0160463
8.73276E+06 0.0155142
8.79957E+06 0.0149673
8.86638E+06 0.0144436
8.93319E+06 0.0139419
9.00000E+06 0.0134612
9.06831E+06 0.0129940
9.13662E+06 0.0125463
9.20493E+06 0.0121172
9.27324E+06 0.0117058
9.34155E+06 0.0113112
9.40986E+06 0.0109326
9.47817E+06 0.0105694
9.54648E+06 0.0102206
9.60317E+06 0.00994180
9.65986E+06 0.00967214
9.71655E+06 0.00941131
9.77324E+06 0.00915896
9.82993E+06 0.00891479
9.88662E+06 0.00867847
9.94331E+06 0.00844972
1.00000E+07 0.00822824
1.00610E+07 0.00789297
1.01220E+07 0.00757332
1.01830E+07 0.00726842
1.02441E+07 0.00697750
1.03051E+07 0.00669981
1.03661E+07 0.00643476
1.04271E+07 0.00618166
1.04881E+07 0.00593990
1.05521E+07 0.00571451
1.06161E+07 0.00549896
1.06801E+07 0.00529277
1.07441E+07 0.00509550
1.08080E+07 0.00490666
1.08720E+07 0.00472587
1.09360E+07 0.00455274
1.10000E+07 0.00438694
1.10611E+07 0.00424466
1.11223E+07 0.00410775
1.11834E+07 0.00397596
1.12446E+07 0.00384911
1.13057E+07 0.00372694
1.13668E+07 0.00360927
1.14280E+07 0.00349593
1.14891E+07 0.00338673
1.15530E+07 0.00328704
1.16168E+07 0.00319082
1.16807E+07 0.00309792
1.17446E+07 0.00300822
1.18084E+07 0.00292156
1.18723E+07 0.00283786
1.19361E+07 0.00275699
1.20000E+07 0.00267883
1.20613E+07 0.00261709
1.21225E+07 0.00255707
1.21838E+07 0.00249872
1.22450E+07 0.00244198
1.23063E+07 0.00238681
1.23675E+07 0.00233314
1.24288E+07 0.00228094
1.24900E+07 0.00223016
1.25538E+07 0.00218483
1.26175E+07 0.00214064
1.26813E+07 0.00209756
1.27450E+07 0.00205555
1.28088E+07 0.00201460
1.28725E+07 0.00197465
1.29363E+07 0.00193569
1.30000E+07 0.00189768
1.30625E+07 0.00186946
1.31250E+07 0.00184180
1.31875E+07 0.00181467
1.32500E+07 0.00178807
1.33125E+07 0.00176198
1.33750E+07 0.00173639
1.34375E+07 0.00171129
1.35000E+07 0.00168667
1.35625E+07 0.00166251
1.36250E+07 0.00163881
1.36875E+07 0.00161555
1.37500E+07 0.00159272
1.38125E+07 0.00157032
1.38750E+07 0.00154833
1.39375E+07 0.00152675
1.40000E+07 0.00150556
1.41250E+07 0.00148615
1.42500E+07 0.00146715
1.43750E+07 0.00144856
1.45000E+07 0.00143036
1.47323E+07 0.00139756
1.49645E+07 0.00136600
1.50000E+07 0.00136128
1.52430E+07 0.00134640
1.54860E+07 0.00133190
1.57290E+07 0.00131779
1.59720E+07 0.00130404
1.60000E+07 0.00130248
1.63964E+07 0.00129788
1.67928E+07 0.00129340
1.70000E+07 0.00129111
1.75000E+07 0.00129632
1.80000E+07 0.00130140
1.85000E+07 0.00130913
1.90000E+07 0.00131670
2.00000E+07 0.00135179