Ba-135(n,g) ENDF/B-VII.1
Energy(eV) XS(b)
1.00000E-05 295.323
1.25000E-05 264.145
1.50000E-05 241.130
2.00000E-05 208.825
2.75000E-05 178.087
3.50000E-05 157.857
4.25000E-05 143.253
5.00000E-05 132.073
6.25000E-05 118.129
7.50000E-05 107.837
0.000100000 93.3893
0.000125000 83.5300
0.000150000 76.2521
0.000200000 66.0362
0.000275000 56.3158
0.000350000 49.9186
0.000425000 45.3004
0.000500000 41.7648
0.000625000 37.3556
0.000750000 34.1008
0.00100000 29.5321
0.00125000 26.4142
0.00150000 24.1127
0.00200000 20.8821
0.00275000 17.8082
0.00350000 15.7852
0.00425000 14.3247
0.00500000 13.2067
0.00625000 11.8123
0.00750000 10.7830
0.0100000 9.33812
0.0125000 8.35208
0.0150000 7.62420
0.0200000 6.60246
0.0253000 5.87003
0.0314750 5.26253
0.0376500 4.81140
0.0500000 4.17467
0.0625000 3.73353
0.0750000 3.40786
0.100000 2.95067
0.125000 2.63859
0.150000 2.40819
0.200000 2.08469
0.275000 1.77675
0.350000 1.57400
0.500000 1.31544
0.750000 1.07224
1.00000 0.927220
1.50000 0.755354
2.00000 0.653270
2.75000 0.556980
3.50000 0.494721
5.00000 0.418738
7.50000 0.357846
10.0000 0.338639
12.5000 0.352306
15.0000 0.412349
17.5000 0.577511
18.7500 0.760986
20.0000 1.12568
20.5386 1.40285
21.0773 1.82573
21.6159 2.51777
22.1546 3.76823
22.4239 4.81283
22.6932 6.39552
22.9625 8.96266
23.2318 13.5424
23.3665 17.3181
23.5012 22.9635
23.6358 31.9523
23.7705 47.5539
23.8378 60.0618
23.9051 78.2546
23.9725 106.151
24.0398 152.015
24.1071 234.985
24.1408 303.959
24.1745 407.236
24.2081 570.636
24.2418 846.559
24.2754 1347.44
24.3091 2296.50
24.3396 3672.26
24.3700 4587.13
24.4005 3666.72
24.4309 2290.02
24.4559 1531.93
24.4808 1060.96
24.5058 765.639
24.5308 573.553
24.5807 352.076
24.6307 236.210
24.6806 168.812
24.7305 126.398
24.8304 78.2404
24.9303 53.0649
25.0302 38.3083
25.1301 28.9362
25.2299 22.6203
25.4297 14.9074
25.6295 10.5608
25.8292 7.87483
26.0290 6.10124
26.4285 3.98034
26.8280 2.81044
27.2275 2.09849
27.6270 1.63380
28.4261 1.08506
29.2251 0.786508
30.0242 0.606801
30.8232 0.490644
32.4213 0.355359
34.0193 0.283461
37.2155 0.216038
43.6077 0.182894
50.0000 0.198310
57.9681 0.273594
61.9522 0.353419
65.9363 0.497092
69.9203 0.792994
71.9124 1.07730
73.9044 1.57966
74.9004 1.99274
75.8964 2.61213
76.8924 3.60814
77.3904 4.35388
77.8884 5.37606
78.3865 6.83421
78.8845 9.02343
79.3825 12.5415
79.8805 18.7564
80.1295 23.8423
80.3785 31.4011
80.6275 43.3536
80.8765 63.9146
81.0010 80.2647
81.1255 103.864
81.2500 139.690
81.3745 197.781
81.4990 300.733
81.5613 384.523
81.6235 507.438
81.6858 696.427
81.7480 1003.27
81.8103 1529.94
81.8725 2457.53
81.9363 3929.27
82.0000 4907.56
82.0638 3923.47
82.1275 2451.66
82.1991 1425.90
82.2708 890.489
82.3424 597.911
82.4140 425.727
82.4856 317.321
82.5573 245.204
82.7005 158.786
82.8437 111.260
82.9870 82.5082
83.2735 51.1765
83.5600 35.6137
83.8465 27.0400
84.1330 22.1334
84.4195 19.4810
84.9924 19.1474
85.2789 21.8708
85.4222 24.4047
85.5654 28.1525
85.6371 30.6605
85.7087 33.7353
85.7803 37.5354
85.8161 39.7724
85.8519 42.2790
85.8878 45.0979
85.9236 48.2781
85.9952 55.9834
86.0668 66.0737
86.1384 79.6015
86.2101 98.2724
86.2817 124.977
86.3533 164.949
86.4249 228.390
86.4965 337.192
86.5324 422.771
86.5682 544.217
86.6040 722.913
86.6398 996.333
86.6756 1429.68
86.7114 2122.01
86.7557 3391.97
86.8000 4237.33
86.8443 3389.19
86.8886 2118.88
86.9398 1215.18
86.9910 751.822
87.0423 501.962
87.0935 356.206
87.1447 264.970
87.1959 204.507
87.2983 132.300
87.4008 92.6539
87.5032 68.6412
87.7081 42.2903
87.9129 28.9081
88.1178 21.1811
88.5275 13.0271
88.9373 9.00548
89.3470 6.70991
90.1665 4.29419
90.9859 3.10061
91.8054 2.42401
93.4443 1.75419
95.0832 1.52536
96.7222 1.58692
98.3611 2.02463
99.1805 2.50919
100.000 3.36343
100.483 4.18478
100.966 5.43665
101.449 7.46647
101.932 11.0629
102.174 14.0004
102.415 18.3490
102.657 25.1785
102.898 36.8041
103.019 45.9555
103.140 59.0255
103.260 78.6383
103.381 109.899
103.502 164.122
103.562 207.334
103.623 269.382
103.683 362.573
103.743 509.039
103.804 749.901
103.864 1151.90
103.932 1839.23
104.000 2302.42
104.068 1860.34
104.136 1205.08
104.186 899.324
104.235 741.037
104.285 730.993
104.334 951.551
104.400 1489.66
104.466 807.258
104.489 606.801
104.513 470.723
104.559 311.034
104.606 225.817
104.653 174.667
104.746 116.997
104.839 85.6692
105.026 52.9212
105.212 36.3894
105.399 26.6955
105.586 20.4746
105.959 13.1945
106.332 9.23909
106.705 6.84695
107.452 4.21653
108.198 2.87474
108.944 2.09736
110.437 1.27481
111.930 0.868764
113.422 0.637246
116.408 0.393950
119.393 0.273319
122.379 0.203729
128.350 0.129289
134.320 0.0916732
140.291 0.0698268
152.233 0.0468286
164.175 0.0361995
176.117 0.0316336
188.058 0.0317953
200.000 0.0403446
204.734 0.0505445
209.468 0.0744299
211.835 0.100931
213.019 0.123263
214.202 0.158059
215.386 0.218802
215.978 0.269784
216.569 0.350625
217.161 0.498835
217.457 0.630915
217.753 0.852941
218.049 1.28780
218.197 1.69208
218.345 2.38418
218.493 3.73700
218.567 4.96511
218.641 6.98563
218.715 10.6666
218.752 13.7485
218.788 18.3854
218.825 25.8163
218.862 38.5694
218.881 48.4948
218.899 62.2683
218.918 81.6167
218.936 108.444
218.952 138.833
218.968 173.334
219.000 216.405
219.016 203.586
219.032 173.105
219.064 108.440
219.094 68.5373
219.124 45.5220
219.154 31.9459
219.184 23.5332
219.245 14.2352
219.305 9.57454
219.365 6.93692
219.426 5.31647
219.546 3.52500
219.667 2.62534
219.788 2.12701
220.029 1.66671
220.270 1.53451
220.511 1.57182
220.994 2.03359
221.235 2.50877
221.477 3.26152
221.718 4.50393
221.959 6.72362
222.080 8.54488
222.200 11.2432
222.321 15.4834
222.442 22.6942
222.502 28.3654
222.562 36.4344
222.623 48.4673
222.683 67.4888
222.743 99.9462
222.773 125.413
222.803 161.281
222.834 213.951
222.864 293.693
222.894 419.288
222.924 616.846
222.962 982.944
223.000 1225.32
223.039 977.592
223.077 608.580
223.116 372.228
223.155 240.982
223.193 165.769
223.232 119.980
223.271 90.4479
223.310 70.4414
223.387 46.0172
223.465 32.3257
223.543 23.9213
223.698 14.6001
223.853 9.82507
224.008 7.06401
224.163 5.32420
224.318 4.15938
224.629 2.74370
224.939 1.94972
225.249 1.46009
225.560 1.13695
226.180 0.750294
226.801 0.536586
227.422 0.406164
228.042 0.320805
229.283 0.219760
230.525 0.164870
233.007 0.111827
235.490 0.0913262
237.972 0.0906433
239.214 0.102992
239.834 0.117483
240.455 0.145161
241.076 0.205177
241.386 0.264665
241.696 0.371709
242.007 0.593938
242.162 0.807722
242.317 1.18138
242.472 1.92538
242.550 2.60935
242.627 3.74585
242.705 5.84155
242.744 7.61611
242.782 10.3241
242.821 14.7185
242.860 22.4199
242.899 37.1808
242.918 49.5890
242.937 67.2006
242.953 86.0500
242.969 107.443
243.000 134.251
243.031 107.428
243.063 67.1827
243.082 49.4195
243.102 37.0592
243.140 22.3537
243.179 14.6783
243.218 10.2972
243.257 7.59679
243.296 5.82678
243.373 3.73604
243.451 2.59981
243.528 1.91810
243.684 1.17634
243.839 0.803368
243.994 0.590264
244.305 0.368526
244.615 0.261632
244.926 0.202123
245.547 0.141791
246.168 0.113536
246.789 0.0982737
248.030 0.0837509
250.514 0.0762975
252.998 0.0782609
257.966 0.0954753
262.934 0.133499
265.418 0.166680
267.902 0.217874
270.386 0.302307
272.869 0.455989
274.111 0.585150
275.353 0.781895
276.595 1.10332
277.837 1.68245
278.458 2.16466
279.079 2.89249
279.700 4.06626
280.321 6.14064
280.632 7.83434
280.942 10.3414
281.253 14.2776
281.563 20.9693
281.718 26.2244
281.874 33.7087
282.029 44.8816
282.184 62.5446
282.339 92.7397
282.495 149.878
282.572 198.951
282.650 273.670
282.727 391.354
282.805 577.999
282.903 924.578
283.000 1155.29
283.098 923.888
283.195 577.311
283.257 421.823
283.319 314.178
283.443 187.495
283.567 122.188
283.691 85.2156
283.815 62.5544
283.938 47.7611
284.186 30.3573
284.434 20.9451
284.682 15.3038
285.177 9.18167
285.673 6.11257
286.169 4.36071
286.664 3.26821
287.160 2.54170
288.151 1.66649
289.142 1.18000
290.133 0.882447
291.125 0.687688
293.107 0.457774
295.089 0.334170
297.072 0.262457
299.054 0.220171
303.019 0.191068
305.001 0.203067
306.983 0.244530
308.966 0.351987
309.957 0.465037
310.948 0.674748
311.444 0.852490
311.939 1.12424
312.435 1.56909
312.931 2.37095
313.178 3.03795
313.426 4.04315
313.674 5.66008
313.798 6.86553
313.922 8.50633
314.046 10.8197
314.170 14.2287
314.293 19.5480
314.417 28.5100
314.479 35.4892
314.541 45.3340
314.603 59.8792
314.665 82.4944
314.727 120.331
314.789 189.427
314.820 246.794
314.851 330.880
314.882 458.010
314.913 649.010
314.956 1038.30
315.000 1297.70
315.044 1038.05
315.087 648.750
315.118 458.788
315.149 332.678
315.179 248.413
315.210 191.134
315.271 121.668
315.332 83.5637
315.394 60.6995
315.455 45.9956
315.578 28.9464
315.700 19.8523
315.823 14.4501
315.945 10.9861
316.068 8.63604
316.313 5.74083
316.558 4.09543
316.804 3.07214
317.049 2.39307
317.539 1.57559
318.029 1.12129
318.520 0.842906
319.010 0.660013
319.991 0.442075
320.971 0.321961
321.952 0.248680
322.933 0.200631
324.894 0.143393
326.855 0.111839
330.778 0.0801958
334.701 0.0660222
338.623 0.0594505
346.469 0.0581389
354.314 0.0699581
358.237 0.0835830
362.159 0.108018
366.082 0.157535
368.043 0.204688
370.005 0.287940
371.966 0.460130
372.947 0.627687
373.927 0.927477
374.418 1.17623
374.908 1.55097
375.398 2.15466
375.889 3.22146
376.134 4.09289
376.379 5.38379
376.624 7.41303
376.869 10.8676
376.992 13.5858
377.115 17.4668
377.237 23.2716
377.360 32.4774
377.482 48.2944
377.544 60.7593
377.605 78.4819
377.666 104.626
377.728 144.767
377.789 208.675
377.850 311.111
377.925 497.655
378.000 621.922
378.075 497.461
378.150 310.913
378.201 222.589
378.252 162.901
378.303 122.634
378.354 94.9300
378.455 60.9719
378.557 42.1330
378.659 30.7343
378.760 23.3737
378.964 14.7951
379.167 10.1957
379.371 7.45703
379.778 4.50173
380.184 3.02856
380.591 2.19175
380.998 1.67241
381.405 1.32901
382.219 0.919399
383.033 0.696622
384.660 0.483887
386.288 0.402320
387.915 0.379976
391.170 0.442771
392.798 0.530225
394.425 0.676605
396.053 0.925746
397.680 1.38208
398.494 1.76329
399.308 2.33796
400.121 3.26129
400.935 4.88138
401.342 6.19363
401.749 8.12045
402.156 11.1121
402.563 16.1151
402.969 25.4064
403.173 33.3417
403.376 45.5481
403.580 65.6054
403.783 101.364
403.885 130.262
403.987 171.764
404.088 232.502
404.190 321.098
404.345 513.111
404.500 640.687
404.656 512.000
404.811 319.621
404.920 226.461
405.028 164.317
405.137 122.867
405.246 94.5849
405.463 60.2665
405.680 41.4227
405.898 30.0988
406.115 22.8147
406.550 14.3610
406.985 9.84913
407.419 7.16806
407.854 5.44850
408.289 4.28125
409.158 2.84407
410.027 2.02731
410.897 1.51945
411.766 1.18247
413.505 0.777368
415.244 0.552886
416.982 0.416233
418.721 0.327681
422.198 0.227881
425.676 0.191701
427.415 0.203528
428.284 0.226791
429.153 0.276857
430.023 0.392320
430.457 0.509837
430.892 0.724323
431.109 0.904088
431.327 1.17610
431.544 1.61591
431.761 2.39393
431.870 3.02964
431.979 3.97072
432.088 5.44799
432.196 7.95493
432.305 12.7248
432.359 16.8953
432.413 23.4783
432.468 34.7156
432.495 43.5066
432.522 55.8635
432.549 73.9789
432.576 101.329
432.604 144.303
432.631 211.716
432.648 271.247
432.665 338.872
432.700 423.302
432.717 398.194
432.735 338.448
432.769 211.678
432.801 135.906
432.832 91.1946
432.864 64.3298
432.895 47.4074
432.958 28.4994
433.021 18.9071
433.084 13.4192
433.147 10.0133
433.273 6.18593
433.399 4.20423
433.525 3.05084
433.651 2.32103
433.777 1.83035
434.029 1.23196
434.280 0.895046
434.532 0.686598
434.784 0.548613
435.288 0.382734
435.791 0.290331
436.799 0.195588
437.806 0.149807
438.813 0.123829
440.828 0.0964465
444.857 0.0761621
448.886 0.0740280
452.916 0.0888871
454.930 0.108691
456.945 0.147828
457.952 0.181907
458.960 0.234754
459.967 0.322387
460.974 0.482559
461.478 0.617409
461.982 0.822825
462.485 1.15814
462.989 1.76061
463.241 2.26073
463.493 3.01253
463.744 4.21834
463.996 6.33216
464.122 8.04484
464.248 10.5571
464.374 14.4563
464.437 17.2686
464.500 20.9759
464.563 26.0149
464.626 33.0729
464.689 43.4037
464.752 59.2650
464.815 85.3292
464.878 131.671
464.909 169.124
464.941 222.859
464.972 301.408
465.004 415.417
465.052 664.890
465.100 830.693
465.148 664.229
465.197 415.299
465.231 293.618
465.265 212.650
465.299 158.775
465.333 122.059
465.401 77.6510
465.469 53.3099
465.537 38.7111
465.605 29.3258
465.740 18.4526
465.876 12.6491
466.012 9.20459
466.148 6.99427
466.284 5.49494
466.556 3.64877
466.828 2.59958
467.100 1.94709
467.372 1.51396
467.916 0.992848
468.459 0.703247
469.003 0.525845
469.547 0.409338
470.635 0.270594
471.722 0.194181
472.810 0.147587
473.897 0.117035
476.073 0.0805891
478.248 0.0603649
482.598 0.0395550
486.949 0.0293463
491.299 0.0234214
500.000 0.0169105
509.406 0.0132192
518.811 0.0110081
537.622 0.00857364
556.433 0.00745651
575.244 0.00717701
594.055 0.00787824
603.461 0.00891023
612.866 0.0109605
622.272 0.0154717
626.974 0.0199835
631.677 0.0282018
634.028 0.0351229
636.380 0.0457009
638.731 0.0630828
641.083 0.0947297
642.258 0.121391
643.434 0.162136
644.610 0.229026
645.785 0.350464
646.373 0.452386
646.961 0.607413
647.549 0.860195
648.137 1.31409
648.431 1.69075
648.725 2.25695
649.018 3.16511
649.312 4.75744
649.459 6.04718
649.606 7.93939
649.753 10.8791
649.900 15.7933
649.974 19.5921
650.047 24.9242
650.121 32.7215
650.194 44.7028
650.268 64.4031
650.341 99.5473
650.378 128.002
650.415 168.765
650.451 228.412
650.488 315.420
650.544 504.820
650.600 630.751
650.656 504.385
650.712 315.340
650.776 182.158
650.840 113.257
650.903 75.7526
650.967 53.7921
651.031 39.9778
651.095 30.8149
651.222 19.8424
651.350 13.8025
651.477 10.1425
651.732 6.13090
651.987 4.09958
652.242 2.93333
652.497 2.20274
652.752 1.71523
653.262 1.12564
653.771 0.796628
654.281 0.594639
654.791 0.461993
655.811 0.304517
656.830 0.218852
657.850 0.168052
658.870 0.136648
660.909 0.107833
661.929 0.107336
662.949 0.119938
663.968 0.159827
664.478 0.203608
664.988 0.285608
665.243 0.355152
665.498 0.461074
665.753 0.633245
666.008 0.939838
666.135 1.19166
666.263 1.56622
666.390 2.15782
666.518 3.17071
666.645 5.12352
666.709 6.85552
666.773 9.63050
666.836 14.4699
666.900 23.8938
666.932 32.2562
666.964 45.3476
666.996 66.8916
667.028 102.645
667.064 164.297
667.100 205.242
667.136 164.104
667.173 102.632
667.199 72.1359
667.224 52.0568
667.250 38.7225
667.276 29.7130
667.328 18.8444
667.380 12.9159
667.432 9.37153
667.484 7.09801
667.588 4.46826
667.692 3.06868
667.795 2.23843
667.899 1.70649
668.003 1.34585
668.210 0.901604
668.418 0.649201
668.626 0.492038
668.833 0.387638
669.248 0.261688
669.663 0.191361
670.493 0.119322
671.324 0.0847014
672.154 0.0652010
673.814 0.0447725
675.475 0.0345520
677.135 0.0285646
680.456 0.0220602
687.097 0.0172253
693.739 0.0169059
700.381 0.0206257
703.702 0.0253308
707.022 0.0344574
708.683 0.0423426
710.343 0.0545389
712.004 0.0747552
713.664 0.111790
714.494 0.143080
715.324 0.190956
716.155 0.269583
716.985 0.412241
717.400 0.531783
717.815 0.713313
718.230 1.00844
718.645 1.53614
718.853 1.97203
719.060 2.62415
719.268 3.66406
719.475 5.46974
719.579 6.91883
719.683 9.02730
719.787 12.2613
719.890 17.5721
719.942 21.6086
719.994 27.1840
720.046 35.1689
720.098 47.1207
720.150 66.0047
720.202 97.8505
720.254 155.517
720.280 201.367
720.306 264.113
720.353 422.739
720.400 528.171
720.447 422.337
720.495 264.065
720.548 153.544
720.601 95.8377
720.654 64.3026
720.707 45.7370
720.760 34.0459
720.813 26.2639
720.919 16.9368
721.025 11.7919
721.132 8.67024
721.344 5.24506
721.556 3.50856
721.769 2.51089
721.981 1.88528
722.193 1.46784
722.618 0.962619
723.043 0.680327
723.467 0.506810
723.892 0.392609
724.742 0.256409
725.591 0.181391
726.440 0.135732
727.290 0.105900
728.988 0.0705818
730.687 0.0512798
732.386 0.0396023
734.085 0.0320137
737.482 0.0231036
740.880 0.0183091
747.675 0.0137088
761.265 0.0111187
774.855 0.0114192
788.445 0.0134605
802.036 0.0182878
808.831 0.0233692
815.626 0.0347017
819.023 0.0482923
820.722 0.0610874
822.421 0.0837160
824.120 0.130906
824.969 0.177258
825.818 0.260974
826.243 0.331034
826.668 0.437443
827.093 0.610660
827.517 0.921273
827.730 1.17871
827.942 1.56521
828.154 2.18463
828.367 3.26818
828.579 5.42833
828.685 7.41738
828.791 10.7298
828.844 13.2823
828.898 16.8535
828.951 22.0539
829.004 29.9946
829.057 42.9523
829.110 65.7959
829.136 84.0860
829.163 109.977
829.189 147.358
829.216 201.093
829.258 321.875
829.300 402.130
829.342 321.545
829.384 201.067
829.431 116.995
829.478 73.1321
829.526 49.1217
829.573 34.9690
829.620 26.0489
829.667 20.1076
829.761 12.9772
829.855 9.04299
829.950 6.65786
830.138 4.03854
830.326 2.71026
830.515 1.94713
830.703 1.46860
830.892 1.14935
831.269 0.763091
831.646 0.547453
832.022 0.415079
832.399 0.328120
833.153 0.224817
833.907 0.168403
835.415 0.112807
836.922 0.0882140
838.430 0.0761625
841.445 0.0678869
847.475 0.0764263
853.506 0.107339
856.521 0.135307
859.536 0.178559
862.551 0.249540
865.566 0.377255
867.074 0.483200
868.582 0.642436
870.089 0.897700
870.843 1.08742
871.597 1.34500
872.351 1.70701
873.104 2.23837
873.858 3.06320
874.612 4.44293
874.989 5.50889
875.366 7.00516
875.743 9.19341
876.120 12.5623
876.496 18.0980
876.873 27.9805
877.062 35.9776
877.250 47.4676
877.439 64.3026
877.627 88.8932
877.914 142.143
878.200 177.567
878.487 142.032
878.773 88.7857
879.112 50.2538
879.451 30.7924
879.791 20.4135
880.130 14.4042
880.469 10.6641
880.808 8.19582
881.487 5.26214
882.165 3.66092
882.843 2.69758
884.200 1.65668
885.557 1.15956
886.913 0.955442
887.592 0.987820
887.931 1.07862
888.270 1.28103
888.609 1.74640
888.779 2.21027
888.948 3.03190
889.118 4.67402
889.203 6.18076
889.288 8.67643
889.372 13.2330
889.415 17.0528
889.457 22.8206
889.500 32.0425
889.521 38.8201
889.542 47.8571
889.563 60.1529
889.584 77.1989
889.606 101.115
889.627 134.258
889.645 171.889
889.663 214.651
889.700 268.046
889.718 252.179
889.737 214.401
889.773 134.234
889.797 97.4448
889.821 72.2713
889.869 42.9691
889.916 28.0155
889.964 19.6040
890.011 14.4699
890.059 11.1277
890.154 7.20473
890.250 5.08452
890.345 3.81519
890.535 2.43432
890.726 1.73711
890.916 1.33519
891.297 0.908780
891.678 0.694547
892.059 0.568535
892.820 0.427597
894.344 0.298442
895.867 0.233428
898.914 0.163193
901.961 0.124938
908.055 0.0865380
914.149 0.0727188
920.243 0.0772630
923.290 0.0900320
926.337 0.117774
929.384 0.181280
930.908 0.245476
932.431 0.362051
933.193 0.459321
933.954 0.606047
934.716 0.842174
935.478 1.25758
936.240 2.09166
936.621 2.86555
937.001 4.16615
937.382 6.59979
937.573 8.69335
937.763 11.9410
937.954 17.3385
938.144 27.1257
938.239 35.1708
938.334 46.9115
938.430 64.4369
938.525 90.5740
938.662 144.903
938.800 181.103
938.938 144.855
939.075 90.5265
939.194 59.3273
939.313 40.4391
939.432 28.8486
939.551 21.4320
939.789 13.0172
940.027 8.68127
940.265 6.18295
940.503 4.62071
940.979 2.85734
941.455 1.93988
941.931 1.40364
942.407 1.06362
942.883 0.834702
943.835 0.555162
944.787 0.397526
945.739 0.299948
946.691 0.235370
948.595 0.157818
950.499 0.114723
952.403 0.0882683
954.306 0.0708321
958.114 0.0499358
961.922 0.0383275
969.538 0.0265967
977.153 0.0213782
984.769 0.0192357
992.384 0.0193453
1000.00 0.0223169
1006.96 0.0303038
1010.44 0.0388312
1013.92 0.0547434
1015.67 0.0682951
1017.41 0.0890972
1019.15 0.123396
1020.89 0.185825
1021.76 0.238383
1022.63 0.318376
1023.50 0.449002
1024.37 0.684096
1024.80 0.880059
1025.24 1.17477
1025.67 1.64883
1026.11 2.48343
1026.33 3.16380
1026.54 4.16205
1026.76 5.72768
1026.98 8.35469
1027.09 10.4087
1027.20 13.3148
1027.31 17.6089
1027.41 24.2346
1027.52 35.4092
1027.63 55.9232
1027.69 73.1760
1027.74 98.1684
1027.79 135.836
1027.85 192.619
1027.92 308.049
1028.00 384.930
1028.08 308.005
1028.15 192.574
1028.22 124.475
1028.29 83.9412
1028.36 59.4148
1028.42 43.8852
1028.56 26.4467
1028.70 17.5965
1028.83 12.4816
1028.97 9.29831
1029.24 5.72995
1029.51 3.87310
1029.78 2.79436
1030.05 2.10889
1030.32 1.64966
1030.87 1.08867
1031.41 0.772939
1031.95 0.577922
1032.50 0.449324
1033.58 0.295138
1034.67 0.210011
1035.75 0.158178
1036.84 0.124386
1039.01 0.0846003
1041.18 0.0633312
1043.35 0.0510925
1045.52 0.0440218
1049.87 0.0399122
1052.04 0.0429369
1054.21 0.0518620
1056.38 0.0742298
1057.47 0.0975518
1058.55 0.140621
1059.10 0.177077
1059.64 0.232749
1060.18 0.323756
1060.73 0.487504
1061.00 0.623776
1061.27 0.828036
1061.54 1.15708
1061.81 1.73214
1062.08 2.88645
1062.22 3.95435
1062.35 5.72663
1062.49 9.04096
1062.56 11.8750
1062.63 16.1624
1062.69 23.2915
1062.76 36.0178
1062.80 46.3094
1062.83 61.0960
1062.86 82.7406
1062.90 113.202
1062.95 181.283
1063.00 226.737
1063.05 181.268
1063.10 113.186
1063.15 71.5012
1063.20 47.3944
1063.25 33.1398
1063.30 24.4101
1063.40 14.5279
1063.49 9.60492
1063.59 6.77914
1063.69 5.04759
1063.88 3.10546
1064.08 2.09744
1064.27 1.51418
1064.47 1.14364
1064.66 0.896064
1065.05 0.593136
1065.44 0.423350
1065.83 0.318494
1066.22 0.249230
1067.00 0.166212
1067.78 0.120345
1068.55 0.0923117
1069.33 0.0739233
1070.89 0.0520326
1072.45 0.0399911
1075.56 0.0278993
1078.67 0.0223312
1081.79 0.0194665
1088.01 0.0174465
1094.24 0.0186168
1097.35 0.0207628
1100.47 0.0250459
1103.58 0.0344122
1105.14 0.0437464
1106.69 0.0607134
1107.47 0.0750096
1108.25 0.0968129
1109.03 0.132567
1109.81 0.197397
1110.20 0.251902
1110.59 0.334560
1110.97 0.469122
1111.36 0.710268
1111.56 0.910492
1111.75 1.20936
1111.95 1.68986
1112.14 2.52432
1112.34 4.18949
1112.43 5.70860
1112.53 8.22568
1112.58 10.1753
1112.63 12.8980
1112.68 16.8523
1112.73 22.7290
1112.77 32.3947
1112.82 48.7909
1112.85 62.2359
1112.87 80.3468
1112.90 105.929
1112.92 141.825
1112.96 227.514
1113.00 282.577
1113.04 225.280
1113.08 141.812
1113.12 90.9647
1113.16 60.9754
1113.19 42.9715
1113.23 31.6395
1113.30 18.9889
1113.38 12.5695
1113.45 8.90637
1113.53 6.63089
1113.67 4.09002
1113.82 2.76472
1113.97 1.99765
1114.12 1.50885
1114.26 1.18249
1114.56 0.782212
1114.85 0.557957
1115.15 0.419440
1115.44 0.327966
1116.03 0.218407
1116.62 0.158065
1117.22 0.121285
1117.81 0.0973437
1118.99 0.0691628
1120.17 0.0540316
1122.53 0.0397023
1124.89 0.0341567
1127.25 0.0324592
1131.98 0.0356000
1136.70 0.0481897
1139.06 0.0615070
1141.42 0.0858570
1142.60 0.106320
1143.78 0.137487
1144.97 0.188456
1146.15 0.280619
1146.74 0.357792
1147.33 0.474694
1147.92 0.665019
1148.51 1.00482
1148.80 1.28660
1149.10 1.70741
1149.39 2.37867
1149.69 3.54633
1149.84 4.48803
1149.98 5.85065
1150.13 7.95897
1150.28 11.4104
1150.35 14.0554
1150.43 17.7219
1150.50 22.9967
1150.57 30.8065
1150.65 43.3708
1150.72 64.7720
1150.80 104.078
1150.83 135.801
1150.87 178.270
1150.94 286.211
1151.00 356.758
1151.07 284.436
1151.13 178.239
1151.17 129.889
1151.21 97.1441
1151.30 58.0404
1151.38 37.8579
1151.46 26.4223
1151.55 19.4090
1151.63 14.8286
1151.79 9.46043
1151.96 6.53342
1152.13 4.77929
1152.46 2.87965
1152.79 1.92361
1153.12 1.37933
1153.45 1.03954
1153.78 0.813421
1154.45 0.540533
1155.11 0.388905
1155.77 0.296232
1156.43 0.235715
1157.76 0.164320
1159.08 0.126075
1161.73 0.0903245
1164.39 0.0774180
1167.04 0.0749533
1172.34 0.0899122
1174.99 0.108375
1177.64 0.138731
1180.29 0.190075
1182.94 0.283927
1184.26 0.362452
1185.59 0.480950
1186.91 0.671810
1187.58 0.814327
1188.24 1.00811
1188.90 1.28188
1189.57 1.68568
1190.23 2.31649
1190.89 3.37891
1191.22 4.20913
1191.55 5.38027
1191.88 7.10990
1192.22 9.80842
1192.55 14.3456
1192.88 22.6642
1193.04 29.6185
1193.21 39.8356
1193.38 55.4317
1193.54 78.9892
1193.77 126.742
1194.00 158.707
1194.23 126.684
1194.46 78.9326
1194.68 49.9726
1194.89 33.2448
1195.10 23.2725
1195.32 17.0773
1195.75 10.1949
1196.18 6.72715
1196.61 4.75693
1197.03 3.53661
1197.89 2.17132
1198.75 1.46721
1199.61 1.05799
1200.47 0.799600
1201.32 0.626392
1203.04 0.415630
1204.76 0.297670
1206.47 0.225488
1208.19 0.178688
1211.62 0.126514
1215.05 0.110476
1216.77 0.121476
1217.62 0.138579
1218.48 0.173796
1219.34 0.253193
1219.77 0.333113
1220.20 0.477870
1220.41 0.598674
1220.63 0.779605
1220.84 1.07109
1221.06 1.57875
1221.27 2.59397
1221.38 3.52276
1221.48 5.06548
1221.59 7.89865
1221.65 10.3169
1221.70 13.9258
1221.75 19.8685
1221.81 30.0144
1221.86 49.6306
1221.89 66.0191
1221.91 88.2614
1221.96 140.707
1222.00 175.470
1222.05 139.429
1222.09 87.2615
1222.14 50.6455
1222.19 31.5929
1222.24 21.1999
1222.29 15.1828
1222.34 11.3023
1222.39 8.76539
1222.49 5.67784
1222.59 3.97242
1222.68 2.93572
1222.88 1.79562
1223.08 1.21460
1223.28 0.882149
1223.48 0.673377
1223.68 0.533737
1224.07 0.363975
1224.47 0.268967
1225.26 0.171272
1226.05 0.124201
1226.85 0.0977429
1228.43 0.0700406
1230.02 0.0561637
1231.60 0.0479963
1234.77 0.0390065
1241.11 0.0323034
1247.45 0.0327814
1253.79 0.0413665
1256.96 0.0518546
1260.13 0.0720978
1261.72 0.0895571
1263.31 0.116478
1264.89 0.160920
1266.48 0.241793
1267.27 0.309690
1268.06 0.412695
1268.85 0.580373
1269.65 0.879683
1270.04 1.12737
1270.44 1.49703
1270.83 2.08552
1271.03 2.51997
1271.23 3.10610
1271.43 3.92824
1271.63 5.11758
1271.83 6.93795
1272.02 9.92220
1272.12 12.1823
1272.22 15.2959
1272.32 19.7398
1272.42 26.3617
1272.52 36.7599
1272.62 54.1427
1272.72 85.2248
1272.77 109.996
1272.82 142.929
1272.91 228.940
1273.00 285.350
1273.09 227.920
1273.19 142.894
1273.25 99.1080
1273.32 70.9840
1273.39 52.5515
1273.46 40.1387
1273.59 25.3088
1273.73 17.2772
1273.87 12.4703
1274.00 9.42384
1274.28 5.90937
1274.55 4.03847
1274.82 2.93547
1275.09 2.22950
1275.36 1.75088
1275.91 1.16180
1276.45 0.827735
1277.00 0.620293
1277.54 0.482949
1278.63 0.317540
1279.72 0.225801
1280.81 0.169638
1281.90 0.132778
1284.08 0.0889192
1286.26 0.0648292
1288.44 0.0502010
1290.62 0.0406748
1294.97 0.0294819
1299.33 0.0235208
1308.05 0.0182132
1316.76 0.0172198
1325.48 0.0201806
1329.83 0.0249944
1332.01 0.0296478
1334.19 0.0378111
1336.37 0.0545038
1337.46 0.0706333
1338.55 0.0994030
1339.64 0.159531
1340.18 0.218328
1340.73 0.323458
1341.00 0.410973
1341.27 0.542218
1341.54 0.753020
1341.82 1.12367
1341.95 1.42739
1342.09 1.87224
1342.23 2.56650
1342.36 3.73666
1342.50 5.93498
1342.57 7.83523
1342.63 10.7972
1342.70 15.7505
1342.77 24.8282
1342.80 32.3674
1342.84 43.4778
1342.87 60.2633
1342.91 85.6332
1342.95 137.423
1343.00 170.930
1343.05 136.267
1343.10 85.6254
1343.14 55.1063
1343.18 37.3619
1343.22 26.5575
1343.26 19.6816
1343.35 11.8565
1343.43 7.90395
1343.52 5.60947
1343.60 4.19663
1343.77 2.59532
1343.94 1.76524
1344.11 1.28132
1344.28 0.975167
1344.45 0.770509
1344.78 0.519921
1345.12 0.379682
1345.46 0.293850
1345.80 0.238110
1346.47 0.173561
1347.15 0.141485
1348.50 0.122477
1349.85 0.145613
1350.53 0.180569
1351.20 0.249267
1351.54 0.308390
1351.88 0.398884
1352.22 0.546343
1352.55 0.808234
1352.72 1.02378
1352.89 1.34435
1353.06 1.85061
1353.23 2.71798
1353.40 4.38851
1353.48 5.88167
1353.57 8.24519
1353.65 12.4085
1353.69 15.6961
1353.74 20.4187
1353.78 27.4793
1353.82 38.5134
1353.86 56.4931
1353.90 86.1794
1353.95 138.288
1354.00 172.021
1354.05 137.147
1354.10 86.1706
1354.14 58.7218
1354.17 41.2744
1354.21 30.1220
1354.25 22.9190
1354.32 14.2233
1354.40 9.66026
1354.48 6.93957
1354.55 5.23728
1354.70 3.28311
1354.85 2.24520
1355.00 1.63407
1355.15 1.24458
1355.30 0.982799
1355.61 0.659584
1355.91 0.477223
1356.21 0.363717
1356.51 0.288766
1357.11 0.198612
1357.72 0.148683
1358.92 0.0984178
1360.13 0.0752576
1361.33 0.0631454
1363.75 0.0528571
1368.57 0.0533372
1373.39 0.0692479
1375.81 0.0845785
1378.22 0.108467
1380.63 0.147551
1383.04 0.217311
1384.25 0.274807
1385.45 0.360919
1386.66 0.498790
1387.26 0.601425
1387.87 0.741230
1388.17 0.831190
1388.47 0.938895
1388.77 1.07032
1389.07 1.23190
1389.37 1.43515
1389.67 1.69395
1389.98 2.03317
1390.28 2.48672
1390.58 3.11716
1390.88 4.02297
1391.18 5.40102
1391.48 7.62478
1391.79 11.5728
1391.94 14.7838
1392.09 19.4531
1392.24 26.6623
1392.39 38.2467
1392.54 58.1696
1392.69 92.8126
1392.84 148.497
1393.00 185.639
1393.16 148.470
1393.31 92.7973
1393.43 64.4343
1393.54 46.0031
1393.66 33.9918
1393.78 25.9414
1394.01 16.3743
1394.24 11.2405
1394.47 8.18567
1394.70 6.24414
1395.17 4.03370
1395.63 2.88838
1396.09 2.24649
1397.02 1.68665
1397.95 1.70960
1398.41 1.96474
1398.87 2.51161
1399.34 3.66785
1399.57 4.72415
1399.80 6.42240
1400.03 9.39332
1400.26 15.1203
1400.38 20.1619
1400.50 27.9985
1400.61 40.6692
1400.73 61.1619
1400.86 97.6948
1401.00 122.051
1401.14 97.6541
1401.27 61.1022
1401.38 41.2987
1401.49 28.9560
1401.60 21.1167
1401.71 15.9650
1401.93 9.95993
1402.15 6.78216
1402.37 4.91763
1402.58 3.73571
1403.02 2.38114
1403.46 1.66370
1403.89 1.23740
1404.76 0.774688
1405.64 0.539439
1406.51 0.402331
1408.25 0.254334
1410.00 0.178653
1411.74 0.134027
1415.23 0.0852207
1418.72 0.0600068
1422.21 0.0451129
1429.18 0.0289491
1436.16 0.0207719
1443.14 0.0160736
1457.09 0.0112665
1471.05 0.00926806
1485.00 0.00903458
1491.98 0.0100002
1498.95 0.0134535
1502.44 0.0184637
1504.19 0.0235055
1505.93 0.0327408
1507.68 0.0525043
1508.55 0.0721382
1509.42 0.107792
1510.29 0.183149
1510.73 0.257138
1511.16 0.389684
1511.38 0.499342
1511.60 0.663778
1511.82 0.926528
1512.04 1.38464
1512.25 2.29192
1512.36 3.12162
1512.47 4.49472
1512.58 7.00276
1512.64 9.13114
1512.69 12.2910
1512.74 17.4524
1512.80 26.1713
1512.83 33.2420
1512.85 42.7517
1512.88 56.1025
1512.91 74.7184
1512.95 119.927
1513.00 149.157
1513.05 118.897
1513.09 74.7122
1513.14 44.0152
1513.19 27.9568
1513.24 18.9835
1513.29 13.6164
1513.34 10.1982
1513.39 7.90385
1513.49 5.12881
1513.60 3.57547
1513.70 2.63914
1513.90 1.60523
1514.10 1.07646
1514.30 0.773320
1514.50 0.582012
1514.70 0.454782
1515.10 0.300181
1515.50 0.213691
1515.90 0.160483
1516.30 0.125515
1517.10 0.0836688
1517.90 0.0606147
1518.71 0.0465843
1519.51 0.0374300
1521.11 0.0265917
1522.71 0.0206911
1525.92 0.0148519
1529.13 0.0122209
1532.34 0.0108777
1538.75 0.00979792
1551.58 0.0100579
1564.40 0.0121174
1577.23 0.0168890
1583.64 0.0215299
1590.06 0.0297522
1596.47 0.0467900
1599.68 0.0634185
1602.88 0.0933151
1604.49 0.118288
1606.09 0.156154
1607.69 0.217813
1609.30 0.328387
1610.10 0.420185
1610.90 0.558331
1611.30 0.655206
1611.70 0.780248
1612.10 0.945528
1612.50 1.16968
1612.91 1.48608
1613.31 1.95180
1613.71 2.67741
1613.91 3.20074
1614.11 3.89341
1614.31 4.84190
1614.51 6.17248
1614.71 8.13965
1614.91 11.1763
1615.11 16.2466
1615.31 25.3975
1615.41 32.9094
1615.51 43.8570
1615.61 60.1700
1615.71 84.4459
1615.86 134.958
1616.00 168.561
1616.15 134.559
1616.29 84.1289
1616.39 59.5561
1616.50 43.1833
1616.60 32.2742
1616.70 24.8310
1616.90 15.8166
1617.11 10.8875
1617.31 7.91066
1617.51 5.99624
1617.92 3.78033
1618.33 2.59474
1618.74 1.89205
1619.14 1.44026
1619.55 1.13432
1620.37 0.757282
1621.18 0.543136
1622.00 0.410102
1622.81 0.322026
1624.44 0.216290
1626.07 0.158014
1627.70 0.122797
1629.33 0.100165
1632.59 0.0745825
1635.85 0.0624937
1642.37 0.0574525
1648.89 0.0712793
1652.14 0.0890579
1655.40 0.122554
1658.66 0.193203
1660.29 0.261520
1661.92 0.381537
1663.55 0.622778
1664.37 0.847143
1665.18 1.22508
1666.00 1.93721
1666.40 2.55528
1666.81 3.51905
1667.22 5.14195
1667.63 8.12930
1667.83 10.6345
1668.03 14.3332
1668.24 20.0006
1668.44 28.6235
1668.72 46.0117
1669.00 57.6959
1669.28 45.9937
1669.56 28.6067
1669.77 19.8854
1669.97 14.2350
1670.18 10.5393
1670.38 8.05384
1670.79 5.08293
1671.20 3.48072
1671.61 2.52606
1672.02 1.91782
1672.84 1.21649
1673.67 0.845356
1674.49 0.626480
1676.13 0.393695
1677.77 0.280947
1679.41 0.220069
1682.70 0.167585
1685.98 0.163472
1687.62 0.177868
1689.26 0.210216
1690.90 0.280746
1691.73 0.348793
1692.55 0.468284
1693.37 0.710661
1693.78 0.940848
1694.19 1.33904
1694.60 2.12740
1694.80 2.84667
1695.01 4.03800
1695.21 6.21924
1695.32 8.06635
1695.42 10.8417
1695.52 15.3567
1695.62 23.1056
1695.73 37.8679
1695.83 67.0250
1695.92 107.316
1696.00 133.731
1696.09 106.809
1696.17 67.0201
1696.23 49.1389
1696.28 36.7049
1696.39 22.0390
1696.50 14.4546
1696.60 10.1525
1696.71 7.51275
1696.82 5.78853
1697.03 3.76664
1697.25 2.66803
1697.47 2.01404
1697.90 1.30703
1698.33 0.958597
1698.76 0.767083
1699.62 0.587050
1700.48 0.526857
1701.35 0.524680
1702.21 0.561858
1703.07 0.635746
1703.93 0.753871
1704.80 0.934307
1705.66 1.21416
1706.52 1.66676
1707.38 2.45513
1707.82 3.08080
1708.25 3.97557
1708.68 5.30453
1709.11 7.36229
1709.54 10.6742
1709.97 16.0639
1710.49 25.7113
1711.00 32.1505
1711.52 25.6896
1712.03 16.0405
1712.63 9.12648
1713.24 5.62398
1713.84 3.74771
1714.44 2.65774
1715.05 1.97764
1715.65 1.52793
1716.86 0.992116
1718.06 0.698910
1719.27 0.521994
1721.68 0.329575
1724.09 0.234267
1726.50 0.182153
1731.33 0.138426
1736.15 0.144103
1738.56 0.169505
1740.98 0.225069
1743.39 0.350821
1744.59 0.476075
1745.80 0.699746
1746.40 0.883218
1747.01 1.15545
1747.61 1.58363
1748.21 2.31264
1748.51 2.88658
1748.81 3.70230
1749.12 4.92424
1749.42 6.85230
1749.72 10.1610
1749.87 12.7599
1750.02 16.4141
1750.17 21.8104
1750.32 30.0464
1750.47 43.0563
1750.62 63.5850
1750.81 101.836
1751.00 127.151
1751.19 101.594
1751.38 63.5590
1751.59 37.1268
1751.80 23.2527
1752.01 15.6407
1752.22 11.1470
1752.43 8.31169
1752.64 6.42171
1753.06 4.15166
1753.48 2.89911
1753.90 2.13826
1754.74 1.30209
1755.58 0.877745
1756.42 0.633453
1757.26 0.480076
1758.10 0.377581
1759.78 0.252975
1761.46 0.182978
1763.14 0.139615
1764.81 0.110851
1768.17 0.0760480
1771.53 0.0564513
1778.25 0.0360261
1784.97 0.0259589
1791.69 0.0201994
1805.12 0.0142865
1818.56 0.0120304
1832.00 0.0129857
1838.72 0.0162916
1842.08 0.0199767
1845.43 0.0269789
1848.79 0.0422817
1850.47 0.0576552
1852.15 0.0857418
1852.99 0.109433
1853.83 0.145604
1854.67 0.204825
1855.51 0.311597
1855.93 0.400703
1856.35 0.535345
1856.77 0.752745
1857.19 1.13758
1857.40 1.45215
1857.61 1.91828
1857.82 2.65113
1858.03 3.89925
1858.14 4.88076
1858.24 6.28171
1858.35 8.37599
1858.45 11.6980
1858.56 17.3953
1858.61 21.9297
1858.66 28.2464
1858.71 37.7316
1858.77 51.9826
1858.82 74.4931
1858.87 110.328
1858.94 176.763
1859.00 221.149
1859.07 176.751
1859.13 110.316
1859.18 73.4074
1859.24 50.6388
1859.29 36.4434
1859.35 27.3875
1859.45 16.8272
1859.56 11.3010
1859.67 8.06165
1859.77 6.04477
1859.99 3.75138
1860.20 2.54610
1860.42 1.84257
1860.63 1.39497
1860.85 1.09285
1861.27 0.722535
1861.70 0.513517
1862.13 0.384142
1862.56 0.298721
1863.42 0.196033
1864.28 0.139229
1865.13 0.104477
1865.99 0.0817262
1867.71 0.0546808
1869.42 0.0398360
1871.14 0.0308174
1872.85 0.0249299
1876.28 0.0179644
1879.71 0.0141619
1886.57 0.0103977
1893.43 0.00873470
1900.29 0.00796667
1914.01 0.00779208
1927.73 0.00910325
1934.59 0.0106072
1941.45 0.0132375
1948.31 0.0182963
1951.74 0.0228401
1955.17 0.0304187
1958.60 0.0450750
1960.31 0.0586532
1962.03 0.0821853
1963.74 0.130002
1964.60 0.176073
1965.46 0.257945
1965.88 0.325766
1966.31 0.427920
1966.74 0.592669
1967.17 0.883837
1967.39 1.12365
1967.60 1.47875
1967.81 2.03979
1968.03 3.00278
1968.14 3.77469
1968.24 4.87706
1968.35 6.54365
1968.46 9.22919
1968.56 13.9428
1968.62 17.7828
1968.67 23.2557
1968.72 31.7184
1968.78 44.9507
1968.83 67.5104
1968.88 105.212
1968.94 167.875
1969.00 209.468
1969.06 166.716
1969.12 104.306
1969.16 73.1997
1969.20 52.7072
1969.24 39.1854
1969.29 30.0303
1969.37 19.0310
1969.45 13.0410
1969.54 9.46381
1969.62 7.17097
1969.79 4.52116
1969.96 3.11248
1970.13 2.27784
1970.46 1.38234
1970.80 0.939192
1971.13 0.689418
1971.81 0.436185
1972.48 0.321686
1973.15 0.266329
1974.49 0.240871
1975.84 0.301014
1976.51 0.381291
1977.18 0.534816
1977.52 0.664791
1977.85 0.861609
1978.19 1.17842
1978.52 1.73445
1978.69 2.18440
1978.86 2.84427
1979.03 3.86693
1979.20 5.57291
1979.28 6.88711
1979.36 8.72655
1979.45 11.4064
1979.53 15.5102
1979.62 22.2026
1979.70 34.0140
1979.74 43.4588
1979.78 56.8884
1979.83 76.3022
1979.87 103.444
1979.93 166.039
1980.00 206.965
1980.07 165.032
1980.13 103.434
1980.19 67.5576
1980.25 46.2255
1980.31 33.0812
1980.36 24.6412
1980.48 15.0302
1980.59 10.0598
1980.71 7.16952
1980.82 5.37825
1981.05 3.35181
1981.28 2.29250
1981.50 1.67631
1981.96 1.02185
1982.42 0.702130
1982.88 0.523792
1983.79 0.346204
1984.70 0.269512
1985.62 0.237141
1987.44 0.243402
1988.36 0.277488
1989.27 0.340423
1990.19 0.451431
1991.10 0.656457
1991.56 0.827421
1992.01 1.08346
1992.47 1.49013
1992.70 1.78841
1992.93 2.18881
1993.15 2.74620
1993.38 3.54563
1993.61 4.76059
1993.84 6.71103
1993.95 8.17787
1994.07 10.1526
1994.18 12.9156
1994.30 16.9270
1994.41 23.0089
1994.52 32.6944
1994.64 48.8802
1994.75 76.4410
1994.88 122.137
1995.00 152.532
1995.13 121.727
1995.25 76.1163
1995.32 56.5021
1995.40 42.7952
1995.55 26.1890
1995.70 17.3071
1995.84 12.2130
1995.99 9.02555
1996.14 6.93838
1996.44 4.44866
1996.73 3.08931
1997.03 2.26930
1997.63 1.37382
1998.22 0.922050
1998.81 0.662946
1999.41 0.500709
2000.00 0.392572
2001.15 0.264202
2002.31 0.191346
2003.46 0.145947
2004.61 0.115787
2006.92 0.0794232
2009.22 0.0592596
2013.83 0.0393736
2018.44 0.0315599
2023.05 0.0307299
2025.35 0.0334282
2027.66 0.0400682
2029.96 0.0557604
2031.12 0.0717496
2032.27 0.100915
2033.42 0.162668
2034.00 0.223217
2034.57 0.331599
2034.86 0.421215
2035.15 0.555551
2035.44 0.770134
2035.73 1.14416
2036.01 1.88472
2036.16 2.56184
2036.30 3.68227
2036.45 5.72843
2036.52 7.44545
2036.59 10.0417
2036.66 14.2014
2036.73 21.3578
2036.81 34.7002
2036.84 45.6257
2036.88 60.9059
2036.94 97.6720
2037.00 121.621
2037.06 97.0351
2037.12 60.9005
2037.17 43.1929
2037.21 31.5872
2037.25 23.6169
2037.29 18.2798
2037.38 11.6907
2037.46 8.08868
2037.55 5.88760
2037.63 4.48304
2037.80 2.83593
2037.97 1.95395
2038.14 1.42872
2038.48 0.862080
2038.81 0.579605
2039.15 0.419004
2039.49 0.319187
2039.83 0.253037
2040.50 0.173811
2041.18 0.130295
2042.53 0.0876319
2043.89 0.0696743
2045.24 0.0624821
2047.94 0.0655841
2049.29 0.0750647
2050.65 0.0921917
2052.00 0.122327
2053.35 0.178458
2054.03 0.225699
2054.70 0.297216
2055.38 0.412561
2056.05 0.615840
2056.39 0.781079
2056.73 1.02450
2057.07 1.40403
2057.41 2.04266
2057.74 3.23894
2057.91 4.26972
2058.08 5.87103
2058.25 8.53610
2058.42 13.3851
2058.51 17.4116
2058.59 23.2349
2058.67 32.0651
2058.76 45.1310
2058.88 72.2309
2059.00 90.3052
2059.12 72.2214
2059.24 45.1215
2059.32 32.8292
2059.40 24.3541
2059.55 14.5029
2059.71 9.41776
2059.86 6.56778
2060.02 4.81340
2060.18 3.67740
2060.49 2.33779
2060.80 1.61431
2061.11 1.18103
2061.73 0.711573
2062.35 0.475760
2062.97 0.341124
2063.60 0.257105
2064.22 0.201249
2065.46 0.133697
2066.70 0.0960249
2067.95 0.0728371
2069.19 0.0575633
2071.68 0.0392720
2074.16 0.0291318
2079.14 0.0188353
2084.11 0.0139889
2089.08 0.0113905
2099.03 0.00919457
2108.98 0.00938484
2113.95 0.0105670
2118.93 0.0132230
2123.90 0.0194005
2126.39 0.0257211
2128.87 0.0373477
2130.12 0.0471878
2131.36 0.0622231
2132.60 0.0868940
2133.85 0.131475
2134.47 0.168725
2135.09 0.225090
2135.71 0.316270
2136.33 0.477746
2136.64 0.610219
2136.96 0.806994
2137.27 1.11737
2137.58 1.64618
2137.89 2.66491
2138.04 3.57052
2138.20 5.00873
2138.35 7.51993
2138.43 9.52204
2138.51 12.3554
2138.59 16.6372
2138.66 23.2200
2138.74 34.0425
2138.82 51.5860
2138.91 82.6694
2139.00 103.066
2139.09 82.2982
2139.18 51.5788
2139.24 38.2152
2139.29 28.9321
2139.40 17.6912
2139.51 11.7128
2139.61 8.25668
2139.72 6.10755
2139.83 4.68992
2140.05 3.00484
2140.26 2.08115
2140.48 1.52697
2140.91 0.921563
2141.34 0.615624
2141.78 0.440756
2142.21 0.331138
2142.64 0.258249
2143.51 0.170076
2144.37 0.120886
2145.24 0.0906795
2146.10 0.0708115
2147.83 0.0471281
2149.56 0.0340870
2151.29 0.0261493
2153.02 0.0209643
2156.48 0.0148217
2159.94 0.0114682
2166.86 0.00814165
2173.78 0.00664956
2180.70 0.00591482
2194.54 0.00548566
2208.37 0.00595104
2222.21 0.00783342
2229.13 0.0103609
2232.59 0.0128005
2236.05 0.0171590
2239.51 0.0263185
2241.24 0.0353605
2242.97 0.0517583
2243.84 0.0655481
2244.70 0.0865850
2245.57 0.121040
2246.43 0.183380
2246.86 0.235574
2247.30 0.314497
2247.73 0.442794
2248.16 0.670858
2248.38 0.859467
2248.59 1.13965
2248.81 1.58397
2249.03 2.35019
2249.13 2.96030
2249.24 3.84163
2249.35 5.18036
2249.40 6.12570
2249.46 7.35167
2249.51 8.97903
2249.57 11.1994
2249.62 14.3297
2249.67 18.9189
2249.73 25.9685
2249.78 37.3976
2249.84 56.9700
2249.89 91.3285
2249.95 146.406
2250.00 182.152
2250.06 145.353
2250.11 91.3219
2250.16 59.9042
2250.21 40.8535
2250.26 29.1521
2250.30 21.7865
2250.40 13.2785
2250.49 8.87336
2250.59 6.32710
2250.68 4.73137
2250.87 2.92614
2251.06 1.98530
2251.25 1.43471
2251.44 1.08531
2251.63 0.849920
2252.01 0.562468
2252.39 0.400381
2252.77 0.300133
2253.15 0.233865
2253.91 0.154427
2254.67 0.110591
2255.43 0.0838699
2256.19 0.0664129
2257.71 0.0458035
2259.23 0.0346651
2262.28 0.0238958
2265.32 0.0194144
2268.36 0.0175886
2274.44 0.0179804
2280.52 0.0231705
2283.56 0.0289661
2286.60 0.0396504
2289.64 0.0622665
2291.17 0.0845006
2292.69 0.124448
2293.45 0.157719
2294.21 0.207860
2294.97 0.288718
2295.73 0.431704
2296.11 0.548515
2296.49 0.721551
2296.87 0.993514
2297.25 1.45659
2297.63 2.34032
2297.82 3.11707
2298.01 4.34911
2298.20 6.46205
2298.39 10.4871
2298.48 13.9662
2298.58 19.2975
2298.67 27.7648
2298.77 41.3277
2298.88 66.1428
2299.00 82.6943
2299.12 66.1355
2299.23 41.3205
2299.32 28.9084
2299.40 20.8355
2299.49 15.4498
2299.57 11.8502
2299.74 7.49950
2299.91 5.13314
2300.08 3.72111
2300.25 2.81658
2300.59 1.77390
2300.92 1.21766
2301.26 0.888123
2301.60 0.677240
2301.94 0.534665
2302.61 0.358938
2303.29 0.259470
2303.96 0.197697
2304.64 0.156901
2305.99 0.108132
2307.34 0.0814594
2310.04 0.0555234
2312.74 0.0448187
2315.44 0.0407311
2320.85 0.0432324
2326.25 0.0597640
2328.95 0.0778730
2331.65 0.110983
2334.36 0.179943
2335.71 0.246206
2337.06 0.361891
2338.41 0.592098
2339.08 0.803915
2339.76 1.15607
2340.44 1.80649
2340.77 2.35817
2341.11 3.19840
2341.45 4.56824
2341.79 6.96730
2341.95 8.88255
2342.12 11.5967
2342.29 15.5054
2342.46 21.0672
2342.73 33.6752
2343.00 42.0680
2343.27 33.6163
2343.54 21.0198
2343.85 12.1028
2344.16 7.50729
2344.47 5.01969
2344.78 3.56828
2345.09 2.65490
2345.40 2.04906
2346.02 1.32594
2346.64 0.928267
2347.26 0.688047
2348.50 0.425262
2349.74 0.292864
2350.97 0.217520
2353.45 0.140720
2355.93 0.106138
2358.41 0.0899373
2363.36 0.0850239
2368.32 0.109616
2370.79 0.139711
2373.27 0.195283
2375.75 0.309133
2376.99 0.415602
2378.23 0.595481
2378.85 0.736163
2379.47 0.935357
2380.08 1.23064
2380.70 1.69388
2381.32 2.47791
2381.63 3.08637
2381.94 3.93588
2382.25 5.16936
2382.56 7.01066
2382.87 9.85949
2383.18 14.2535
2383.59 22.7702
2384.00 28.4401
2384.41 22.7636
2384.82 14.2504
2385.07 10.5853
2385.32 7.99644
2385.81 4.88334
2386.31 3.24135
2386.80 2.29858
2387.30 1.71609
2387.80 1.33458
2388.79 0.887242
2389.78 0.650761
2390.77 0.517226
2392.76 0.406457
2394.74 0.434969
2395.73 0.516260
2396.72 0.686555
2397.72 1.05739
2398.21 1.41370
2398.71 2.02565
2399.20 3.19867
2399.45 4.23091
2399.70 5.86790
2399.95 8.67223
2400.07 10.8763
2400.20 14.0014
2400.32 18.5947
2400.44 25.6124
2400.57 36.7122
2400.69 54.3999
2400.85 86.9055
2401.00 108.534
2401.16 86.6652
2401.31 54.2067
2401.41 39.8890
2401.50 29.9696
2401.69 18.1333
2401.88 11.9342
2402.07 8.38673
2402.26 6.18675
2402.45 4.75158
2402.83 3.05280
2403.21 2.12628
2403.59 1.56997
2404.35 0.962472
2405.11 0.655063
2405.87 0.478174
2407.40 0.292191
2408.92 0.200648
2410.44 0.148493
2413.48 0.0935218
2416.52 0.0661185
2419.57 0.0502255
2425.65 0.0331474
2431.74 0.0245312
2437.82 0.0196242
2450.00 0.0149970
2462.17 0.0143748
2468.25 0.0156587
2474.34 0.0189028
2480.42 0.0266091
2483.47 0.0344546
2486.51 0.0487485
2488.03 0.0607369
2489.55 0.0789195
2491.07 0.108485
2492.60 0.161321
2493.36 0.205018
2494.12 0.270523
2494.88 0.375193
2495.64 0.557462
2496.40 0.919190
2496.78 1.24993
2497.16 1.79781
2497.35 2.21959
2497.54 2.80375
2497.73 3.64814
2497.92 4.92772
2498.11 6.98427
2498.30 10.5382
2498.40 13.3223
2498.49 17.2083
2498.59 22.7044
2498.68 30.4289
2498.84 48.6320
2499.00 60.7449
2499.16 48.5037
2499.32 30.3274
2499.51 17.4475
2499.69 10.8135
2499.87 7.22367
2500.06 5.12426
2500.24 3.80835
2500.43 2.93538
2500.79 1.89192
2501.16 1.31894
2501.53 0.972090
2502.26 0.592677
2503.00 0.400724
2503.74 0.290939
2504.47 0.222380
2505.21 0.177011
2506.68 0.123009
2508.15 0.0942935
2509.62 0.0784603
2511.09 0.0704933
2514.03 0.0725404
2515.51 0.0848502
2516.98 0.112179
2517.71 0.136681
2518.45 0.174865
2519.18 0.238207
2519.92 0.352912
2520.29 0.448603
2520.65 0.592828
2521.02 0.824602
2521.39 1.23016
2521.76 2.04321
2521.94 2.79473
2522.13 4.05282
2522.22 5.02537
2522.31 6.39107
2522.40 8.38921
2522.49 11.4667
2522.59 16.5257
2522.68 25.5595
2522.72 32.8671
2522.77 43.3678
2522.82 58.7396
2522.86 80.5695
2522.93 128.624
2523.00 160.543
2523.07 127.885
2523.14 79.9910
2523.22 48.0515
2523.29 30.7016
2523.36 20.9295
2523.44 15.0535
2523.51 11.2973
2523.59 8.76939
2523.73 5.71877
2523.88 4.00526
2524.03 2.96418
2524.32 1.80780
2524.62 1.21614
2524.91 0.875868
2525.21 0.661815
2525.50 0.518506
2526.09 0.344320
2526.68 0.246817
2527.28 0.186581
2527.87 0.146873
2529.05 0.0992321
2530.23 0.0727898
2532.59 0.0458573
2534.95 0.0330209
2537.31 0.0258819
2542.04 0.0186532
2546.76 0.0153845
2551.49 0.0138692
2560.93 0.0136864
2570.38 0.0170918
2575.11 0.0212395
2579.83 0.0291488
2582.19 0.0359122
2584.55 0.0462986
2586.92 0.0633813
2589.28 0.0943802
2590.46 0.120346
2591.64 0.159759
2592.82 0.223794
2594.00 0.338201
2594.59 0.432697
2595.18 0.573795
2595.77 0.798864
2596.36 1.18865
2596.66 1.50202
2596.95 1.95594
2597.25 2.65063
2597.54 3.78930
2597.69 4.65493
2597.84 5.83920
2597.99 7.54097
2598.13 10.0589
2598.28 14.0394
2598.43 20.6452
2598.58 32.5332
2598.72 54.4295
2598.86 86.9857
2599.00 108.645
2599.14 86.7237
2599.28 54.2228
2599.40 35.6083
2599.51 24.3855
2599.63 17.4575
2599.75 13.0034
2599.99 7.91060
2600.22 5.28836
2600.46 3.76724
2600.70 2.81862
2601.17 1.74334
2601.64 1.18328
2602.12 0.855682
2602.59 0.647858
2603.06 0.508136
2604.01 0.337153
2604.95 0.240877
2605.90 0.181293
2606.84 0.141970
2608.73 0.0949050
2610.62 0.0689655
2612.52 0.0532318
2614.41 0.0430345
2618.19 0.0312416
2621.97 0.0252292
2629.54 0.0207770
2637.10 0.0220297
2640.88 0.0249825
2644.66 0.0307910
2648.45 0.0429628
2650.34 0.0546347
2652.23 0.0752313
2654.12 0.117620
2655.07 0.158618
2656.01 0.231311
2656.48 0.291179
2656.96 0.380668
2657.43 0.523253
2657.90 0.770497
2658.38 1.25941
2658.61 1.70654
2658.85 2.44151
2658.97 3.00705
2659.09 3.78521
2659.20 4.90456
2659.32 6.58986
2659.44 9.27431
2659.56 13.8541
2659.68 22.2885
2659.73 29.1163
2659.79 38.5804
2659.90 61.7988
2660.00 77.0647
2660.10 61.5561
2660.21 38.5760
2660.31 24.2398
2660.41 16.0052
2660.50 11.1638
2660.60 8.16249
2660.80 4.86033
2661.00 3.21326
2661.20 2.27547
2661.39 1.69890
2661.79 1.05338
2662.18 0.720845
2662.58 0.528779
2663.37 0.327214
2664.16 0.229947
2664.95 0.176679
2666.53 0.125618
2668.11 0.106316
2669.69 0.101628
2672.85 0.119497
2674.44 0.142925
2676.02 0.181603
2677.60 0.246621
2679.18 0.363737
2679.97 0.460166
2680.76 0.603141
2681.55 0.828314
2682.34 1.21098
2682.74 1.51226
2683.13 1.94058
2683.53 2.57923
2683.92 3.58861
2684.32 5.31045
2684.51 6.66246
2684.71 8.56296
2684.91 11.3581
2685.11 15.5821
2685.30 22.2480
2685.50 32.7244
2685.75 52.3186
2686.00 65.3623
2686.25 52.2231
2686.50 32.6473
2686.74 20.5171
2686.98 13.5472
2687.22 9.44721
2687.46 6.90441
2687.70 5.24233
2687.94 4.10515
2688.41 2.70501
2688.89 1.91031
2689.37 1.42017
2690.32 0.872090
2691.28 0.589629
2692.23 0.425771
2693.19 0.322294
2694.14 0.252816
2696.05 0.168191
2697.96 0.120614
2699.87 0.0912117
2701.78 0.0717737
2705.61 0.0484686
2709.43 0.0355698
2717.07 0.0225654
2724.71 0.0165630
2732.35 0.0134412
2747.63 0.0109919
2762.91 0.0113666
2770.56 0.0126534
2778.20 0.0152143
2785.84 0.0204272
2789.66 0.0252114
2793.48 0.0332555
2797.30 0.0488358
2799.21 0.0632093
2801.12 0.0879435
2803.03 0.137611
2803.99 0.184749
2804.94 0.267322
2805.90 0.434365
2806.37 0.592133
2806.85 0.862897
2807.09 1.07873
2807.33 1.39067
2807.57 1.86514
2807.81 2.63245
2808.04 4.00181
2808.16 5.12613
2808.28 6.76761
2808.40 9.32571
2808.52 13.4708
2808.64 20.6304
2808.76 33.3380
2808.88 53.2430
2809.00 66.4832
2809.12 53.0626
2809.24 33.1979
2809.35 21.0314
2809.47 13.9792
2809.58 9.80131
2809.69 7.21523
2809.92 4.33327
2810.14 2.88092
2810.37 2.05616
2810.59 1.54589
2811.04 0.976720
2811.49 0.684976
2811.94 0.518206
2812.84 0.348691
2813.74 0.275109
2814.64 0.245059
2816.45 0.256834
2817.35 0.294879
2818.25 0.362983
2819.15 0.480994
2820.05 0.694929
2820.50 0.870659
2820.95 1.12925
2821.40 1.53147
2821.85 2.20418
2822.07 2.72319
2822.30 3.45036
2822.52 4.51090
2822.75 6.13704
2822.97 8.79336
2823.20 13.4931
2823.31 17.2805
2823.42 22.6313
2823.54 30.4619
2823.65 41.6700
2823.82 66.5971
2824.00 83.1866
2824.18 66.4357
2824.35 41.5410
2824.54 25.1280
2824.72 16.1354
2824.90 11.0384
2825.09 7.96010
2825.27 5.98621
2825.45 4.65473
2825.82 3.03628
2826.18 2.13280
2826.55 1.57968
2827.28 0.967326
2828.01 0.654408
2828.75 0.473455
2829.48 0.359493
2830.21 0.283185
2831.67 0.190229
2833.14 0.137953
2834.60 0.105638
2836.06 0.0842799
2838.99 0.0586668
2841.92 0.0445414
2847.77 0.0305387
2853.63 0.0244896
2859.48 0.0218804
2871.19 0.0219611
2882.90 0.0280909
2888.76 0.0349189
2894.61 0.0471801
2900.47 0.0720767
2903.39 0.0956081
2906.32 0.136378
2909.25 0.217379
2910.71 0.292291
2912.18 0.418323
2912.91 0.516591
2913.64 0.655827
2914.37 0.862162
2915.10 1.18531
2915.84 1.73178
2916.57 2.74974
2916.93 3.60984
2917.30 4.89892
2917.67 6.88898
2918.03 9.96320
2918.52 15.9479
2919.00 19.9464
2919.49 15.9432
2919.97 9.96063
2920.37 6.67141
2920.77 4.63134
2921.16 3.35371
2921.56 2.52352
2922.36 1.56765
2923.15 1.06891
2923.95 0.780002
2924.75 0.599414
2926.34 0.397925
2927.93 0.297512
2929.52 0.244742
2932.70 0.211710
2935.89 0.250055
2937.48 0.308208
2939.07 0.420362
2940.66 0.654954
2941.46 0.875753
2942.25 1.24871
2942.65 1.53959
2943.05 1.95074
2943.45 2.55716
2943.85 3.50110
2944.24 5.07594
2944.64 7.95099
2944.84 10.3292
2945.04 13.8203
2945.24 19.0686
2945.44 26.9082
2945.72 42.9955
2946.00 53.7058
2946.28 42.9243
2946.57 26.8502
2946.81 17.7052
2947.05 12.1329
2947.29 8.69490
2947.53 6.48584
2948.01 3.96921
2948.49 2.66745
2948.98 1.91562
2949.46 1.44479
2950.42 0.913181
2951.38 0.636461
2952.35 0.475387
2954.27 0.306335
2956.20 0.226519
2958.13 0.185774
2961.98 0.160607
2965.84 0.188889
2967.77 0.232027
2969.69 0.315683
2970.66 0.386261
2971.62 0.491971
2972.10 0.565508
2972.58 0.659489
2973.07 0.782063
2973.55 0.945481
2974.03 1.17082
2974.51 1.49252
2974.99 1.97326
2975.47 2.73317
2975.71 3.29088
2975.96 4.03624
2976.20 5.05995
2976.44 6.51099
2976.68 8.64293
2976.92 11.8986
2977.16 17.0451
2977.40 25.1974
2977.70 40.2661
2978.00 50.2984
2978.30 40.2024
2978.60 25.1456
2978.92 15.1003
2979.23 9.66353
2979.55 6.59320
2979.87 4.75395
2980.18 3.57495
2980.50 2.78431
2981.13 1.82416
2981.77 1.28978
2982.40 0.963431
2983.66 0.603536
2984.93 0.420522
2986.20 0.315701
2988.73 0.207866
2991.26 0.158764
2993.79 0.135472
2998.85 0.127872
3003.91 0.161884
3006.45 0.202907
3008.98 0.276143
3011.51 0.416533
3012.77 0.538023
3014.04 0.726078
3015.30 1.03701
3016.57 1.59474
3017.20 2.04836
3017.84 2.70319
3018.47 3.66745
3019.10 5.08093
3020.05 8.11357
3021.00 10.1314
3021.95 8.10643
3022.90 5.07336
3023.81 3.19823
3024.71 2.12006
3025.61 1.48429
3026.52 1.09010
3028.33 0.655668
3030.14 0.438318
3031.94 0.315661
3033.75 0.240596
3037.37 0.160061
3040.99 0.127198
3042.80 0.124245
3044.61 0.134004
3046.41 0.169873
3047.32 0.210396
3048.22 0.286750
3049.13 0.450216
3049.58 0.609690
3050.03 0.891509
3050.48 1.45933
3050.71 1.98749
3050.94 2.87726
3051.16 4.54660
3051.28 5.98715
3051.39 8.22832
3051.50 11.9658
3051.56 14.8566
3051.61 18.7857
3051.67 24.4845
3051.73 32.6989
3051.78 45.2662
3051.84 63.8041
3051.92 101.866
3052.00 127.160
3052.08 101.353
3052.16 63.4019
3052.24 40.0103
3052.31 26.5083
3052.39 18.5349
3052.46 13.6274
3052.62 8.12427
3052.77 5.37587
3052.92 3.80541
3053.07 2.83988
3053.37 1.75577
3053.68 1.19671
3053.98 0.871602
3054.28 0.666084
3054.59 0.527937
3055.19 0.359409
3055.80 0.264257
3057.01 0.165910
3058.22 0.118189
3059.43 0.0911559
3061.86 0.0626250
3064.28 0.0481321
3066.70 0.0394592
3071.55 0.0296033
3076.40 0.0243002
3081.24 0.0215967
3083.67 0.0214786
3086.09 0.0237396
3088.51 0.0401143
3089.12 0.0571630
3089.73 0.104189
3090.03 0.166781
3090.33 0.331809
3090.48 0.541064
3090.63 1.04756
3090.71 1.63053
3090.79 2.84626
3090.82 4.03758
3090.86 6.10346
3090.90 9.99861
3090.94 17.5894
3090.97 28.0512
3091.00 35.1390
3091.03 28.0514
3091.06 17.5897
3091.08 13.0211
3091.10 9.85871
3091.14 5.96128
3091.18 3.91965
3091.22 2.77517
3091.30 1.57884
3091.37 1.01561
3091.53 0.523596
3091.68 0.321827
3091.99 0.161705
3092.30 0.101263
3092.91 0.0558152
3093.53 0.0394330
3096.00 0.0255247
3098.47 0.0384434
3099.08 0.0545076
3099.70 0.0994091
3100.01 0.159499
3100.32 0.317433
3100.47 0.518177
3100.63 1.00441
3100.70 1.55930
3100.78 2.73291
3100.82 3.88803
3100.86 5.83211
3100.90 9.58234
3100.94 16.8476
3100.97 27.0967
3101.00 33.6809
3101.03 27.0968
3101.06 16.8479
3101.09 11.8752
3101.11 8.59185
3101.13 6.41169
3101.16 4.92830
3101.20 3.10928
3101.25 2.14066
3101.34 1.17871
3101.44 0.748125
3101.62 0.378761
3101.81 0.231873
3102.18 0.117008
3102.55 0.0740107
3104.03 0.0305241
3107.00 0.0214239
3109.97 0.0352847
3110.71 0.0516876
3111.45 0.0977230
3111.82 0.159702
3112.19 0.325391
3112.38 0.538850
3112.56 1.06904
3112.66 1.69741
3112.75 3.06744
3112.80 4.49263
3112.84 7.04814
3112.87 9.15947
3112.89 12.2569
3112.91 16.9141
3112.93 24.2620
3112.97 38.6078
3113.00 48.5347
3113.03 38.6081
3113.07 24.2623
3113.09 16.1917
3113.12 11.3266
3113.14 8.23983
3113.17 6.21250
3113.22 3.81909
3113.28 2.58446
3113.38 1.39398
3113.49 0.869650
3113.70 0.433236
3113.91 0.261081
3114.33 0.128149
3114.75 0.0786792
3115.59 0.0418442
3116.42 0.0284751
3119.78 0.0149428
3126.50 0.0112538
3133.22 0.0121159
3136.58 0.0191717
3138.26 0.0469391
3138.68 0.0745098
3139.10 0.148783
3139.31 0.245146
3139.52 0.489925
3139.62 0.784708
3139.73 1.45616
3139.78 2.17305
3139.83 3.51626
3139.86 4.67471
3139.88 6.44678
3139.91 9.25674
3139.94 13.9519
3139.97 22.3317
3140.00 27.8951
3140.03 22.3318
3140.06 13.9521
3140.09 9.39407
3140.12 6.61932
3140.14 4.78537
3140.17 3.62774
3140.22 2.24724
3140.27 1.52894
3140.37 0.830452
3140.47 0.520644
3140.67 0.261468
3140.87 0.158814
3141.28 0.0792477
3141.68 0.0497060
3143.30 0.0197745
3146.54 0.0119878
3153.01 0.0103463
3159.48 0.0108133
3165.95 0.0123901
3172.42 0.0160579
3175.66 0.0197317
3178.90 0.0263978
3182.13 0.0405204
3183.75 0.0544856
3185.37 0.0797881
3186.18 0.100993
3186.99 0.133223
3187.80 0.185717
3188.60 0.279888
3189.41 0.475167
3189.82 0.663279
3190.22 0.991697
3190.63 1.64789
3190.83 2.25067
3191.03 3.25501
3191.13 4.03682
3191.23 5.12129
3191.34 6.70001
3191.44 9.11522
3191.54 13.0485
3191.59 16.0247
3191.64 19.9773
3191.69 25.5728
3191.74 33.3603
3191.79 44.8275
3191.84 60.9706
3191.92 97.3637
3192.00 121.548
3192.08 96.8739
3192.16 60.5871
3192.22 41.2374
3192.29 29.1167
3192.35 21.3260
3192.41 16.1582
3192.53 10.0782
3192.66 6.83375
3192.78 4.92155
3192.91 3.70701
3193.15 2.31537
3193.40 1.57911
3193.65 1.14703
3193.90 0.871288
3194.15 0.684752
3194.64 0.455653
3195.14 0.326260
3195.64 0.246000
3196.13 0.192838
3197.13 0.129011
3198.12 0.0937113
3199.11 0.0722101
3200.10 0.0582047
3202.09 0.0417611
3204.07 0.0330274
3208.05 0.0251448
3212.02 0.0231042
3215.99 0.0256366
3217.97 0.0306302
3219.96 0.0450340
3220.95 0.0647537
3221.94 0.119285
3222.44 0.192906
3222.94 0.391397
3223.19 0.649992
3223.31 0.893885
3223.43 1.31150
3223.56 2.11547
3223.62 2.82869
3223.68 3.97118
3223.74 5.95909
3223.81 9.83372
3223.84 13.2654
3223.87 18.6570
3223.90 27.5113
3223.93 42.7827
3223.97 68.5113
3224.00 85.5310
3224.04 68.5116
3224.07 42.7833
3224.09 31.4939
3224.11 23.8385
3224.16 14.5795
3224.20 9.57224
3224.24 6.76222
3224.28 4.97897
3224.33 3.83371
3224.41 2.45698
3224.50 1.70722
3224.58 1.25577
3224.75 0.765684
3224.92 0.517109
3225.09 0.375580
3225.43 0.227606
3226.11 0.116453
3226.78 0.0761819
3228.14 0.0472163
3229.50 0.0375343
3234.92 0.0325442
3240.35 0.0398758
3245.77 0.0560419
3251.20 0.0903550
3253.91 0.123010
3256.62 0.179057
3259.33 0.287197
3260.69 0.383228
3262.05 0.537244
3263.40 0.805961
3264.08 1.02086
3264.76 1.33089
3265.44 1.79712
3266.11 2.53154
3266.79 3.74132
3267.47 5.76635
3268.24 9.23102
3269.00 11.5424
3269.77 9.22610
3270.53 5.76219
3271.18 3.80359
3271.83 2.60870
3272.48 1.87079
3273.13 1.39651
3274.43 0.856911
3275.73 0.580225
3277.03 0.426186
3278.33 0.347106
3278.98 0.340696
3279.63 0.393908
3279.96 0.491734
3280.28 0.771667
3280.44 1.13492
3280.52 1.46747
3280.61 2.01844
3280.69 3.02375
3280.73 3.87816
3280.77 5.13515
3280.81 7.19375
3280.85 10.6297
3280.89 17.1577
3280.93 29.9429
3280.97 47.8211
3281.00 59.6946
3281.04 47.8192
3281.07 29.9391
3281.10 19.0228
3281.14 12.6757
3281.17 8.91920
3281.20 6.57913
3281.27 3.99192
3281.33 2.69023
3281.40 1.95095
3281.47 1.49282
3281.60 0.981903
3281.86 0.557819
3282.12 0.390281
3282.65 0.255351
3283.18 0.199638
3284.23 0.148705
3285.29 0.122602
3287.39 0.0927912
3289.50 0.0752683
3291.61 0.0643583
3293.72 0.0599160
3294.77 0.0627325
3295.82 0.0776299
3296.35 0.100725
3296.88 0.166040
3297.14 0.253071
3297.40 0.477943
3297.54 0.755883
3297.67 1.40177
3297.73 2.11068
3297.80 3.52638
3297.83 4.81273
3297.87 6.88709
3297.90 10.4134
3297.93 16.4992
3297.97 26.2612
3298.00 32.9761
3298.04 26.2612
3298.07 16.4991
3298.10 10.6967
3298.13 7.21876
3298.16 5.11683
3298.19 3.78720
3298.26 2.29554
3298.32 1.53504
3298.44 0.828765
3298.57 0.524067
3298.81 0.273925
3299.06 0.176131
3299.56 0.100674
3300.05 0.0722539
3302.04 0.0414802
3304.02 0.0337385
3306.00 0.0300819
3309.97 0.0287718
3311.95 0.0400880
3312.95 0.0871163
3313.19 0.132797
3313.44 0.251494
3313.57 0.398338
3313.69 0.745711
3313.75 1.12878
3313.81 1.90315
3313.88 3.78197
3313.91 5.80245
3313.94 9.37290
3313.97 15.0009
3314.00 18.7201
3314.03 15.0010
3314.06 9.37300
3314.10 5.31540
3314.14 3.25743
3314.17 2.16286
3314.21 1.53029
3314.28 0.877755
3314.36 0.572616
3314.51 0.300959
3314.65 0.190052
3315.24 0.0678749
3316.42 0.0329670
3318.78 0.0231910
3323.50 0.0211448
3328.21 0.0284197
3329.39 0.0367305
3330.57 0.0600952
3331.16 0.0919243
3331.75 0.178645
3332.05 0.293319
3332.34 0.592857
3332.49 0.968412
3332.64 1.86233
3332.71 2.87074
3332.78 4.91702
3332.82 6.86350
3332.86 10.1275
3332.90 15.9858
3332.93 26.5446
3332.97 42.6831
3333.00 53.0734
3333.03 42.6833
3333.07 26.5449
3333.10 16.4188
3333.14 10.6039
3333.17 7.28086
3333.21 5.26354
3333.28 3.08801
3333.35 2.03009
3333.49 1.05886
3333.63 0.652785
3333.91 0.323564
3334.18 0.196938
3334.74 0.100887
3335.30 0.0657508
3336.42 0.0401717
3337.53 0.0314067
3342.00 0.0270579
3344.23 0.0324720
3346.46 0.0498068
3347.58 0.0739685
3348.69 0.141180
3349.25 0.232048
3349.53 0.320650
3349.81 0.478158
3350.09 0.799934
3350.23 1.10572
3350.37 1.62725
3350.51 2.64417
3350.58 3.55336
3350.65 4.99464
3350.72 7.55615
3350.78 12.5229
3350.82 17.0278
3350.85 24.2049
3350.89 36.2056
3350.92 56.5032
3350.96 90.4818
3351.00 112.973
3351.04 90.4818
3351.08 56.5037
3351.12 33.6673
3351.16 21.5590
3351.20 14.5939
3351.24 10.5238
3351.28 7.86182
3351.32 6.11781
3351.40 3.97564
3351.48 2.78513
3351.56 2.05860
3351.72 1.26025
3351.89 0.850488
3352.05 0.614383
3352.37 0.367613
3352.69 0.247406
3353.02 0.180385
3353.66 0.111954
3354.96 0.0619866
3356.25 0.0445315
3358.84 0.0329761
3361.43 0.0303514
3366.60 0.0330309
3371.78 0.0425330
3376.95 0.0633090
3379.54 0.0828512
3382.13 0.115916
3383.42 0.141803
3384.72 0.178657
3386.01 0.233676
3387.31 0.321021
3388.60 0.471461
3389.25 0.590603
3389.89 0.760972
3390.54 1.01438
3391.19 1.40802
3391.83 2.04482
3392.48 3.08580
3393.24 4.92231
3394.00 6.14670
3394.76 4.92379
3395.52 3.09178
3396.00 2.28119
3396.47 1.71690
3397.42 1.05190
3398.37 0.709859
3399.33 0.519151
3400.28 0.406560
3401.23 0.338743
3403.13 0.282311
3405.03 0.309582
3405.98 0.368457
3406.93 0.489628
3407.89 0.753319
3408.36 1.00837
3408.84 1.44886
3409.31 2.30616
3409.55 3.07189
3409.79 4.29903
3410.03 6.45699
3410.26 10.7086
3410.38 14.5153
3410.50 20.5599
3410.62 30.6202
3410.74 47.4781
3410.87 75.9226
3411.00 94.8822
3411.13 75.9150
3411.26 47.4693
3411.37 31.8404
3411.48 22.1076
3411.58 15.9925
3411.69 12.0389
3411.90 7.42231
3412.12 5.01236
3412.33 3.60083
3412.54 2.71530
3412.97 1.70489
3413.40 1.17524
3413.82 0.863961
3414.68 0.531839
3415.53 0.367830
3416.39 0.275256
3418.09 0.181607
3419.80 0.142340
3421.51 0.137874
3422.36 0.158620
3423.22 0.233132
3423.64 0.339213
3424.07 0.627113
3424.28 0.999162
3424.39 1.34577
3424.50 1.92332
3424.60 3.01515
3424.66 3.94691
3424.71 5.38993
3424.76 7.84038
3424.82 12.2173
3424.84 15.8917
3424.87 21.0475
3424.90 29.0336
3424.92 40.5314
3424.96 65.1109
3425.00 80.9935
3425.04 65.1106
3425.08 40.5310
3425.10 28.6749
3425.13 20.5760
3425.16 15.2564
3425.19 11.7766
3425.24 7.43792
3425.30 5.12381
3425.35 3.71803
3425.41 2.83434
3425.52 1.80941
3425.63 1.25863
3425.74 0.932518
3425.96 0.583371
3426.41 0.309940
3426.85 0.206986
3427.73 0.129286
3428.62 0.100652
3430.39 0.0798275
3432.16 0.0739293
3435.71 0.0777628
3439.25 0.0977519
3442.79 0.146584
3444.56 0.195408
3446.33 0.282088
3448.11 0.457430
3448.99 0.621155
3449.88 0.897987
3450.32 1.11467
3450.76 1.42241
3451.21 1.87951
3451.65 2.59839
3452.09 3.81637
3452.31 4.76612
3452.54 6.09371
3452.76 8.02982
3452.98 10.9273
3453.20 15.4122
3453.42 22.3818
3453.71 35.7700
3454.00 44.6844
3454.29 35.7148
3454.58 22.3390
3454.85 14.2822
3455.12 9.55827
3455.38 6.73436
3455.65 4.96769
3456.18 2.99280
3456.72 1.99576
3457.25 1.42755
3457.78 1.07670
3458.85 0.686498
3459.92 0.489448
3460.98 0.380666
3463.12 0.288501
3465.25 0.298079
3466.32 0.347749
3467.38 0.454887
3468.45 0.690190
3468.98 0.916455
3469.52 1.30315
3469.78 1.60771
3470.05 2.04148
3470.32 2.68719
3470.58 3.69950
3470.72 4.44193
3470.85 5.42105
3470.98 6.75438
3471.12 8.62392
3471.25 11.3573
3471.38 15.4325
3471.52 21.7291
3471.65 31.4949
3471.83 50.4118
3472.00 62.9243
3472.18 50.2894
3472.35 31.4854
3472.56 17.8288
3472.77 10.9604
3472.97 7.27614
3473.18 5.15194
3473.39 3.82232
3473.60 2.94844
3474.01 1.90696
3474.43 1.33524
3474.84 0.990344
3475.67 0.611844
3476.50 0.419875
3477.33 0.309121
3478.98 0.192402
3480.64 0.135012
3482.30 0.102540
3485.62 0.0694919
3488.93 0.0561522
3492.25 0.0578063
3493.91 0.0705274
3494.74 0.0851427
3495.57 0.112952
3496.40 0.172966
3496.81 0.232160
3497.22 0.337476
3497.64 0.553305
3497.85 0.756755
3498.05 1.10522
3498.26 1.78063
3498.37 2.38160
3498.47 3.33514
3498.57 5.01159
3498.68 8.24716
3498.73 11.1387
3498.78 15.6897
3498.83 23.1737
3498.88 35.3575
3498.94 56.6043
3499.00 70.7879
3499.06 56.6024
3499.12 35.3555
3499.16 25.3151
3499.20 18.6701
3499.24 14.0495
3499.28 10.9338
3499.36 7.04686
3499.43 4.88248
3499.51 3.57059
3499.59 2.72088
3499.75 1.73319
3499.91 1.19850
3500.07 0.879622
3500.38 0.535758
3500.70 0.363226
3501.01 0.265130
3501.64 0.163057
3502.27 0.113610
3502.90 0.0859066
3504.16 0.0573930
3505.43 0.0435467
3506.69 0.0356617
3509.21 0.0272293
3514.26 0.0202300
3519.30 0.0172514
3529.39 0.0150324
3539.48 0.0152406
3549.58 0.0177213
3559.67 0.0245431
3564.71 0.0320236
3569.76 0.0477996
3572.28 0.0648115
3574.80 0.104053
3576.07 0.151664
3576.70 0.196175
3577.33 0.273456
3577.96 0.429488
3578.27 0.576414
3578.59 0.829369
3578.90 1.32492
3579.06 1.77264
3579.22 2.49864
3579.38 3.80682
3579.46 4.88428
3579.53 6.45854
3579.61 8.94062
3579.69 13.0530
3579.77 20.3100
3579.85 33.3153
3579.92 53.1542
3580.00 66.3360
3580.08 52.8751
3580.15 33.0984
3580.21 22.6724
3580.27 16.1042
3580.33 11.8568
3580.39 9.02598
3580.50 5.65917
3580.62 3.87416
3580.74 2.81143
3580.85 2.14199
3581.09 1.37122
3581.32 0.965583
3581.55 0.727400
3582.02 0.475439
3582.48 0.354271
3582.95 0.289125
3583.88 0.231374
3584.81 0.216745
3585.74 0.223937
3587.61 0.286808
3589.47 0.438974
3590.40 0.581414
3591.33 0.815130
3592.26 1.23317
3592.73 1.57506
3593.20 2.07702
3593.66 2.85316
3594.13 4.11939
3594.59 6.30640
3595.06 10.1770
3595.53 16.2710
3596.00 20.3302
3596.47 16.2651
3596.94 10.1707
3597.27 7.22306
3597.60 5.25181
3597.93 3.93431
3598.25 3.03320
3598.91 1.93914
3599.57 1.33718
3600.22 0.975225
3600.88 0.742112
3602.19 0.471452
3603.50 0.326954
3604.81 0.241162
3607.44 0.149284
3610.06 0.104897
3612.69 0.0834107
3614.00 0.0806239
3615.31 0.0903715
3615.97 0.110163
3616.62 0.169856
3616.95 0.251539
3617.28 0.469356
3617.44 0.746014
3617.61 1.42450
3617.69 2.20586
3617.77 3.87815
3617.81 5.51858
3617.85 8.39545
3617.89 13.9156
3617.91 18.6974
3617.93 25.2044
3617.97 40.2979
3618.00 50.3606
3618.03 40.2977
3618.07 25.2042
3618.09 17.1437
3618.12 12.1940
3618.14 8.98708
3618.17 6.84594
3618.22 4.30945
3618.27 2.94660
3618.37 1.61716
3618.47 1.03019
3618.67 0.533596
3618.87 0.336085
3619.27 0.182429
3619.67 0.124655
3620.48 0.0809548
3621.28 0.0647142
3622.89 0.0529882
3624.50 0.0509029
3626.11 0.0559350
3627.71 0.0771479
3628.52 0.107954
3629.32 0.193789
3629.72 0.308895
3630.13 0.616081
3630.33 1.01015
3630.43 1.37903
3630.53 1.99490
3630.63 3.16524
3630.68 4.16867
3630.73 5.73106
3630.78 8.40922
3630.83 13.2476
3630.86 17.2693
3630.88 23.2020
3630.91 32.1801
3630.93 46.0520
3630.97 73.4943
3631.00 92.0723
3631.04 73.4941
3631.07 46.0523
3631.11 27.0422
3631.15 17.0785
3631.19 11.4480
3631.22 8.20641
3631.26 6.10394
3631.30 4.73809
3631.38 3.08674
3631.45 2.16039
3631.53 1.60416
3631.68 0.987114
3631.84 0.673859
3631.99 0.493684
3632.29 0.305532
3632.91 0.164527
3633.52 0.115026
3634.74 0.0851484
3635.97 0.0876170
3637.19 0.116236
3637.81 0.148902
3638.42 0.209618
3639.03 0.337503
3639.34 0.460541
3639.64 0.675256
3639.95 1.10012
3640.10 1.48796
3640.25 2.12832
3640.41 3.29368
3640.48 4.27565
3640.56 5.73551
3640.64 8.09416
3640.71 12.0689
3640.75 15.2331
3640.79 19.5012
3640.83 25.4536
3640.87 33.6972
3640.93 53.9401
3641.00 67.4512
3641.07 53.9381
3641.13 33.6950
3641.19 23.1880
3641.24 16.5369
3641.29 12.1364
3641.34 9.25661
3641.44 5.80574
3641.54 3.96706
3641.64 2.86585
3641.74 2.17066
3641.94 1.36618
3642.14 0.938682
3642.34 0.687473
3642.74 0.418001
3643.15 0.284024
3643.55 0.208215
3644.35 0.129793
3645.16 0.0921017
3645.96 0.0711768
3647.57 0.0500885
3649.18 0.0404438
3650.79 0.0356226
3654.01 0.0328618
3657.23 0.0368676
3658.84 0.0427668
3660.45 0.0543795
3662.06 0.0798653
3662.86 0.105301
3663.67 0.151326
3664.47 0.248105
3664.87 0.342279
3665.28 0.509396
3665.68 0.851017
3665.88 1.17272
3666.08 1.72358
3666.28 2.78406
3666.38 3.73064
3666.48 5.23172
3666.53 6.36681
3666.58 7.87096
3666.63 9.95949
3666.68 12.9622
3666.74 17.5689
3666.79 24.6778
3666.84 36.3191
3666.89 56.1235
3666.94 89.8163
3667.00 112.224
3667.06 89.8138
3667.11 56.1210
3667.18 32.6964
3667.24 20.4260
3667.31 13.7157
3667.37 9.76335
3667.43 7.27369
3667.50 5.61610
3667.63 3.63884
3667.75 2.53840
3667.88 1.87101
3668.14 1.14076
3668.39 0.769050
3668.65 0.556214
3668.90 0.422695
3669.16 0.333510
3669.67 0.225409
3670.18 0.165171
3671.20 0.103850
3672.22 0.0750352
3673.24 0.0593894
3675.28 0.0442779
3677.33 0.0381030
3679.37 0.0357877
3683.45 0.0372929
3687.54 0.0465544
3689.58 0.0564802
3691.62 0.0744815
3693.66 0.112063
3694.68 0.148633
3695.71 0.213813
3696.73 0.348169
3697.24 0.477021
3697.75 0.701352
3698.00 0.882908
3698.26 1.14740
3698.51 1.55563
3698.64 1.84959
3698.77 2.23294
3698.90 2.75441
3699.02 3.48191
3699.15 4.53729
3699.28 6.12862
3699.41 8.71756
3699.53 13.1823
3699.60 16.7267
3699.66 21.7071
3699.73 28.8059
3699.79 38.6799
3699.90 61.9855
3700.00 77.3253
3700.11 61.7473
3700.21 38.6764
3700.29 26.6642
3700.37 18.9211
3700.45 13.9107
3700.53 10.5710
3700.69 6.62344
3700.85 4.50795
3701.01 3.25788
3701.17 2.46255
3701.49 1.55190
3701.81 1.06908
3702.13 0.784992
3702.77 0.480532
3703.41 0.329988
3704.05 0.245249
3705.33 0.158760
3706.60 0.118499
3707.88 0.0973429
3710.44 0.0790407
3715.55 0.0775291
3720.67 0.0986766
3725.78 0.148595
3728.34 0.194630
3730.89 0.269193
3733.45 0.399876
3734.73 0.504699
3736.01 0.655940
3737.29 0.883690
3738.56 1.24229
3739.84 1.83289
3741.12 2.82073
3742.56 4.50449
3744.00 5.62377
3745.44 4.50003
3746.88 2.81640
3747.82 2.04398
3748.76 1.51417
3750.64 0.898635
3752.52 0.585122
3754.39 0.409257
3756.27 0.302112
3758.15 0.232611
3761.91 0.151602
3765.66 0.108825
3769.42 0.0852355
3773.18 0.0796246
3775.06 0.113394
3775.53 0.151393
3776.00 0.256109
3776.23 0.394003
3776.47 0.748802
3776.58 1.18469
3776.70 2.18757
3776.76 3.27718
3776.82 5.37066
3776.85 7.30075
3776.88 10.2515
3776.91 15.0941
3776.93 23.1975
3776.97 37.0508
3777.00 46.3200
3777.03 37.0509
3777.07 23.1975
3777.10 14.4699
3777.13 9.51996
3777.16 6.62892
3777.19 4.84512
3777.26 2.89099
3777.32 1.91645
3777.45 1.02273
3777.58 0.646683
3777.84 0.339974
3778.09 0.221573
3778.61 0.130481
3779.12 0.0965511
3781.17 0.0605970
3785.28 0.0490119
3789.39 0.0478127
3793.49 0.0520402
3797.60 0.0641746
3801.70 0.0942101
3803.76 0.126034
3805.81 0.188956
3806.84 0.250220
3807.86 0.373171
3808.38 0.504743
3808.63 0.619347
3808.89 0.807977
3809.15 1.17055
3809.28 1.49846
3809.40 2.04507
3809.53 3.07852
3809.60 3.96931
3809.66 5.36603
3809.72 7.72693
3809.79 12.1338
3809.82 15.8671
3809.85 21.4781
3809.88 30.1733
3809.92 43.8695
3809.96 69.8367
3810.00 87.3175
3810.04 69.8500
3810.08 43.8967
3810.11 31.9568
3810.14 23.8356
3810.19 14.3566
3810.25 9.44272
3810.30 6.74054
3810.36 5.06685
3810.41 4.00290
3810.52 2.75250
3810.63 2.09105
3810.74 1.70707
3810.96 1.32063
3811.39 1.11393
3811.83 1.17376
3812.26 1.37386
3812.70 1.70905
3813.14 2.21602
3813.57 2.94978
3814.29 4.66147
3815.00 5.80040
3815.72 4.64474
3816.43 2.91462
3817.15 1.79910
3817.87 1.17539
3818.59 0.816381
3819.31 0.597242
3820.03 0.455777
3820.74 0.360075
3822.18 0.244527
3823.62 0.183562
3825.06 0.158352
3825.78 0.165207
3826.50 0.212774
3826.86 0.287516
3827.21 0.494843
3827.39 0.763953
3827.57 1.42880
3827.66 2.20853
3827.75 3.90903
3827.80 5.61237
3827.84 8.67138
3827.89 14.7563
3827.91 19.9160
3827.93 27.6857
3827.97 44.1065
3828.00 55.3236
3828.03 44.1060
3828.07 27.6846
3828.10 18.0528
3828.13 12.3591
3828.16 8.76139
3828.19 6.54661
3828.24 3.99185
3828.30 2.69746
3828.42 1.46370
3828.54 0.933066
3828.77 0.492555
3829.01 0.319161
3829.48 0.183851
3829.95 0.131690
3830.89 0.0895117
3831.83 0.0713550
3833.71 0.0537313
3835.59 0.0442869
3839.35 0.0335706
3843.10 0.0274911
3850.62 0.0210097
3858.14 0.0179431
3873.18 0.0161510
3888.21 0.0178554
3903.25 0.0239015
3910.77 0.0301352
3918.29 0.0411082
3925.81 0.0629375
3929.57 0.0831507
3933.32 0.117457
3935.20 0.144556
3937.08 0.183574
3938.96 0.242952
3939.90 0.285069
3940.84 0.339937
3941.78 0.413462
3942.72 0.515019
3943.66 0.660700
3944.60 0.879307
3945.54 1.22739
3946.48 1.82114
3946.95 2.28083
3947.42 2.91593
3947.89 3.80366
3948.36 5.03288
3949.18 8.02332
3950.00 10.0142
3950.82 8.02474
3951.64 5.04012
3952.36 3.30031
3953.09 2.25947
3953.81 1.62702
3954.53 1.22626
3955.97 0.778969
3957.42 0.556694
3958.86 0.437219
3960.31 0.372763
3963.19 0.338462
3966.08 0.408479
3967.53 0.501094
3968.97 0.668036
3970.42 0.985331
3971.14 1.25494
3971.86 1.66420
3972.58 2.32046
3973.30 3.44706
3974.03 5.53636
3974.39 7.23751
3974.75 9.60579
3975.37 15.3320
3976.00 19.1444
3976.63 15.3125
3977.25 9.58488
3977.81 6.21815
3978.37 4.21297
3978.93 2.99463
3979.48 2.22307
3980.60 1.35363
3981.71 0.908852
3982.83 0.653056
3983.94 0.493247
3986.17 0.312695
3988.40 0.218357
3990.63 0.162963
3995.09 0.103904
3999.55 0.0753154
4004.01 0.0612322
4006.24 0.0590039
4008.47 0.0639052
4009.58 0.0747117
4010.70 0.108044
4011.25 0.154566
4011.81 0.281718
4012.09 0.449083
4012.37 0.878924
4012.51 1.41044
4012.58 1.88716
4012.65 2.64537
4012.72 3.99947
4012.79 6.64546
4012.82 9.06550
4012.86 12.9551
4012.89 19.5374
4012.93 30.8821
4012.96 49.4139
4013.00 61.7244
4013.04 49.4139
4013.07 30.8822
4013.11 20.5480
4013.14 14.1611
4013.17 10.1880
4013.20 7.61938
4013.26 4.67550
4013.32 3.14400
4013.38 2.25616
4013.45 1.69866
4013.57 1.06679
4013.82 0.543585
4014.07 0.338566
4014.56 0.180001
4015.06 0.121031
4016.05 0.0771628
4017.04 0.0614512
4019.02 0.0509324
4021.00 0.0498315
4022.98 0.0555155
4024.96 0.0769970
4025.95 0.107846
4026.94 0.193931
4027.44 0.309877
4027.68 0.422655
4027.93 0.621097
4028.18 1.02419
4028.30 1.40186
4028.43 2.03685
4028.55 3.25077
4028.61 4.31267
4028.67 5.98840
4028.74 8.84053
4028.80 14.2085
4028.83 18.7889
4028.86 25.7161
4028.89 36.5245
4028.92 52.8552
4028.96 84.4895
4029.00 105.643
4029.04 84.4894
4029.08 52.8555
4029.12 34.4320
4029.15 23.3885
4029.19 16.4961
4029.22 12.2505
4029.29 7.39623
4029.36 4.91855
4029.43 3.49969
4029.51 2.61622
4029.65 1.62292
4029.79 1.10827
4029.93 0.808237
4030.22 0.490697
4030.78 0.247637
4031.35 0.158104
4032.49 0.0921943
4033.62 0.0690406
4035.89 0.0537532
4038.16 0.0505745
4042.70 0.0559230
4047.24 0.0732210
4051.78 0.112959
4054.05 0.152315
4056.32 0.222453
4057.46 0.280050
4058.59 0.365768
4059.73 0.501361
4060.86 0.734488
4062.00 1.18649
4062.56 1.59118
4063.13 2.24403
4063.41 2.73253
4063.70 3.39724
4063.98 4.33116
4064.27 5.68854
4064.55 7.76711
4064.83 11.1094
4065.12 16.7689
4065.40 26.5206
4065.70 42.3950
4066.00 52.9656
4066.30 42.3320
4066.60 26.4707
4066.79 19.5353
4066.97 14.6703
4067.34 8.86815
4067.71 5.83231
4068.08 4.10037
4068.45 3.02830
4068.82 2.32537
4069.56 1.49597
4070.30 1.04541
4071.04 0.775681
4072.52 0.484121
4074.00 0.340823
4075.48 0.262853
4078.43 0.196938
4081.39 0.200904
4082.87 0.231945
4084.35 0.298521
4085.83 0.440745
4086.57 0.572872
4087.31 0.790168
4088.05 1.18059
4088.42 1.50108
4088.78 1.97277
4089.15 2.70522
4089.52 3.90185
4089.89 5.98618
4090.08 7.58611
4090.26 9.70199
4090.63 15.5000
4091.00 19.3641
4091.37 15.4947
4091.74 9.69499
4092.02 6.63833
4092.31 4.68752
4092.60 3.43583
4092.88 2.60932
4093.45 1.63589
4094.02 1.11686
4094.59 0.810964
4095.17 0.616543
4096.31 0.393336
4097.45 0.275007
4098.59 0.204870
4100.88 0.129013
4103.16 0.0907245
4105.45 0.0685569
4110.01 0.0448802
4114.58 0.0329656
4119.15 0.0260616
4128.29 0.0188549
4137.43 0.0158645
4146.57 0.0160935
4151.13 0.0186723
4153.42 0.0216556
4155.70 0.0273577
4157.99 0.0397981
4159.13 0.0522133
4160.27 0.0747338
4161.41 0.122092
4161.99 0.168274
4162.56 0.250327
4163.13 0.417730
4163.41 0.576183
4163.70 0.846912
4163.98 1.37112
4164.13 1.83767
4164.27 2.58074
4164.41 3.88576
4164.48 4.94066
4164.56 6.44387
4164.63 8.74181
4164.70 12.3194
4164.77 18.2067
4164.84 28.0419
4164.92 44.7766
4165.00 55.8975
4165.04 52.4734
4165.08 44.5519
4165.16 27.8661
4165.25 16.0470
4165.34 10.0007
4165.44 6.70640
4165.53 4.77011
4165.62 3.54125
4165.71 2.73432
4165.89 1.76646
4166.07 1.23087
4166.26 0.907991
4166.62 0.553314
4166.99 0.373098
4167.35 0.269588
4167.72 0.204746
4168.08 0.161575
4168.81 0.109197
4169.54 0.0799841
4171.00 0.0502235
4172.46 0.0361616
4173.91 0.0284629
4176.83 0.0208645
4179.75 0.0175419
4182.67 0.0160283
4188.50 0.0157048
4194.34 0.0184024
4197.25 0.0216696
4200.17 0.0278184
4203.09 0.0409877
4204.55 0.0540103
4206.01 0.0775303
4207.47 0.127051
4208.19 0.175502
4208.92 0.262110
4209.65 0.441140
4210.02 0.612589
4210.38 0.910159
4210.75 1.49969
4210.93 2.03602
4211.11 2.92045
4211.29 4.53950
4211.39 5.88646
4211.48 7.91346
4211.57 11.1399
4211.66 16.6379
4211.70 20.9413
4211.75 26.7450
4211.80 35.0171
4211.84 46.2112
4211.92 73.7911
4212.00 92.1192
4212.08 73.4209
4212.16 45.9215
4212.25 26.2945
4212.35 16.3221
4212.44 10.8724
4212.53 7.72317
4212.62 5.72823
4212.72 4.41968
4212.90 2.84591
4213.09 1.98197
4213.27 1.45902
4213.64 0.886279
4214.01 0.596724
4214.38 0.430574
4214.75 0.326603
4215.12 0.257309
4215.86 0.173707
4216.60 0.127264
4217.34 0.0989716
4218.08 0.0806079
4219.56 0.0594525
4221.04 0.0489034
4224.00 0.0424369
4226.96 0.0493332
4228.44 0.0600791
4229.92 0.0813956
4231.40 0.128122
4232.14 0.174520
4232.88 0.257958
4233.62 0.430815
4233.99 0.596588
4234.36 0.885584
4234.73 1.45761
4234.92 1.98033
4235.10 2.84459
4235.29 4.42089
4235.38 5.75036
4235.47 7.73576
4235.56 10.9455
4235.66 16.3887
4235.70 20.6093
4235.75 26.4461
4235.79 34.6112
4235.84 45.9516
4235.92 73.3753
4236.00 91.5994
4236.08 73.0070
4236.16 45.6634
4236.25 26.1476
4236.35 16.1547
4236.44 10.7695
4236.53 7.62868
4236.63 5.66362
4236.72 4.36170
4236.90 2.81341
4237.09 1.95832
4237.28 1.44119
4237.65 0.876315
4238.02 0.589893
4238.39 0.425933
4238.76 0.322978
4239.13 0.254481
4239.88 0.171531
4240.62 0.125230
4241.36 0.0968072
4242.10 0.0781579
4243.59 0.0559932
4245.08 0.0439556
4248.05 0.0324541
4251.02 0.0283489
4253.99 0.0292538
4256.96 0.0462635
4257.70 0.0644358
4258.45 0.114858
4258.82 0.182564
4259.19 0.362484
4259.38 0.593290
4259.56 1.16323
4259.65 1.83401
4259.75 3.30697
4259.79 4.81585
4259.84 7.49419
4259.86 9.68445
4259.89 12.8661
4259.91 17.5910
4259.93 24.8247
4259.97 39.5806
4260.00 49.6604
4260.03 39.5808
4260.07 24.8250
4260.10 15.9475
4260.13 10.7863
4260.16 7.65555
4260.19 5.66865
4260.25 3.40631
4260.31 2.27334
4260.43 1.21050
4260.55 0.752539
4260.79 0.377242
4261.04 0.231041
4261.52 0.119147
4262.00 0.0779174
4263.94 0.0366842
4267.81 0.0271329
4275.54 0.0291827
4283.28 0.0375207
4291.02 0.0537268
4294.89 0.0672813
4298.76 0.0875651
4302.63 0.119745
4306.50 0.175147
4308.43 0.219181
4310.36 0.282625
4312.30 0.378793
4314.23 0.534155
4316.17 0.808344
4317.14 1.03033
4318.10 1.35443
4319.07 1.84969
4320.04 2.64715
4321.00 4.00066
4321.97 6.35201
4322.99 10.1555
4324.00 12.7034
4325.02 10.2231
4326.03 6.57964
4326.50 5.47703
4326.96 4.97368
4327.20 5.18028
4327.43 6.29706
4327.55 7.80301
4327.66 11.0905
4327.72 14.3478
4327.78 19.8339
4327.84 29.8679
4327.90 49.2212
4327.92 62.4233
4327.95 77.2186
4328.00 95.6288
4328.05 77.1102
4328.10 49.0047
4328.15 32.5705
4328.20 22.6670
4328.25 16.6755
4328.29 12.9412
4328.38 8.64910
4328.48 6.41892
4328.66 4.27197
4328.85 3.27643
4329.22 2.33816
4329.59 1.87266
4330.34 1.36520
4331.08 1.07078
4332.57 0.725003
4334.06 0.527790
4335.55 0.402715
4337.04 0.318139
4340.02 0.214484
4343.00 0.156520
4345.97 0.123212
4348.95 0.116674
4349.70 0.129721
4350.44 0.174304
4350.81 0.237783
4351.19 0.409366
4351.37 0.629319
4351.56 1.17388
4351.65 1.80770
4351.74 3.18354
4351.79 4.57440
4351.84 7.00660
4351.88 11.9263
4351.91 16.1086
4351.93 22.5065
4351.97 35.9854
4352.00 44.9375
4352.04 35.9852
4352.07 22.5060
4352.09 16.1079
4352.12 11.9254
4352.16 7.00530
4352.21 4.53434
4352.26 3.18133
4352.35 1.80458
4352.44 1.16988
4352.63 0.623557
4352.82 0.401855
4353.19 0.226777
4353.56 0.159897
4354.30 0.108117
4355.05 0.0877526
4356.54 0.0701632
4358.02 0.0616221
4363.98 0.0463808
4369.93 0.0403618
4375.89 0.0392990
4381.84 0.0440731
4384.82 0.0504501
4387.79 0.0626436
4390.77 0.0885782
4392.26 0.113868
4393.75 0.158831
4395.24 0.251365
4395.98 0.339841
4396.72 0.494134
4397.47 0.800459
4397.84 1.08165
4398.21 1.54920
4398.40 1.90832
4398.58 2.40967
4398.77 3.13768
4398.96 4.24776
4399.14 6.04743
4399.33 9.19699
4399.42 11.6951
4399.51 15.2213
4399.61 20.2756
4399.70 27.4826
4399.85 43.9633
4400.00 54.8338
4400.15 43.8440
4400.30 27.3891
4400.43 18.0973
4400.56 12.4200
4400.69 8.90888
4400.81 6.64876
4401.07 4.06936
4401.33 2.73289
4401.58 1.96021
4401.84 1.47599
4402.35 0.928467
4402.86 0.643520
4403.37 0.477183
4404.40 0.301705
4405.42 0.216680
4406.45 0.170087
4408.49 0.125968
4410.54 0.110239
4412.59 0.107966
4416.68 0.129995
4418.73 0.155878
4420.78 0.197609
4422.82 0.266553
4424.87 0.388310
4426.92 0.630023
4427.94 0.850238
4428.97 1.21199
4429.48 1.48687
4429.99 1.86637
4430.50 2.40944
4431.01 3.21942
4431.53 4.49886
4432.04 6.65071
4432.29 8.29280
4432.55 10.5319
4432.81 13.6133
4433.06 17.8011
4433.53 28.4642
4434.00 35.5654
4434.47 28.4324
4434.94 17.7745
4435.24 13.0179
4435.54 9.71177
4436.13 5.81800
4436.72 3.80009
4437.32 2.65696
4437.91 1.95392
4438.50 1.49519
4439.69 0.954287
4440.88 0.661404
4442.06 0.485751
4444.44 0.295274
4446.81 0.200743
4449.19 0.150194
4450.37 0.137312
4451.56 0.139235
4452.15 0.156205
4452.75 0.214566
4453.04 0.297056
4453.34 0.517907
4453.49 0.798043
4453.64 1.47089
4453.71 2.22949
4453.79 3.80702
4453.82 5.30537
4453.86 7.84015
4453.90 12.4532
4453.93 21.3942
4453.97 34.2826
4454.00 42.7041
4454.03 34.2822
4454.07 21.3934
4454.10 14.0992
4454.12 9.60290
4454.15 6.85497
4454.18 5.15152
4454.24 3.14475
4454.30 2.12963
4454.41 1.16827
4454.53 0.750622
4454.76 0.405699
4454.99 0.269838
4455.45 0.163733
4455.91 0.122724
4457.75 0.0744443
4459.59 0.0591834
4461.42 0.0502051
4465.10 0.0387688
4468.78 0.0313811
4476.14 0.0222899
4483.50 0.0170631
4490.85 0.0139175
4498.21 0.0124142
4501.89 0.0126811
4505.57 0.0152088
4509.25 0.0318906
4510.17 0.0492768
4511.09 0.0975878
4511.55 0.162679
4512.01 0.337350
4512.24 0.562785
4512.47 1.13085
4512.58 1.80804
4512.70 3.32855
4512.75 4.92287
4512.81 7.85376
4512.84 10.3818
4512.87 14.0377
4512.90 19.8867
4512.92 28.9075
4512.96 46.0760
4513.00 57.8089
4513.04 46.0760
4513.08 28.9077
4513.12 16.5339
4513.16 10.1735
4513.21 6.76263
4513.25 4.81555
4513.34 2.74110
4513.43 1.76727
4513.60 0.904309
4513.78 0.548591
4514.13 0.265794
4514.48 0.158204
4515.18 0.0770686
4515.87 0.0474433
4518.67 0.0176940
4524.27 0.00970770
4535.46 0.00801887
4541.06 0.00913708
4543.86 0.0106393
4546.66 0.0136247
4549.46 0.0202860
4550.86 0.0270110
4552.26 0.0393048
4553.66 0.0654230
4554.36 0.0911284
4555.05 0.137157
4555.75 0.232572
4556.10 0.324147
4556.45 0.483383
4556.80 0.799800
4556.98 1.08953
4557.15 1.56966
4557.33 2.44835
4557.42 3.19239
4557.50 4.30683
4557.59 6.11872
4557.68 9.21148
4557.72 11.6585
4557.77 14.9852
4557.81 19.7826
4557.85 26.3416
4557.93 42.0586
4558.00 52.5008
4558.08 41.8309
4558.15 26.1634
4558.22 16.5384
4558.29 11.0293
4558.36 7.71025
4558.43 5.66787
4558.57 3.38462
4558.70 2.24001
4558.84 1.58371
4558.98 1.17972
4559.26 0.725199
4559.54 0.490508
4559.81 0.353975
4560.09 0.267682
4560.37 0.209717
4560.92 0.139133
4561.47 0.0994374
4562.03 0.0749223
4562.58 0.0587279
4563.69 0.0393189
4564.80 0.0285841
4565.91 0.0220167
4567.02 0.0177021
4569.23 0.0125477
4571.45 0.00968870
4575.88 0.00674964
4580.31 0.00530813
4584.75 0.00446718
4593.61 0.00352369
4611.34 0.00263498
4629.07 0.00216374
4664.54 0.00161756
4700.00 0.00129022
4700.00 1.47668
5000.00 1.41155
6000.00 1.23764
7000.00 1.10966
8000.00 1.01135
9000.00 0.933341
10000.0 0.850610
12500.0 0.757913
15000.0 0.695764
17000.0 0.653536
20000.0 0.605608
25000.0 0.550404
30000.0 0.507358
35000.0 0.459520
40000.0 0.420784
50000.0 0.370675
60000.0 0.330761
70000.0 0.300527
80000.0 0.290873
90000.0 0.270625
99999.9 0.251266
100000 0.252049
150000 0.214409
200000 0.196950
222652 0.192260
222653 0.192260
250000 0.182437
270205 0.178282
270205 0.178282
300000 0.172554
392097 0.164135
484193 0.157791
500000 0.148783
546148 0.141418
592296 0.134973
646148 0.128881
700000 0.123520
750000 0.122061
800000 0.120711
861393 0.120363
881038 0.119402
900000 0.115619
943664 0.113343
987327 0.111212
1.00000E+06 0.110467
1.04469E+06 0.110217
1.08938E+06 0.109978
1.13406E+06 0.109750
1.17875E+06 0.109530
1.25000E+06 0.109761
1.31250E+06 0.108970
1.37500E+06 0.108221
1.43750E+06 0.107509
1.50000E+06 0.106833
1.56250E+06 0.105045
1.62500E+06 0.103355
1.68750E+06 0.101754
1.75000E+06 0.100235
1.81745E+06 0.0973640
1.88489E+06 0.0946755
1.94245E+06 0.0925123
2.00000E+06 0.0904595
2.06250E+06 0.0861169
2.12500E+06 0.0821032
2.18750E+06 0.0783850
2.25000E+06 0.0749329
2.31250E+06 0.0717213
2.37500E+06 0.0687276
2.43750E+06 0.0659319
2.50000E+06 0.0633164
2.56250E+06 0.0608655
2.62500E+06 0.0585651
2.68750E+06 0.0564028
2.75000E+06 0.0543674
2.81250E+06 0.0524487
2.87500E+06 0.0506377
2.93750E+06 0.0489261
3.00000E+06 0.0473067
3.06250E+06 0.0449799
3.12500E+06 0.0428112
3.18750E+06 0.0407870
3.25000E+06 0.0388950
3.31250E+06 0.0371244
3.37500E+06 0.0354652
3.43750E+06 0.0339086
3.50000E+06 0.0324466
3.56250E+06 0.0310719
3.62500E+06 0.0297778
3.68750E+06 0.0285583
3.75000E+06 0.0274081
3.81250E+06 0.0263221
3.87500E+06 0.0252957
3.93750E+06 0.0243248
4.00000E+06 0.0234056
4.06250E+06 0.0222016
4.12500E+06 0.0210766
4.18750E+06 0.0200242
4.25000E+06 0.0190388
4.31250E+06 0.0181152
4.37500E+06 0.0172488
4.43750E+06 0.0164352
4.50000E+06 0.0156706
4.56250E+06 0.0149514
4.62500E+06 0.0142743
4.68750E+06 0.0136364
4.75000E+06 0.0130348
4.81250E+06 0.0124672
4.87500E+06 0.0119311
4.93750E+06 0.0114245
5.00000E+06 0.0109453
5.11931E+06 0.00989870
5.23862E+06 0.00897294
5.35792E+06 0.00815175
5.47723E+06 0.00742140
5.60517E+06 0.00676903
5.73310E+06 0.00618683
5.86104E+06 0.00566595
5.98897E+06 0.00519878
6.00000E+06 0.00516080
6.15148E+06 0.00460187
6.30296E+06 0.00411494
6.48074E+06 0.00362098
6.59299E+06 0.00339427
6.70524E+06 0.00318523
6.85262E+06 0.00293487
7.00000E+06 0.00270890
7.03028E+06 0.00265411
7.11666E+06 0.00250502
7.23762E+06 0.00231291
7.36047E+06 0.00215878
7.48331E+06 0.00201722
7.61033E+06 0.00190413
7.73734E+06 0.00179910
7.86867E+06 0.00171761
8.00000E+06 0.00164106
8.05977E+06 0.00159582
8.11954E+06 0.00155215
8.17930E+06 0.00150998
8.23907E+06 0.00146925
8.27772E+06 0.00144858
8.31636E+06 0.00142830
8.35859E+06 0.00140657
8.40082E+06 0.00138527
8.44305E+06 0.00136440
8.48528E+06 0.00134395
8.54962E+06 0.00132271
8.61396E+06 0.00130195
8.67830E+06 0.00128167
8.74264E+06 0.00126186
8.80698E+06 0.00124249
8.87132E+06 0.00122356
8.93566E+06 0.00120505
9.00000E+06 0.00118695
9.06085E+06 0.00117417
9.12171E+06 0.00116161
9.18256E+06 0.00114926
9.24342E+06 0.00113713
9.30427E+06 0.00112521
9.36512E+06 0.00111348
9.42598E+06 0.00110196
9.48683E+06 0.00109062
9.55098E+06 0.00108292
9.61512E+06 0.00107533
9.67927E+06 0.00106784
9.74342E+06 0.00106045
9.80756E+06 0.00105316
9.87171E+06 0.00104597
9.93585E+06 0.00103887
1.00000E+07 0.00103187
1.00610E+07 0.00102845
1.01220E+07 0.00102507
1.01830E+07 0.00102172
1.02441E+07 0.00101840
1.03051E+07 0.00101511
1.03661E+07 0.00101185
1.04271E+07 0.00100861
1.04881E+07 0.00100541
1.05521E+07 0.00100208
1.06161E+07 0.000998787
1.06801E+07 0.000995521
1.07441E+07 0.000992285
1.08080E+07 0.000989079
1.08720E+07 0.000985901
1.09360E+07 0.000982753
1.10000E+07 0.000979633
1.10625E+07 0.000978767
1.11250E+07 0.000977907
1.11875E+07 0.000977052
1.12500E+07 0.000976203
1.13125E+07 0.000975360
1.13750E+07 0.000974521
1.14375E+07 0.000973688
1.15000E+07 0.000972860
1.15625E+07 0.000972038
1.16250E+07 0.000971220
1.16875E+07 0.000970408
1.17500E+07 0.000969601
1.18125E+07 0.000968798
1.18750E+07 0.000968001
1.19375E+07 0.000967208
1.20000E+07 0.000966420
1.20585E+07 0.000967008
1.21171E+07 0.000967594
1.21756E+07 0.000968177
1.22342E+07 0.000968757
1.22927E+07 0.000969335
1.23512E+07 0.000969911
1.24098E+07 0.000970484
1.24683E+07 0.000971055
1.25268E+07 0.000971624
1.25854E+07 0.000972190
1.26439E+07 0.000972754
1.27025E+07 0.000973316
1.27610E+07 0.000973876
1.28195E+07 0.000974433
1.28781E+07 0.000974988
1.29366E+07 0.000975541
1.30000E+07 0.000976137
1.30613E+07 0.000977749
1.31227E+07 0.000979357
1.31840E+07 0.000980959
1.32454E+07 0.000982556
1.33067E+07 0.000984149
1.33680E+07 0.000985737
1.34294E+07 0.000987321
1.34907E+07 0.000988899
1.35544E+07 0.000990533
1.36180E+07 0.000992161
1.36817E+07 0.000993785
1.37454E+07 0.000995403
1.38090E+07 0.000997018
1.38727E+07 0.000998626
1.39363E+07 0.00100023
1.40000E+07 0.00100183
1.40625E+07 0.00100423
1.41250E+07 0.00100661
1.41875E+07 0.00100900
1.42500E+07 0.00101138
1.43125E+07 0.00101375
1.43750E+07 0.00101613
1.44375E+07 0.00101849
1.45000E+07 0.00102085
1.45625E+07 0.00102321
1.46250E+07 0.00102556
1.46875E+07 0.00102791
1.47500E+07 0.00103025
1.48125E+07 0.00103259
1.48750E+07 0.00103492
1.49375E+07 0.00103725
1.50000E+07 0.00103957
1.50477E+07 0.00104187
1.50953E+07 0.00104416
1.51430E+07 0.00104646
1.51907E+07 0.00104875
1.52383E+07 0.00105104
1.52860E+07 0.00105333
1.53336E+07 0.00105561
1.53813E+07 0.00105789
1.54290E+07 0.00106017
1.54766E+07 0.00106245
1.55243E+07 0.00106473
1.55720E+07 0.00106700
1.56196E+07 0.00106927
1.56673E+07 0.00107154
1.57149E+07 0.00107381
1.57626E+07 0.00107608
1.58220E+07 0.00107889
1.58813E+07 0.00108171
1.59407E+07 0.00108452
1.60000E+07 0.00108733
1.60360E+07 0.00108937
1.60720E+07 0.00109142
1.61080E+07 0.00109346
1.61441E+07 0.00109550
1.61801E+07 0.00109754
1.62161E+07 0.00109958
1.62521E+07 0.00110161
1.62881E+07 0.00110365
1.63241E+07 0.00110569
1.63601E+07 0.00110773
1.63961E+07 0.00110976
1.64322E+07 0.00111179
1.64682E+07 0.00111383
1.65042E+07 0.00111586
1.65402E+07 0.00111789
1.65762E+07 0.00111993
1.65762E+07 0.00111993
1.66292E+07 0.00112292
1.66822E+07 0.00112590
1.67352E+07 0.00112888
1.67881E+07 0.00113187
1.68411E+07 0.00113485
1.68941E+07 0.00113783
1.69470E+07 0.00114080
1.70000E+07 0.00114378
1.70625E+07 0.00114780
1.71250E+07 0.00115182
1.71875E+07 0.00115583
1.72500E+07 0.00115985
1.73125E+07 0.00116387
1.73750E+07 0.00116788
1.74375E+07 0.00117190
1.75000E+07 0.00117591
1.75625E+07 0.00117992
1.76250E+07 0.00118394
1.76875E+07 0.00118795
1.77500E+07 0.00119196
1.78125E+07 0.00119597
1.78750E+07 0.00119998
1.79375E+07 0.00120399
1.80000E+07 0.00120800
1.81250E+07 0.00121692
1.82500E+07 0.00122584
1.83750E+07 0.00123477
1.85000E+07 0.00124370
1.86250E+07 0.00125263
1.87500E+07 0.00126157
1.88750E+07 0.00127051
1.90000E+07 0.00127946
1.92500E+07 0.00129900
1.95000E+07 0.00131857
1.97500E+07 0.00133819
2.00000E+07 0.00135784