Ba-136(n,tot) ENDF/B-VII.1
Energy(eV) XS(b)
1.00000E-05 37.1803
1.25000E-05 33.5711
1.50000E-05 30.9069
2.00000E-05 27.1673
2.75000E-05 23.6090
3.50000E-05 21.2672
4.25000E-05 19.5766
5.00000E-05 18.2823
6.25000E-05 16.6683
7.50000E-05 15.4768
0.000100000 13.8044
0.000125000 12.6630
0.000150000 11.8205
0.000200000 10.6379
0.000275000 9.51269
0.000350000 8.77214
0.000425000 8.23753
0.000500000 7.82825
0.000625000 7.31783
0.000750000 6.94105
0.00100000 6.41217
0.00125000 6.05124
0.00150000 5.78481
0.00200000 5.41083
0.00275000 5.05498
0.00350000 4.82078
0.00425000 4.65170
0.00500000 4.52226
0.00625000 4.36083
0.00750000 4.24166
0.0100000 4.07437
0.0125000 3.96020
0.0150000 3.87592
0.0200000 3.75759
0.0253000 3.67275
0.0314750 3.60237
0.0376500 3.55009
0.0500000 3.47628
0.0625000 3.42511
0.0750000 3.38731
0.100000 3.33420
0.125000 3.29789
0.150000 3.27104
0.200000 3.23323
0.275000 3.19708
0.350000 3.17310
0.500000 3.14219
0.750000 3.11244
1.00000 3.09409
1.50000 3.07111
2.00000 3.05625
2.75000 3.04059
3.50000 3.02892
5.00000 3.01127
7.50000 2.98946
10.0000 2.97202
15.0000 2.94336
20.0000 2.91937
27.5000 2.88869
35.0000 2.86241
50.0000 2.81887
75.0000 2.76357
100.000 2.72149
125.000 2.68757
150.000 2.65896
200.000 2.61119
261.914 2.55959
323.828 2.50556
354.785 2.47273
385.741 2.43044
401.220 2.40269
416.698 2.36685
424.438 2.34382
432.177 2.31454
436.046 2.29559
437.981 2.28414
439.916 2.27055
441.851 2.25355
442.818 2.24311
443.786 2.23103
444.753 2.21792
445.237 2.21255
445.720 2.21189
445.962 2.21644
446.204 2.22863
446.446 2.25693
446.688 2.32253
446.809 2.38557
446.930 2.48929
447.051 2.67006
447.171 3.01239
447.232 3.30447
447.292 3.74875
447.353 4.46298
447.413 5.69734
447.474 8.07477
447.504 10.1537
447.534 13.4137
447.565 18.9015
447.595 28.8974
447.610 37.1337
447.625 49.1525
447.633 57.2647
447.640 67.0677
447.648 79.2148
447.655 93.7473
447.666 120.713
447.678 151.653
447.700 192.464
447.711 182.922
447.723 157.342
447.745 100.991
447.771 60.5103
447.796 39.2757
447.822 27.5623
447.847 20.5995
447.873 16.1575
447.898 13.1850
447.949 9.56827
448.000 7.53194
448.051 6.27455
448.153 4.85585
448.255 4.10844
448.357 3.66326
448.460 3.37388
448.562 3.17413
448.766 2.92049
448.970 2.76944
449.174 2.67070
449.378 2.60175
449.786 2.51254
450.195 2.45771
451.011 2.39369
451.828 2.35686
452.644 2.33218
454.277 2.29930
455.910 2.27627
457.543 2.25751
460.809 2.22497
467.341 2.16147
473.873 2.08585
480.404 1.98482
486.936 1.83738
490.202 1.73403
493.468 1.59871
496.734 1.41515
498.367 1.29784
500.000 1.15891
501.224 1.03975
502.447 0.910952
503.671 0.787342
504.894 0.723204
505.506 0.764388
505.812 0.825025
506.118 0.929217
506.271 1.00388
506.424 1.09812
506.730 1.36510
506.883 1.55128
507.036 1.78471
507.188 2.07840
507.341 2.44957
507.494 2.92188
507.647 3.52681
507.800 4.31025
507.953 5.33573
508.106 6.69953
508.259 8.54318
508.412 11.0914
508.565 14.7083
508.718 20.0197
508.871 28.1458
509.024 41.3016
509.177 64.2195
509.253 82.4703
509.330 108.645
509.406 147.792
509.483 209.418
509.559 313.504
509.635 504.830
509.674 664.078
509.712 897.432
509.750 1247.93
509.788 1774.41
509.844 2903.20
509.900 3707.80
509.956 3031.41
510.012 1935.89
510.066 1230.74
510.121 823.882
510.175 583.596
510.230 433.990
510.284 335.349
510.339 267.373
510.448 182.664
510.557 133.847
510.666 103.185
510.883 68.0929
511.101 49.3770
511.319 38.1385
511.537 30.8029
511.755 25.7218
512.191 19.2595
512.626 15.4079
513.062 12.8942
513.498 11.1443
514.369 8.89617
515.241 7.53202
516.112 6.62426
516.983 5.97935
518.726 5.12364
520.469 4.57182
521.341 4.35635
521.776 4.25920
522.212 4.17100
522.648 4.10384
522.866 4.09276
523.083 4.12459
523.301 4.27587
523.410 4.46878
523.519 4.85849
523.628 5.73065
523.683 6.59000
523.737 8.08118
523.791 10.9445
523.819 13.4264
523.846 17.2725
523.873 23.6278
523.900 34.8532
523.914 43.8154
523.928 56.5092
523.941 74.7551
523.955 100.869
523.966 129.997
523.977 163.623
524.000 209.017
524.011 199.566
524.023 172.575
524.045 112.423
524.060 84.2906
524.074 64.7110
524.103 41.3691
524.133 29.0842
524.162 22.0372
524.191 17.6302
524.220 14.7156
524.278 11.1991
524.336 9.23416
524.394 8.01776
524.510 6.63665
524.626 5.89818
524.743 5.44862
524.859 5.14950
524.975 4.93713
525.207 4.65581
525.440 4.47655
525.905 4.25561
526.369 4.11818
526.834 4.01949
527.764 3.87831
529.623 3.69277
531.482 3.56378
535.201 3.38367
538.919 3.25945
546.356 3.09574
553.793 2.99144
561.229 2.91866
568.666 2.86471
583.540 2.78951
598.413 2.73897
613.287 2.70216
643.034 2.65096
672.781 2.61582
702.528 2.58921
762.023 2.54941
881.011 2.49300
1000.00 2.44789
1159.41 2.39211
1318.81 2.33508
1398.51 2.30454
1438.36 2.28851
1478.21 2.27187
1518.07 2.25465
1557.92 2.23720
1577.84 2.22910
1587.81 2.22575
1597.77 2.22367
1607.73 2.22494
1612.71 2.22877
1617.69 2.23794
1620.18 2.24662
1622.68 2.26063
1625.17 2.28459
1627.66 2.32939
1628.90 2.36764
1630.15 2.42636
1631.39 2.52296
1632.64 2.69811
1633.26 2.84467
1633.88 3.06661
1634.51 3.42583
1635.13 4.06228
1635.44 4.58553
1635.75 5.36030
1636.06 6.58146
1636.37 8.66866
1636.69 12.6931
1636.84 16.2594
1637.00 21.9176
1637.15 31.7839
1637.31 50.7442
1637.39 67.5012
1637.46 93.6396
1637.54 136.120
1637.62 204.900
1637.71 326.888
1637.80 408.361
1637.89 326.895
1637.98 204.918
1638.07 128.140
1638.16 85.0118
1638.25 59.5629
1638.34 44.0553
1638.43 33.8462
1638.51 26.9631
1638.69 18.4470
1638.87 13.6421
1639.04 10.6799
1639.40 7.38623
1639.75 5.68789
1640.10 4.70541
1640.46 4.08379
1640.81 3.66797
1641.52 3.16137
1642.23 2.87674
1642.93 2.70103
1643.64 2.58496
1645.05 2.44575
1646.47 2.36856
1647.88 2.32116
1649.30 2.28986
1652.13 2.25207
1654.95 2.23064
1657.78 2.21699
1660.61 2.20753
1666.27 2.19498
1671.92 2.18661
1683.24 2.17482
1694.55 2.16556
1705.86 2.15720
1728.49 2.14117
1751.11 2.12495
1773.74 2.10799
1818.99 2.07070
1864.24 2.02701
1909.50 1.97377
1954.75 1.90532
2000.00 1.80996
2034.68 1.70122
2052.02 1.62460
2069.36 1.52087
2078.04 1.45275
2086.71 1.36781
2095.38 1.25782
2104.05 1.10829
2108.38 1.01090
2112.72 0.891747
2117.05 0.743514
2121.39 0.558301
2123.56 0.451524
2125.72 0.340629
2127.89 0.243289
2128.98 0.214538
2130.06 0.217825
2131.14 0.283966
2131.68 0.358195
2132.23 0.476096
2132.77 0.657667
2133.31 0.933946
2133.85 1.35469
2134.39 2.00139
2134.94 3.02123
2135.48 4.68231
2136.02 7.52352
2136.56 12.7375
2136.83 17.0350
2137.10 23.3509
2137.37 33.0370
2137.65 48.7236
2137.92 75.9962
2138.19 128.061
2138.32 172.863
2138.46 239.994
2138.59 343.988
2138.73 505.708
2138.91 840.873
2139.10 1091.84
2139.29 905.950
2139.47 587.915
2139.63 403.456
2139.78 286.878
2139.94 212.711
2140.09 163.792
2140.40 106.274
2140.71 75.3376
2141.02 56.8439
2141.33 44.8894
2141.95 30.8216
2142.57 23.0688
2143.19 18.2996
2143.81 15.1274
2144.43 12.8958
2145.67 9.99649
2146.91 8.22796
2148.15 7.05036
2149.39 6.21626
2151.87 5.12139
2154.35 4.44013
2156.82 3.97680
2159.30 3.64169
2164.26 3.18791
2169.22 2.89249
2174.17 2.68176
2179.13 2.52105
2189.05 2.28349
2198.96 2.10425
2218.79 1.80593
2228.70 1.65617
2238.62 1.48942
2248.53 1.29051
2258.45 1.03763
2263.40 0.881315
2268.36 0.699134
2273.32 0.489146
2278.27 0.264254
2280.75 0.165633
2281.99 0.129531
2283.23 0.110362
2284.47 0.118774
2285.71 0.171983
2286.33 0.223752
2286.95 0.298712
2287.57 0.404041
2288.19 0.548680
2288.81 0.745747
2289.43 1.01252
2290.05 1.37356
2290.67 1.86310
2291.29 2.53411
2291.91 3.46147
2292.53 4.76771
2293.15 6.64000
2293.77 9.40552
2294.39 13.6289
2295.01 20.3766
2295.62 31.7992
2296.24 52.8434
2296.55 70.3259
2296.86 96.1179
2297.17 136.044
2297.48 200.661
2297.79 310.176
2298.10 498.632
2298.45 836.131
2298.80 1094.16
2299.15 915.559
2299.50 598.019
2299.76 429.414
2300.01 316.994
2300.27 241.574
2300.53 190.091
2301.04 127.000
2301.56 91.8070
2302.07 70.1869
2302.59 55.9666
2303.62 38.9379
2304.65 29.4057
2305.68 23.4813
2306.71 19.5043
2307.73 16.6880
2309.79 13.0092
2311.85 10.7482
2313.91 9.23573
2315.97 8.16094
2320.09 6.74622
2324.21 5.86363
2328.32 5.26362
2332.44 4.83033
2340.68 4.24746
2348.91 3.87354
2357.15 3.61290
2365.39 3.42034
2381.86 3.15350
2398.33 2.97574
2414.80 2.84742
2431.27 2.74943
2464.22 2.60709
2497.16 2.50585
2563.05 2.36365
2628.93 2.25994
2694.82 2.17342
2727.77 2.13347
2760.71 2.09516
2777.18 2.07712
2793.65 2.06187
2801.89 2.05806
2810.12 2.06519
2814.24 2.08378
2816.30 2.10479
2818.36 2.14521
2820.42 2.23434
2821.45 2.32415
2822.48 2.48812
2822.99 2.62624
2823.51 2.83663
2824.02 3.17986
2824.54 3.79458
2824.80 4.30600
2825.05 5.07121
2825.31 6.29550
2825.57 8.43403
2825.82 12.7056
2825.95 16.6359
2826.08 23.1165
2826.21 35.1292
2826.27 45.2074
2826.34 60.5296
2826.40 85.7682
2826.47 129.221
2826.53 211.777
2826.56 280.593
2826.60 378.198
2826.65 605.348
2826.70 752.606
2826.75 600.677
2826.81 378.072
2826.84 270.470
2826.88 197.982
2826.91 149.228
2826.95 116.495
2827.02 75.2288
2827.09 52.6812
2827.16 38.8583
2827.23 30.0511
2827.38 19.7550
2827.52 14.1897
2827.66 10.8765
2827.81 8.74863
2827.95 7.31097
2828.23 5.52517
2828.52 4.51220
2828.80 3.87921
2829.09 3.46012
2829.66 2.95430
2830.23 2.67283
2830.80 2.50018
2831.37 2.38678
2832.51 2.25109
2833.66 2.17601
2835.94 2.09923
2838.22 2.06192
2840.51 2.04031
2845.07 2.01594
2854.20 1.99126
2863.34 1.97522
2881.60 1.94884
2899.87 1.92409
2936.40 1.87401
2972.93 1.82092
3046.00 1.69973
3119.06 1.54661
3192.13 1.33720
3228.66 1.19735
3265.19 1.02057
3301.72 0.790008
3319.99 0.647563
3338.25 0.483644
3356.52 0.299971
3374.79 0.115102
3379.35 0.0756954
3383.92 0.0433825
3388.49 0.0222263
3393.05 0.0183487
3395.34 0.0256361
3397.62 0.0410922
3399.90 0.0667386
3402.18 0.105180
3404.47 0.159926
3406.75 0.236458
3409.03 0.351336
3410.18 0.473016
3410.46 0.547769
3410.75 0.712971
3410.89 0.901970
3411.03 1.32140
3411.10 1.76973
3411.17 2.62170
3411.25 4.52226
3411.28 6.42407
3411.32 9.51541
3411.36 14.9050
3411.40 18.5661
3411.44 14.9100
3411.48 9.51488
3411.52 6.17791
3411.56 4.27074
3411.64 2.43247
3411.72 1.64484
3411.80 1.25676
3411.95 0.903343
3412.11 0.759452
3412.42 0.655096
3412.74 0.629569
3413.99 0.682044
3415.25 0.792220
3416.50 0.927881
3421.51 1.74313
3424.02 2.38129
3426.53 3.25765
3429.04 4.47938
3431.54 6.21598
3434.05 8.74795
3436.56 12.5561
3439.06 18.5252
3441.57 28.3934
3444.08 45.9068
3445.33 59.9431
3446.59 80.0177
3447.84 109.700
3449.09 155.002
3450.35 226.283
3451.60 338.887
3453.30 572.815
3455.00 755.216
3456.70 636.859
3458.40 419.211
3459.75 295.833
3461.10 215.362
3462.44 162.806
3463.79 127.413
3466.49 84.8635
3469.18 61.4421
3471.88 47.1893
3474.58 37.8487
3479.97 26.6728
3485.36 20.4140
3490.75 16.5080
3496.14 13.8776
3501.53 12.0046
3512.31 9.54311
3523.10 8.01724
3533.88 6.98936
3536.58 6.78455
3539.27 6.59859
3541.97 6.44638
3542.64 6.42906
3543.31 6.45703
3543.65 6.53102
3543.99 6.76899
3544.16 7.10210
3544.33 7.98513
3544.41 9.09438
3544.45 10.1031
3544.49 11.7604
3544.54 14.7525
3544.56 17.2328
3544.58 20.9374
3544.60 26.7737
3544.62 36.5784
3544.64 54.2483
3544.66 88.5399
3544.68 138.604
3544.70 170.847
3544.72 138.614
3544.74 88.5509
3544.75 67.5168
3544.76 52.0562
3544.79 33.7280
3544.81 24.2086
3544.83 18.9701
3544.86 15.5786
3544.88 13.4411
3544.93 10.8395
3544.97 9.42085
3545.02 8.56522
3545.12 7.62974
3545.30 6.88220
3545.49 6.59193
3545.87 6.35982
3546.24 6.26210
3547.00 6.16403
3547.75 6.10294
3550.76 5.92661
3553.77 5.77752
3556.78 5.64099
3568.82 5.18149
3592.91 4.53595
3616.99 4.10358
3641.08 3.79328
3689.24 3.37537
3737.41 3.10362
3833.75 2.76100
3930.09 2.54079
4026.42 2.37299
4122.76 2.22192
4170.93 2.13945
4219.10 2.03247
4243.18 1.95273
4255.22 1.89713
4267.26 1.82101
4279.31 1.70528
4285.33 1.61909
4291.35 1.49746
4294.36 1.41526
4297.37 1.31108
4300.38 1.17475
4303.39 0.989820
4304.90 0.871283
4306.40 0.730325
4307.91 0.564482
4309.41 0.381680
4310.92 0.242248
4311.67 0.269300
4312.05 0.351003
4312.42 0.520475
4312.80 0.842678
4313.17 1.43777
4313.36 1.90714
4313.55 2.55548
4313.74 3.46323
4313.93 4.75747
4314.12 6.65904
4314.30 9.50879
4314.49 13.9697
4314.68 21.3175
4314.87 34.2578
4314.96 44.5436
4315.06 59.1480
4315.15 80.4956
4315.24 112.652
4315.34 162.324
4315.43 239.314
4315.57 408.146
4315.70 540.946
4315.84 457.876
4315.97 303.041
4316.06 222.572
4316.16 167.862
4316.25 130.379
4316.35 104.158
4316.53 71.3679
4316.72 52.6100
4316.91 40.8624
4317.10 33.0790
4317.48 23.6089
4317.85 18.2141
4318.23 14.8254
4318.61 12.5235
4318.98 10.8822
4319.73 8.71402
4320.49 7.36562
4321.24 6.45506
4321.99 5.80364
4323.50 4.93723
4325.00 4.39186
4326.51 4.01824
4328.01 3.74725
4331.03 3.38077
4334.04 3.14478
4337.05 2.98006
4340.06 2.85842
4346.08 2.69024
4352.10 2.57880
4364.15 2.43829
4376.19 2.35128
4388.23 2.29042
4412.32 2.20737
4460.50 2.10518
4508.67 2.03560
4556.85 1.98136
4580.94 1.95938
4605.03 1.94284
4617.07 1.93820
4629.11 1.93806
4641.16 1.94616
4653.20 1.97139
4659.22 1.99702
4665.25 2.03954
4671.27 2.11350
4677.29 2.25315
4680.30 2.37268
4683.31 2.55643
4686.32 2.85857
4689.33 3.40512
4690.84 3.86089
4692.35 4.54821
4693.85 5.65596
4695.36 7.60713
4696.11 9.19565
4696.86 11.5389
4697.62 15.1998
4698.37 21.3673
4699.12 32.9832
4699.50 43.0555
4699.87 58.7369
4700.25 85.0896
4700.63 133.407
4700.81 173.638
4701.00 233.075
4701.19 323.166
4701.38 459.883
4701.64 735.136
4701.90 918.739
4702.16 735.024
4702.42 459.816
4702.66 294.294
4702.90 197.568
4703.14 139.447
4703.38 103.103
4703.86 62.5083
4704.34 41.9774
4704.82 30.2437
4705.30 22.9606
4706.25 14.8013
4707.21 10.5788
4708.17 8.12300
4709.12 6.56951
4710.08 5.52521
4712.00 4.25180
4713.91 3.53477
4715.83 3.09130
4717.74 2.79792
4721.57 2.44509
4725.40 2.24842
4729.23 2.12695
4733.06 2.04613
4740.72 1.94721
4748.37 1.88967
4756.03 1.85186
4763.69 1.82465
4779.01 1.78649
4794.33 1.75901
4809.64 1.73659
4824.96 1.71686
4855.59 1.68149
4886.23 1.64871
4916.86 1.61790
4924.52 1.61155
4932.18 1.60902
4936.01 1.61347
4939.84 1.63540
4941.75 1.67116
4943.67 1.77894
4944.62 1.93157
4945.10 2.08389
4945.58 2.35892
4946.06 2.93412
4946.30 3.48752
4946.54 4.45509
4946.78 6.38600
4946.90 8.15716
4947.02 11.0621
4947.14 16.4051
4947.20 20.8882
4947.26 27.5224
4947.32 38.2668
4947.38 56.6669
4947.44 90.7096
4947.50 155.591
4947.55 249.184
4947.60 310.694
4947.65 250.123
4947.70 156.772
4947.76 98.2915
4947.81 65.1558
4947.86 45.7986
4947.91 33.8503
4947.96 26.0654
4948.01 20.7506
4948.11 14.2087
4948.22 10.4821
4948.32 8.20717
4948.52 5.66399
4948.73 4.34668
4948.93 3.58412
4949.34 2.77574
4949.75 2.37715
4950.16 2.15217
4950.97 1.91884
4951.79 1.80594
4952.61 1.74236
4954.24 1.67618
4957.51 1.62430
4960.78 1.60287
4967.32 1.58233
4973.85 1.57035
5000.00 1.53784
5069.99 1.46378
5139.98 1.38944
5279.96 1.23182
5419.94 1.05643
5559.93 0.855326
5699.91 0.616377
5769.90 0.476924
5839.89 0.320622
5909.88 0.150268
5944.87 0.0695118
5962.37 0.0369155
5971.12 0.0247213
5979.87 0.0167391
5988.62 0.0146289
5997.37 0.0207503
6006.12 0.0385076
6014.87 0.0729131
6023.61 0.131522
6032.36 0.226039
6041.11 0.375205
6049.86 0.610198
6058.61 0.985611
6067.36 1.60265
6076.11 2.66413
6084.86 4.61921
6089.23 6.23456
6093.60 8.61193
6097.98 12.2661
6102.35 18.1991
6106.73 28.5598
6111.10 48.4688
6113.29 65.6479
6115.48 91.7705
6117.66 132.689
6119.85 197.142
6122.78 327.435
6125.70 424.354
6128.63 351.670
6131.55 227.552
6133.68 163.179
6135.80 120.060
6137.93 91.2062
6140.05 71.4183
6144.30 47.2255
6148.55 33.7418
6152.80 25.5111
6157.05 20.1586
6159.18 18.2044
6160.24 17.3922
6161.30 16.7174
6162.37 16.2675
6162.90 16.2115
6163.43 16.4038
6163.70 16.6777
6163.96 17.1712
6164.23 18.0515
6164.49 19.6769
6164.76 22.9856
6164.89 26.0017
6165.02 30.8641
6165.16 39.5025
6165.29 56.6260
6165.36 72.1607
6165.42 96.5260
6165.49 137.052
6165.55 206.205
6165.63 321.499
6165.70 399.022
6165.77 321.729
6165.85 206.303
6165.90 143.741
6165.96 104.543
6166.02 79.6440
6166.08 63.2776
6166.19 44.1893
6166.31 34.0737
6166.43 28.0844
6166.54 24.3138
6166.78 19.9579
6167.01 17.6050
6167.24 16.1808
6167.47 15.2329
6167.70 14.5570
6168.17 13.6457
6168.63 13.0419
6169.56 12.2333
6170.49 11.6574
6171.42 11.1891
6173.28 10.4145
6175.14 9.76427
6177.00 9.19492
6180.72 8.22910
6188.15 6.76595
6195.59 5.70918
6210.46 4.29507
6225.33 3.40132
6255.07 2.34451
6284.81 1.73977
6344.29 1.05774
6403.77 0.662587
6463.26 0.392801
6522.74 0.198169
6552.48 0.124424
6582.22 0.0668952
6597.09 0.0448459
6611.96 0.0280586
6626.83 0.0196919
6634.27 0.0316705
6636.13 0.0475386
6637.99 0.0939657
6638.92 0.158449
6639.84 0.336731
6640.31 0.575027
6640.77 1.20299
6641.01 2.00015
6641.12 2.72847
6641.24 3.93596
6641.35 6.14668
6641.41 8.00618
6641.47 10.8241
6641.53 15.3525
6641.59 23.1758
6641.64 37.8505
6641.70 66.9210
6641.75 107.132
6641.80 133.992
6641.85 107.257
6641.90 67.0770
6641.95 40.9190
6642.00 26.6492
6642.05 18.4128
6642.10 13.3715
6642.14 10.1070
6642.19 7.88862
6642.29 5.17138
6642.39 3.64289
6642.49 2.70226
6642.68 1.65580
6642.88 1.11864
6643.08 0.807184
6643.47 0.478890
6644.25 0.228078
6645.04 0.135555
6646.61 0.0668030
6648.17 0.0418963
6654.45 0.0175335
6667.00 0.0156692
6679.55 0.0246821
6692.10 0.0407164
6704.65 0.0638983
6717.20 0.0948827
6742.30 0.183936
6767.40 0.316978
6792.50 0.506300
6817.60 0.768519
6842.70 1.12621
6867.80 1.61057
6892.90 2.26520
6918.01 3.15231
6943.11 4.36222
6968.21 6.02945
6993.31 8.35905
7018.41 11.6741
7030.96 13.8559
7034.10 14.4727
7037.23 15.1264
7038.80 15.4745
7040.37 15.8566
7041.16 16.0856
7041.94 16.4112
7042.33 16.6977
7042.72 17.3030
7042.92 17.9906
7043.12 19.5718
7043.21 21.3089
7043.31 24.8521
7043.36 28.1605
7043.41 33.6638
7043.46 43.4467
7043.51 61.6428
7043.55 89.0152
7043.60 106.941
7043.65 89.1131
7043.69 61.7821
7043.72 48.9949
7043.76 40.1801
7043.79 34.2738
7043.82 30.2282
7043.88 25.3124
7043.95 22.6414
7044.08 19.9614
7044.20 18.7653
7044.46 17.7732
7044.71 17.4097
7045.22 17.1990
7045.73 17.1963
7046.75 17.3500
7047.77 17.5672
7049.81 18.0576
7051.85 18.5815
7060.01 20.8932
7076.32 26.6161
7108.95 44.6345
7141.57 78.9388
7157.89 107.172
7174.20 146.812
7205.80 261.711
7237.40 361.312
7269.00 317.478
7300.60 217.439
7331.93 146.629
7363.27 103.947
7394.60 77.8356
7425.94 61.0335
7457.27 49.6597
7488.60 41.6391
7504.27 38.5285
7512.11 37.1763
7519.94 35.9818
7527.77 35.0242
7531.69 34.7110
7535.61 34.6317
7539.52 35.0813
7541.48 35.7566
7543.44 37.1087
7545.40 39.9609
7546.38 42.5902
7547.36 46.8754
7548.33 54.4127
7549.31 69.1766
7549.80 82.2686
7550.29 102.745
7550.78 136.277
7551.27 191.703
7551.84 288.318
7552.40 352.612
7552.97 287.959
7553.53 191.416
7553.91 146.099
7554.29 115.410
7554.67 94.5512
7555.04 80.1526
7555.80 62.4032
7556.56 52.4931
7557.31 46.4423
7558.07 42.4966
7559.58 37.8118
7561.10 35.2134
7562.61 33.5945
7565.64 31.6885
7568.66 30.5705
7571.69 29.7958
7577.74 28.6958
7583.79 27.8624
7589.85 27.1534
7601.95 25.9289
7614.06 24.8577
7626.16 23.8911
7650.37 22.1923
7698.79 19.4741
7723.00 18.3678
7735.11 17.8662
7741.16 17.6332
7744.19 17.5450
7745.70 17.5976
7746.08 17.6909
7746.46 17.9579
7746.65 18.3020
7746.83 19.1367
7746.93 20.0829
7747.02 22.0174
7747.07 23.8829
7747.12 26.9515
7747.17 32.4393
7747.21 42.6296
7747.26 57.7839
7747.30 67.8980
7747.34 57.8135
7747.39 42.6643
7747.42 34.8801
7747.45 29.9583
7747.52 24.5287
7747.58 21.8715
7747.65 20.4534
7747.78 19.0528
7747.90 18.4234
7748.16 17.8806
7748.42 17.6587
7748.93 17.4734
7749.45 17.3920
7751.51 17.2515
7755.62 17.0829
7763.86 16.7838
7780.33 16.2262
7813.26 15.2292
7879.14 13.6035
8010.89 11.3238
8142.64 9.80736
8274.39 8.72594
8537.90 7.27477
8669.65 6.75525
8702.58 6.63943
8735.52 6.52851
8768.46 6.42303
8784.93 6.37592
8793.16 6.36850
8795.22 6.38066
8797.28 6.42627
8798.31 6.49428
8799.34 6.68700
8799.85 6.94702
8800.37 7.63646
8800.63 8.51603
8800.76 9.32751
8800.88 10.6690
8801.01 13.1646
8801.08 15.2659
8801.14 18.4719
8801.21 23.7793
8801.27 32.9845
8801.33 50.6711
8801.37 65.5799
8801.40 87.1678
8801.45 136.086
8801.50 168.146
8801.55 136.145
8801.60 87.2420
8801.66 55.6999
8801.71 38.0501
8801.76 28.0281
8801.81 21.9697
8801.87 18.0827
8801.92 15.4599
8802.03 12.2708
8802.13 10.4902
8802.24 9.39997
8802.45 8.19297
8802.87 7.21960
8803.30 6.84504
8804.15 6.55809
8804.99 6.45117
8806.69 6.36901
8808.38 6.33626
8815.16 6.28890
8828.72 6.24304
8842.27 6.20510
8855.83 6.17210
8869.38 6.14898
8876.16 6.14631
8882.94 6.15824
8889.72 6.20681
8893.11 6.26507
8896.50 6.37891
8898.19 6.47757
8899.89 6.62948
8901.58 6.87854
8903.27 7.32374
8904.12 7.68993
8904.97 8.23316
8905.82 9.08789
8906.66 10.5424
8907.51 13.3141
8907.94 15.7411
8908.36 19.5610
8908.78 26.0737
8909.21 38.2830
8909.42 48.7077
8909.63 64.4598
8909.84 89.0220
8910.05 127.298
8910.33 200.431
8910.60 249.424
8910.87 200.894
8911.15 127.885
8911.41 82.9934
8911.67 57.1185
8911.92 41.7493
8912.18 32.2134
8912.70 21.6439
8913.22 16.3249
8913.73 13.3035
8914.25 11.4314
8915.28 9.33420
8916.32 8.24949
8917.35 7.61659
8918.39 7.21496
8919.42 6.94403
8921.49 6.61068
8923.56 6.42003
8925.62 6.29967
8927.69 6.21798
8931.83 6.11505
8935.96 6.05266
8944.23 5.97787
8952.50 5.93044
8960.77 5.89416
8977.32 5.83547
8993.86 5.78461
9010.40 5.73717
9043.48 5.64707
9076.57 5.56022
9109.65 5.47514
9142.73 5.39116
9159.27 5.34981
9167.54 5.33091
9171.68 5.32831
9173.75 5.35318
9174.78 5.46021
9175.30 5.82160
9175.43 6.12963
9175.56 6.81919
9175.69 8.85728
9175.75 11.6861
9175.81 18.3423
9175.86 26.1134
9175.90 31.3975
9175.94 26.1214
9175.99 18.3521
9176.03 12.9239
9176.08 10.0582
9176.18 7.58738
9176.27 6.61367
9176.37 6.15143
9176.75 5.56720
9177.51 5.37653
9179.04 5.31881
9182.09 5.29665
9188.20 5.27747
9200.42 5.24564
9224.85 5.18354
9273.72 5.05862
9371.46 4.79830
9469.20 4.50862
9566.93 4.15913
9664.67 3.68663
9713.54 3.36197
9762.41 2.92955
9786.84 2.65075
9811.28 2.31074
9835.71 1.88722
9860.14 1.35178
9872.36 1.03487
9884.58 0.689248
9896.80 0.339556
9902.90 0.185460
9909.01 0.0735582
9912.07 0.0462593
9915.12 0.0490856
9918.18 0.0945208
9921.23 0.200381
9924.28 0.392534
9927.34 0.708857
9930.39 1.20653
9933.45 1.97354
9936.50 3.14961
9939.56 4.96158
9942.61 7.79533
9945.66 12.3316
9948.72 19.8300
9951.77 32.7056
9954.83 55.7161
9957.88 97.5857
9961.44 181.891
9965.00 261.973
9968.56 239.305
9972.12 169.423
9975.61 118.104
9979.09 86.1903
9982.58 66.2158
9986.06 53.1278
9989.55 44.1276
9993.03 37.6687
10000.0 29.1799
10005.7 24.7359
10011.4 21.5817
10022.9 17.4422
10034.3 14.8769
10045.7 13.1458
10068.5 10.9727
10091.4 9.67214
10114.2 8.80867
10125.7 8.47860
10137.1 8.19808
10148.5 7.96023
10154.2 7.85777
10159.9 7.76936
10165.6 7.70453
10168.5 7.68991
10171.3 7.70183
10174.2 7.77669
10175.6 7.87053
10177.1 8.05284
10178.5 8.45296
10179.2 8.85027
10179.9 9.54490
10180.3 10.1194
10180.6 10.9709
10181.0 12.3093
10181.3 14.5048
10181.7 18.7683
10181.9 22.5027
10182.1 27.9948
10182.2 37.7537
10182.4 56.0869
10182.5 71.7130
10182.6 95.3334
10182.7 132.188
10182.8 189.185
10182.9 293.021
10183.0 369.120
10183.1 291.433
10183.2 187.247
10183.3 141.051
10183.4 107.925
10183.5 68.1916
10183.7 47.2915
10183.8 35.9788
10183.9 28.3314
10184.1 23.6274
10184.3 17.7504
10184.6 14.4385
10184.9 12.5238
10185.4 10.4241
10186.0 9.34671
10186.5 8.74131
10187.6 8.10532
10188.7 7.79079
10189.8 7.61267
10191.9 7.41954
10194.1 7.31555
10196.3 7.24785
10200.6 7.15601
10209.3 7.03121
10218.0 6.93442
10226.7 6.85638
10235.4 6.81436
10239.7 6.83644
10241.9 6.88038
10244.0 6.97860
10246.2 7.21218
10247.3 7.45467
10248.4 7.89469
10248.9 8.26985
10249.5 8.82545
10250.0 9.71246
10250.6 11.2501
10251.1 14.3339
10251.4 17.0781
10251.6 21.5404
10251.9 29.4670
10252.1 36.2147
10252.2 45.4091
10252.3 60.6786
10252.5 83.6949
10252.6 126.411
10252.7 199.148
10252.9 313.582
10253.0 393.490
10253.1 315.153
10253.3 201.100
10253.4 145.924
10253.5 109.934
10253.6 83.0343
10253.7 66.4405
10253.8 44.9000
10254.0 33.4997
10254.2 26.1626
10254.4 21.4443
10254.8 16.0731
10255.2 13.1051
10255.5 11.3788
10255.9 10.2345
10256.3 9.47397
10257.0 8.51520
10257.8 7.96364
10258.5 7.61594
10259.3 7.38417
10260.8 7.09374
10262.3 6.92532
10265.3 6.74102
10268.3 6.64022
10271.2 6.57431
10277.2 6.48583
10283.2 6.42224
10289.2 6.36969
10301.2 6.28060
10313.2 6.20292
10325.1 6.13229
10349.1 6.00573
10373.1 5.89357
10397.0 5.79259
10421.0 5.70136
10432.9 5.66404
10438.9 5.67177
10440.4 5.69798
10441.9 5.78282
10442.7 5.90577
10443.4 6.25121
10443.8 6.72276
10444.2 7.92718
10444.4 9.46920
10444.5 12.8882
10444.6 17.0969
10444.7 24.7753
10444.8 32.6116
10444.8 42.5330
10444.9 63.3030
10444.9 92.1454
10445.0 143.378
10445.0 178.530
10445.1 143.958
10445.1 91.9997
10445.1 63.9859
10445.2 46.3912
10445.2 35.2500
10445.3 29.5085
10445.3 21.0641
10445.4 16.3555
10445.5 11.6327
10445.7 9.45059
10446.0 7.52525
10446.2 6.77625
10446.8 6.17103
10447.4 5.94037
10448.5 5.76313
10449.7 5.69505
10454.2 5.61369
10463.3 5.56508
10481.5 5.50235
10499.7 5.44679
10518.0 5.39446
10554.4 5.29665
10590.8 5.20592
10663.7 5.03920
10736.5 4.88395
10882.2 4.56910
10918.6 4.47886
10955.1 4.37669
10973.3 4.31865
10991.5 4.25399
11009.7 4.18091
11018.8 4.14382
11023.4 4.14070
11025.6 4.20447
11026.2 4.27679
11026.8 4.47707
11027.1 4.74611
11027.3 5.40579
11027.5 6.18547
11027.6 7.91269
11027.7 9.67559
11027.8 12.9167
11027.8 19.6296
11027.9 26.8632
11027.9 36.8692
11028.0 55.6171
11028.0 70.0963
11028.1 55.7105
11028.1 36.9818
11028.1 26.9699
11028.2 21.2152
11028.2 14.4163
11028.3 10.8764
11028.3 8.85418
11028.5 6.67685
11028.6 5.75799
11028.8 4.92526
11029.1 4.59770
11029.6 4.32870
11030.1 4.22475
11032.0 4.10911
11036.0 4.05863
11043.8 4.00322
11059.6 3.88837
11075.3 3.74136
11091.0 3.53784
11098.9 3.40095
11106.8 3.22686
11114.6 2.99641
11122.5 2.67548
11126.4 2.46140
11130.4 2.19523
11134.3 1.85588
11138.2 1.41424
11140.2 1.14416
11142.2 0.839730
11146.1 0.219431
11147.1 0.136141
11148.1 0.170421
11149.1 0.454581
11149.5 0.773048
11150.0 1.29167
11150.5 2.14136
11151.0 3.47515
11151.5 5.62714
11152.0 9.18036
11152.5 15.2508
11153.0 26.0899
11153.5 46.4004
11153.7 63.1884
11154.0 85.4649
11154.5 158.700
11155.0 228.049
11155.5 208.546
11156.0 147.937
11156.6 97.2412
11157.2 68.2675
11157.8 51.2822
11158.4 40.7850
11159.0 33.6457
11159.6 28.7071
11160.8 22.2741
11162.0 18.3806
11163.2 15.8081
11165.6 12.6615
11168.0 10.8269
11170.3 9.64357
11172.7 8.81756
11175.1 8.20965
11179.9 7.37492
11184.6 6.83142
11189.4 6.44842
11194.2 6.16351
11203.7 5.76602
11213.2 5.50034
11222.7 5.30791
11232.3 5.16078
11251.3 4.94602
11270.4 4.79205
11308.5 4.57148
11346.6 4.40442
11384.7 4.25843
11460.9 3.97122
11537.1 3.61851
11575.2 3.38019
11613.3 3.06013
11632.4 2.85030
11651.4 2.58956
11670.5 2.25503
11689.5 1.81044
11699.0 1.53025
11708.6 1.20148
11718.1 0.819427
11727.6 0.402350
11732.4 0.206719
11737.1 0.0649806
11739.5 0.0386527
11741.9 0.0663512
11744.3 0.179794
11746.7 0.430464
11747.9 0.634153
11749.0 0.907149
11751.4 1.75617
11753.8 3.25137
11756.2 5.91506
11758.6 10.8154
11759.8 14.7496
11760.9 20.2993
11762.1 28.2599
11763.3 39.8621
11764.5 56.9563
11765.7 82.0460
11767.9 152.979
11770.0 220.634
11772.2 202.977
11774.3 144.878
11776.4 102.489
11778.4 75.5826
11780.5 58.4854
11782.5 47.2094
11786.6 33.7071
11790.7 26.2215
11794.8 21.5890
11798.9 18.4869
11807.0 14.6511
11815.2 12.4016
11823.4 10.9396
11831.6 9.91720
11839.8 9.16397
11856.1 8.13012
11872.5 7.45532
11888.9 6.97956
11905.2 6.62540
11937.9 6.13097
11970.7 5.79952
12036.1 5.37474
12101.6 5.10533
12167.0 4.91196
12232.5 4.76118
12265.2 4.69626
12281.6 4.66604
12289.7 4.65241
12293.8 4.65000
12295.9 4.66552
12296.9 4.73353
12297.4 4.96170
12297.7 5.60858
12297.8 6.95432
12297.9 8.61478
12297.9 12.4183
12298.0 17.5571
12298.0 20.2445
12298.0 17.5748
12298.1 12.4416
12298.2 8.26345
12298.2 6.63217
12298.4 5.47440
12298.7 4.91005
12299.2 4.71370
12300.4 4.65395
12302.7 4.63390
12307.3 4.62160
12316.5 4.60467
12335.0 4.57367
12371.8 4.51518
12445.5 4.40748
12593.0 4.21321
12740.4 4.02741
12814.1 3.93265
12851.0 3.88667
12869.4 3.87455
12874.0 3.88136
12878.6 3.91166
12881.0 3.95872
12883.3 4.09410
12884.4 4.27935
12885.6 4.78338
12886.1 5.45274
12886.4 6.09183
12886.7 7.15029
12887.0 9.27523
12887.1 11.2761
12887.3 14.3214
12887.4 20.1802
12887.5 24.6961
12887.6 31.2939
12887.6 41.3895
12887.7 57.6912
12887.8 85.5327
12887.9 141.139
12887.9 224.863
12888.0 277.392
12888.1 224.649
12888.1 140.868
12888.2 90.7084
12888.3 60.5708
12888.4 43.0617
12888.4 33.5673
12888.5 21.7863
12888.7 15.7589
12888.8 12.3000
12888.9 10.1426
12889.2 7.71298
12889.5 6.45206
12889.7 5.71622
12890.2 4.93669
12891.3 4.33907
12892.3 4.11780
12894.4 3.95248
12896.5 3.89192
12900.7 3.84440
12904.8 3.82395
12921.5 3.78608
12954.8 3.73328
12988.1 3.68107
13021.5 3.62681
13054.8 3.56999
13088.1 3.51076
13121.5 3.45374
13129.8 3.44455
13138.1 3.44879
13142.3 3.46940
13146.5 3.54195
13148.6 3.64867
13150.6 3.94787
13151.7 4.34960
13152.2 4.73702
13152.7 5.41633
13153.2 6.77317
13153.5 8.02548
13153.8 10.1193
13154.0 14.0047
13154.2 17.3211
13154.3 22.4244
13154.4 30.8076
13154.5 45.7763
13154.7 75.3469
13154.7 103.422
13154.8 142.219
13154.9 222.919
13155.0 280.323
13155.1 222.724
13155.2 141.981
13155.3 98.4261
13155.4 69.0585
13155.4 50.6670
13155.5 38.7304
13155.7 25.0093
13155.8 17.8565
13156.0 13.7066
13156.2 11.1000
13156.5 8.21060
13156.8 6.64023
13157.1 5.72326
13157.7 4.76161
13158.4 4.27995
13159.0 4.01216
13160.3 3.73315
13162.8 3.52351
13165.4 3.44480
13170.4 3.38071
13175.5 3.35075
13195.8 3.28596
13236.5 3.18034
13277.1 3.07087
13287.3 3.04663
13297.4 3.03502
13302.5 3.04797
13307.6 3.11607
13310.1 3.22571
13311.4 3.33878
13312.7 3.54665
13313.9 3.98571
13314.6 4.41661
13315.2 5.16345
13315.5 5.77873
13315.9 6.68605
13316.2 8.10158
13316.5 10.3858
13316.8 14.7434
13317.0 18.4724
13317.1 24.2204
13317.3 33.6750
13317.4 50.5571
13317.6 83.7784
13317.7 112.353
13317.8 149.556
13317.9 240.393
13318.0 296.729
13318.1 240.993
13318.2 150.322
13318.4 101.066
13318.5 69.0793
13318.6 49.7178
13318.7 38.3796
13318.9 24.6169
13319.1 17.4666
13319.3 13.3224
13319.5 10.7193
13319.9 7.76603
13320.4 6.22117
13320.8 5.31385
13321.6 4.34517
13322.5 3.86091
13323.3 3.58924
13325.0 3.30506
13326.7 3.16442
13328.4 3.08378
13331.7 2.99526
13338.4 2.91372
13345.2 2.86772
13372.1 2.73930
13399.0 2.61605
13426.0 2.48131
13479.8 2.15848
13533.7 1.73251
13560.6 1.46499
13587.5 1.15108
13614.5 0.786558
13641.4 0.386390
13654.9 0.196537
13661.6 0.115747
13668.3 0.0535424
13675.1 0.0214261
13681.8 0.0373645
13685.2 0.0716361
13688.5 0.129472
13691.9 0.217514
13695.3 0.343319
13698.6 0.518169
13702.0 0.755582
13705.4 1.07387
13708.7 1.49610
13715.5 2.80108
13722.2 5.11731
13728.9 9.34386
13732.3 12.7134
13735.6 17.4134
13739.0 24.1075
13742.4 33.7172
13745.7 47.7235
13749.1 67.9362
13755.6 128.999
13762.0 188.684
13765.2 191.086
13768.5 174.273
13774.9 124.491
13780.3 91.6699
13785.8 69.6868
13791.2 55.0611
13796.7 45.0364
13807.5 32.6717
13818.4 25.6154
13829.3 21.1641
13840.2 18.1504
13851.0 15.9921
13856.5 15.1338
13859.2 14.7560
13860.6 14.6093
13861.2 14.6511
13861.6 15.0083
13861.8 15.9443
13861.8 17.3726
13861.9 21.8493
13862.0 29.3513
13862.1 21.8421
13862.2 17.3405
13862.3 15.8888
13862.4 14.9058
13862.8 14.4584
13863.4 14.2417
13864.8 14.0371
13867.5 13.7114
13872.9 13.1311
13883.6 12.1544
13905.2 10.7056
13926.7 9.68539
13948.3 8.92984
13991.3 7.88675
14034.4 7.20045
14077.5 6.71278
14120.6 6.34669
14206.8 5.82753
14292.9 5.46856
14336.0 5.32456
14379.1 5.19690
14422.2 5.08250
14443.7 5.03012
14465.3 4.98186
14486.8 4.94094
14497.6 4.92646
14508.3 4.92146
14519.1 4.93999
14524.5 4.97114
14529.9 5.03821
14532.6 5.09919
14535.3 5.19509
14538.0 5.35552
14540.6 5.64849
14542.0 5.89434
14543.3 6.26543
14544.7 6.86179
14546.0 7.89649
14547.4 9.96445
14548.1 11.8422
14548.7 14.9404
14549.4 20.6864
14549.7 25.5250
14550.1 32.5959
14550.4 44.2138
14550.7 63.4420
14551.1 99.9750
14551.4 168.391
14551.7 268.851
14552.0 333.138
14552.3 265.679
14552.6 168.898
14552.9 103.445
14553.2 68.7046
14553.5 48.2933
14553.8 36.3522
14554.1 28.4228
14554.4 23.2429
14555.0 16.8140
14555.6 13.2205
14556.3 11.0181
14557.5 8.57646
14558.7 7.32626
14559.9 6.60176
14561.1 6.14437
14562.3 5.83897
14564.8 5.46199
14567.2 5.24785
14569.7 5.11354
14572.1 5.02324
14577.0 4.91013
14581.8 4.84270
14591.6 4.76354
14601.3 4.71475
14611.1 4.67818
14630.6 4.61988
14669.6 4.52159
14708.6 4.42770
14747.6 4.33102
14786.6 4.22770
14864.6 3.98414
14942.5 3.64405
14981.5 3.40270
15020.5 3.07226
15040.0 2.85383
15059.5 2.58155
15079.0 2.23236
15098.5 1.77084
15108.3 1.48235
15118.0 1.14680
15127.8 0.763588
15137.5 0.358137
15142.4 0.177658
15147.3 0.0609958
15149.7 0.0518984
15152.1 0.100360
15154.6 0.237600
15157.0 0.511466
15158.2 0.723759
15159.5 1.00395
15161.9 1.84815
15164.3 3.27679
15166.8 5.69905
15169.2 9.93377
15171.6 17.5282
15174.1 31.8073
15175.3 43.2869
15176.5 58.9611
15179.3 114.412
15182.0 170.442
15183.4 173.879
15184.8 159.603
15187.5 115.287
15189.2 92.8464
15190.8 75.8890
15194.2 53.7210
15197.5 40.7915
15200.8 32.7409
15204.1 27.3557
15207.5 23.5786
15214.1 18.6927
15220.7 15.7151
15227.4 13.7364
15240.7 11.2978
15254.0 9.86434
15267.3 8.92716
15280.6 8.26769
15293.9 7.77883
15320.4 7.10225
15347.0 6.65559
15373.6 6.33767
15400.2 6.09906
15453.4 5.76225
15506.6 5.53352
15533.1 5.44387
15559.7 5.36605
15586.3 5.29804
15599.6 5.26884
15606.3 5.26163
15609.6 5.28307
15611.2 5.38362
15612.1 5.73491
15612.5 6.80228
15612.7 9.32610
15612.8 13.1544
15612.8 17.1220
15612.9 24.7085
15613.0 37.0863
15613.0 44.1531
15613.1 37.0171
15613.1 24.6189
15613.2 17.0392
15613.2 13.0818
15613.3 9.04564
15613.5 6.70983
15614.0 5.70102
15614.8 5.36078
15616.5 5.26114
15619.9 5.22884
15626.7 5.20855
15640.3 5.17995
15667.5 5.12921
15694.6 5.08328
15721.8 5.04126
15830.5 4.90227
15884.9 4.84567
15939.2 4.79546
15993.6 4.75101
16020.7 4.73128
16034.3 4.72255
16041.1 4.71937
16044.5 4.72072
16046.2 4.73087
16047.1 4.76722
16047.5 4.87711
16047.7 5.14892
16047.8 5.67498
16047.9 7.59521
16048.0 10.3723
16048.1 7.51744
16048.2 5.70341
16048.3 5.19491
16048.5 4.88371
16048.8 4.76181
16049.6 4.72434
16051.1 4.71380
16054.1 4.71007
16060.1 4.70672
16072.1 4.70178
16096.2 4.70203
16108.2 4.71722
16114.3 4.73635
16120.3 4.77421
16126.3 4.85852
16129.3 4.94300
16132.3 5.09485
16133.8 5.22163
16135.3 5.41058
16136.8 5.71442
16138.3 6.23958
16139.8 7.28300
16140.6 8.22718
16141.3 9.77941
16142.1 12.5864
16142.5 14.9556
16142.8 18.4077
16143.2 24.0139
16143.6 33.2138
16144.0 50.3334
16144.3 81.7147
16144.7 127.412
16145.0 157.626
16145.3 127.305
16145.7 81.5844
16146.0 50.8319
16146.4 34.4549
16146.7 25.1035
16147.1 19.4250
16147.5 15.6851
16147.8 13.2378
16148.5 10.2502
16149.2 8.55697
16149.9 7.53533
16151.3 6.39481
16152.7 5.81250
16154.1 5.47607
16155.6 5.26434
16157.0 5.12246
16159.8 4.94984
16162.6 4.85252
16168.2 4.75157
16173.9 4.70197
16179.5 4.67312
16190.8 4.64071
16213.4 4.60874
16224.6 4.59837
16230.3 4.59475
16233.1 4.59687
16234.5 4.61224
16235.2 4.66853
16235.6 4.83874
16235.7 5.26127
16235.8 5.98777
16235.9 8.21497
16236.0 11.8142
16236.1 8.21838
16236.2 5.86570
16236.3 5.21820
16236.5 4.82870
16236.8 4.66419
16237.5 4.60886
16239.0 4.59213
16241.9 4.58577
16247.8 4.58047
16259.4 4.57219
16282.7 4.55722
16329.4 4.52986
16422.7 4.47992
16515.9 4.43350
16609.2 4.38925
16702.5 4.34641
16795.8 4.30472
16842.4 4.28476
16889.1 4.26732
16912.4 4.26206
16935.7 4.26656
16947.4 4.28198
16953.2 4.29981
16959.0 4.33419
16964.9 4.40950
16967.8 4.48470
16970.7 4.61974
16973.6 4.90091
16975.1 5.17094
16976.5 5.63780
16978.0 6.56646
16978.7 7.41476
16979.5 8.81661
16980.2 11.3710
16980.6 13.5446
16980.9 16.7333
16981.3 21.9692
16981.6 30.6776
16982.0 46.6178
16982.4 77.1547
16982.7 120.871
16983.0 149.992
16983.3 120.863
16983.6 77.1488
16984.0 48.4696
16984.3 33.0421
16984.6 23.9216
16984.9 18.5446
16985.3 14.9675
16985.6 12.6196
16986.2 9.73439
16986.9 8.08657
16987.5 7.07679
16988.8 5.96410
16990.1 5.38976
16991.4 5.06001
16994.0 4.71148
16996.6 4.54158
16999.2 4.44623
17004.4 4.34876
17009.5 4.30292
17014.7 4.27862
17025.1 4.25986
17035.4 4.26859
17040.6 4.28818
17045.8 4.33001
17051.0 4.42562
17053.6 4.52247
17056.2 4.69864
17058.8 5.06782
17060.1 5.42696
17061.3 6.05381
17062.0 6.56638
17062.6 7.32172
17063.3 8.49994
17063.9 10.4434
17064.6 14.1212
17064.9 17.3446
17065.2 22.1905
17065.6 30.4966
17065.9 45.0807
17066.0 56.9616
17066.2 74.1602
17066.4 99.5949
17066.5 138.887
17066.8 218.685
17067.0 273.741
17067.2 218.729
17067.5 138.946
17067.7 87.2747
17067.9 58.8238
17068.2 42.1856
17068.4 31.9048
17068.6 24.9656
17068.9 20.4580
17069.3 14.8968
17069.8 11.6936
17070.3 9.76394
17071.2 7.60405
17072.1 6.48007
17073.0 5.82923
17074.0 5.41909
17074.9 5.14655
17076.8 4.81092
17078.6 4.62300
17082.3 4.42912
17086.0 4.33536
17089.7 4.28262
17097.1 4.22699
17112.0 4.18078
17126.8 4.15865
17156.4 4.13130
17186.1 4.10989
17245.4 4.07083
17275.0 4.05829
17282.4 4.06244
17289.8 4.08521
17293.6 4.12251
17297.3 4.23273
17299.1 4.38604
17301.0 4.79991
17301.9 5.33822
17302.4 5.83456
17302.8 6.66838
17303.3 8.27174
17303.5 9.62933
17303.7 11.7316
17304.0 15.2123
17304.2 21.4912
17304.3 26.8891
17304.4 34.0621
17304.6 45.6709
17304.7 61.3815
17304.8 95.9149
17305.0 119.068
17305.2 96.3082
17305.3 61.7060
17305.5 40.7018
17305.7 28.9989
17305.8 21.8471
17306.0 17.2786
17306.3 12.0975
17306.6 9.42530
17306.9 7.84340
17307.2 6.89088
17307.8 5.80977
17308.4 5.23660
17309.0 4.90633
17310.2 4.55054
17312.6 4.27395
17315.0 4.16901
17319.9 4.08749
17324.7 4.05492
17334.4 4.02555
17344.1 4.00962
17382.8 3.96799
17421.5 3.92970
17460.2 3.88828
17537.6 3.78820
17615.0 3.64955
17692.5 3.43543
17731.2 3.27409
17769.9 3.04449
17789.2 2.88825
17808.6 2.68914
17827.9 2.42647
17847.3 2.06563
17857.0 1.83050
17866.7 1.54473
17876.3 1.19475
17886.0 0.771046
17895.7 0.300510
17900.5 0.105913
17902.9 0.0529181
17905.4 0.0619389
17907.8 0.180010
17910.2 0.491445
17911.4 0.764402
17912.6 1.15397
17913.8 1.70422
17915.0 2.47877
17916.3 3.57104
17917.5 5.12095
17918.7 7.34214
17919.9 10.5671
17921.1 15.3209
17922.3 22.4367
17923.5 33.2067
17924.7 49.2939
17926.9 96.0311
17929.0 143.270
17930.1 146.585
17931.2 135.005
17933.3 98.2986
17934.9 75.3208
17936.6 59.1790
17938.2 47.8753
17939.8 39.9047
17943.1 29.6871
17946.4 23.6697
17949.6 19.7818
17952.9 17.1159
17959.4 13.7306
17966.0 11.7010
17972.5 10.3653
17985.6 8.72678
17998.6 7.76719
18011.7 7.14262
18018.2 6.90829
18024.7 6.71681
18031.3 6.60195
18032.9 6.62217
18034.5 6.74748
18035.4 6.94640
18036.2 7.48733
18036.6 8.18056
18037.0 9.85371
18037.2 11.7957
18037.4 15.6095
18037.5 19.1453
18037.6 24.9759
18037.7 35.2237
18037.8 55.9638
18037.9 84.2789
18038.0 105.306
18038.1 84.2785
18038.2 55.7039
18038.3 35.2160
18038.4 24.2285
18038.5 18.2798
18038.6 14.8012
18038.9 11.1746
18039.1 9.44473
18039.5 7.91553
18039.9 7.28878
18040.8 6.76810
18041.7 6.55813
18043.4 6.37749
18045.2 6.29109
18052.1 6.11440
18059.1 5.99481
18066.1 5.89374
18080.0 5.72514
18094.0 5.58904
18107.9 5.47811
18121.9 5.39211
18128.8 5.36372
18135.8 5.36322
18139.3 5.39628
18142.8 5.51661
18144.5 5.69091
18146.3 6.16452
18147.1 6.77909
18147.6 7.36438
18148.0 8.33937
18148.5 10.2542
18148.7 11.9600
18148.9 14.5485
18149.1 19.2363
18149.3 28.4395
18149.4 36.6572
18149.5 49.6766
18149.7 71.2896
18149.8 105.743
18149.9 189.017
18150.0 216.693
18150.1 188.147
18150.2 104.379
18150.4 62.9897
18150.5 41.9166
18150.7 29.4462
18150.8 22.6326
18150.9 18.0014
18151.1 15.1428
18151.3 11.5615
18151.6 9.59422
18151.9 8.40415
18152.4 7.11984
18152.9 6.45695
18153.5 6.08393
18154.5 5.69032
18156.7 5.39177
18158.8 5.28051
18163.1 5.19014
18167.4 5.14827
18184.5 5.06216
18201.7 5.00339
18218.8 4.95623
18236.0 4.92198
18244.6 4.91324
18253.1 4.91651
18261.7 4.94851
18266.0 4.99078
18270.3 5.07578
18274.6 5.26710
18276.7 5.45905
18278.9 5.80544
18279.9 6.09542
18281.0 6.52594
18282.1 7.20998
18283.1 8.39000
18284.2 10.6820
18284.8 12.7553
18285.3 16.0389
18285.8 21.9257
18286.4 33.3512
18286.6 43.8070
18286.9 60.5525
18287.2 88.7095
18287.4 134.601
18287.7 211.910
18288.0 263.318
18288.3 212.451
18288.6 135.287
18288.8 99.5293
18289.0 74.9261
18289.3 46.8294
18289.7 31.9998
18290.1 23.8536
18290.5 18.7296
18290.8 15.4768
18291.6 11.5895
18292.3 9.48691
18293.1 8.22548
18294.6 6.85952
18296.1 6.16558
18297.6 5.76734
18299.1 5.51726
18300.6 5.35046
18303.6 5.14490
18306.6 5.02784
18312.5 4.90270
18318.5 4.83785
18324.5 4.79765
18336.5 4.74798
18360.5 4.69078
18384.4 4.65164
18408.4 4.61974
18432.3 4.59206
18480.2 4.54495
18528.2 4.50550
18576.1 4.47169
18624.0 4.44250
18647.9 4.42987
18659.9 4.42607
18665.9 4.43339
18668.9 4.47354
18670.4 4.63084
18671.2 5.17805
18671.3 5.67307
18671.5 6.75374
18671.6 8.06162
18671.7 10.4033
18671.8 15.6795
18671.9 21.7151
18671.9 32.1417
18672.0 48.9185
18672.0 59.8206
18672.1 49.0272
18672.1 32.2786
18672.2 20.3400
18672.2 14.9347
18672.3 9.50602
18672.4 7.36270
18672.5 6.32657
18672.8 5.40271
18673.0 5.01703
18673.9 4.58790
18675.6 4.46287
18679.1 4.42711
18686.2 4.41459
18700.3 4.40585
18728.4 4.39430
18756.6 4.38617
18784.7 4.38322
18812.9 4.39207
18827.0 4.40713
18841.0 4.43945
18848.1 4.46862
18855.1 4.51451
18862.2 4.59103
18869.2 4.73032
18872.7 4.84636
18876.2 5.02082
18879.8 5.29975
18883.3 5.78517
18886.8 6.74109
18888.6 7.60876
18890.3 9.03203
18892.1 11.5956
18893.0 13.7154
18893.8 16.8733
18894.7 21.8291
18895.6 30.1049
18896.5 44.8758
18897.3 71.8098
18898.2 112.516
18899.0 139.758
18899.8 112.632
18900.7 71.9636
18901.3 51.4470
18901.9 38.0475
18902.5 29.2751
18903.1 23.3729
18904.3 16.3274
18905.5 12.5379
18906.8 10.2606
18908.0 8.81495
18910.4 7.13720
18912.8 6.24248
18915.3 5.71440
18917.7 5.37576
18920.1 5.14568
18925.0 4.86139
18929.9 4.69942
18934.7 4.59794
18939.6 4.52993
18949.3 4.44657
18959.0 4.39875
18978.5 4.34690
18997.9 4.31906
19017.4 4.30102
19056.3 4.27713
19095.2 4.26017
19134.1 4.24641
19173.0 4.23520
19192.5 4.23314
19202.2 4.24302
19207.0 4.28725
19209.5 4.45294
19210.7 5.04947
19211.0 5.62363
19211.3 7.02906
19211.5 8.69404
19211.6 12.4074
19211.7 16.5736
19211.8 23.3327
19211.8 39.7577
19211.9 55.5509
19211.9 73.1997
19212.0 114.428
19212.0 141.780
19212.1 114.108
19212.1 72.8003
19212.1 50.5046
19212.2 39.4087
19212.2 24.4286
19212.3 17.0699
19212.4 13.0326
19212.5 9.05346
19212.7 7.24961
19212.9 5.71903
19213.2 5.12199
19214.3 4.46134
19216.5 4.27942
19220.9 4.23226
19229.7 4.21917
19247.4 4.21230
19282.6 4.20301
19353.1 4.18643
19423.6 4.17172
19494.1 4.15959
19564.6 4.15266
19599.8 4.15371
19635.1 4.16208
19652.7 4.17182
19670.3 4.18877
19687.9 4.21914
19705.6 4.27753
19714.4 4.32799
19723.2 4.40576
19732.0 4.53383
19740.8 4.76529
19745.2 4.95797
19749.6 5.24697
19754.0 5.71075
19758.4 6.51835
19762.8 8.12124
19765.0 9.58192
19767.2 11.9923
19769.5 16.4002
19770.6 20.0689
19771.7 25.5868
19772.8 34.3611
19773.9 49.2888
19775.0 76.6585
19776.1 129.189
19777.0 204.638
19778.0 254.318
19779.0 204.216
19780.0 129.706
19781.1 75.8025
19782.2 48.2999
19783.4 33.5250
19784.5 24.9848
19785.6 19.5916
19786.8 16.0490
19789.0 11.7945
19791.3 9.45086
19793.6 8.03899
19798.1 6.49041
19802.7 5.70445
19807.2 5.25368
19811.8 4.97103
19816.3 4.78241
19825.4 4.55481
19834.5 4.42973
19843.6 4.35622
19852.7 4.31307
19870.8 4.28866
19879.9 4.30989
19889.0 4.37135
19898.1 4.52419
19902.6 4.68145
19907.2 4.96496
19911.7 5.54654
19914.0 6.09075
19916.3 7.01097
19918.5 8.74099
19919.7 10.2421
19920.8 12.5544
19922.0 16.4359
19923.1 23.4198
19923.7 29.2097
19924.2 37.6714
19924.8 50.3182
19925.4 68.7968
19926.2 108.179
19927.0 134.272
19927.8 108.312
19928.7 69.6031
19929.2 51.0945
19929.8 38.5652
19930.9 24.3457
19932.0 17.1423
19933.1 13.1682
19934.2 10.7353
19935.3 9.17185
19937.6 7.33244
19939.8 6.34100
19942.0 5.74687
19946.5 5.10013
19951.0 4.77329
19955.4 4.58463
19964.3 4.38477
19973.3 4.28511
19982.2 4.22726
20000.0 4.16425
20021.2 4.12612
20042.4 4.10357
20084.7 4.07649
20127.1 4.05911
20169.5 4.04574
20254.2 4.02413
20296.5 4.01451
20317.7 4.01028
20328.3 4.01069
20333.6 4.02195
20336.3 4.07216
20337.6 4.26195
20338.2 4.89945
20338.6 6.67932
20338.7 10.5892
20338.8 15.8242
20338.9 20.7222
20338.9 30.4520
20339.0 46.6425
20339.0 56.9121
20339.1 46.7891
20339.1 30.6378
20339.2 19.4490
20339.2 13.4873
20339.3 8.69916
20339.6 5.74771
20340.0 4.55080
20340.9 4.16150
20342.8 4.04853
20346.4 4.01635
20353.8 4.00620
20368.5 4.00202
20383.1 4.01223
20390.5 4.08056
20392.3 4.15688
20394.1 4.37484
20395.1 4.67452
20396.0 5.46849
20396.4 6.49021
20396.9 9.00443
20397.1 11.8978
20397.4 18.0574
20397.5 24.3851
20397.6 34.4225
20397.7 52.7540
20397.8 89.1478
20397.9 139.977
20398.0 175.735
20398.1 141.062
20398.2 90.4922
20398.3 56.3183
20398.4 38.0256
20398.5 27.5116
20398.6 21.0915
20398.8 14.1178
20399.0 10.6612
20399.2 8.64008
20399.4 7.46573
20399.8 6.14968
20400.6 5.06137
20401.4 4.63722
20403.1 4.30890
20404.7 4.18473
20407.9 4.08937
20411.2 4.05287
20424.1 4.01162
20450.0 3.99431
20501.9 3.98028
20605.6 3.95971
20709.2 3.94056
20761.1 3.93106
20787.0 3.92650
20800.0 3.92543
20806.4 3.93068
20809.7 3.95758
20811.3 4.06508
20812.1 4.45117
20812.5 5.61887
20812.7 8.37316
20812.8 12.8719
20812.9 17.7383
20812.9 26.7051
20813.0 40.2256
20813.0 49.5135
20813.1 40.3687
20813.1 26.8833
20813.2 16.6854
20813.2 11.1537
20813.4 7.19294
20813.6 5.09049
20814.1 4.28051
20815.2 4.02303
20817.3 3.94965
20821.5 3.92859
20829.8 3.92132
20846.5 3.91653
20880.0 3.90980
20946.9 3.89712
21080.7 3.87135
21214.5 3.84509
21247.9 3.83955
21281.3 3.83772
21298.1 3.84250
21314.8 3.86461
21323.2 3.90010
21327.3 3.93701
21331.5 4.00554
21335.7 4.15205
21337.8 4.29586
21339.9 4.55134
21342.0 5.06888
21343.0 5.55469
21344.1 6.36629
21345.1 7.90412
21345.6 9.21719
21346.1 11.2500
21346.7 14.6985
21347.2 20.8361
21347.5 25.8545
21347.7 33.1388
21348.0 43.9390
21348.2 59.9287
21348.6 94.4584
21349.0 116.981
21349.4 94.1370
21349.8 60.7072
21350.2 37.9024
21350.6 25.7933
21351.0 18.7803
21351.4 14.6597
21351.8 11.9526
21352.2 10.1723
21353.0 7.99500
21353.8 6.75899
21354.6 6.00906
21356.2 5.16831
21357.8 4.73579
21359.4 4.48405
21362.7 4.21690
21365.9 4.08454
21369.1 4.00941
21375.6 3.93062
21388.4 3.86912
21401.3 3.84480
21427.1 3.82541
21440.0 3.82491
21446.5 3.83741
21449.7 3.88250
21451.3 4.03355
21452.1 4.52651
21452.5 5.92179
21452.7 9.03531
21452.8 13.8788
21452.8 18.9358
21452.9 29.4687
21453.0 45.1413
21453.0 54.6154
21453.1 44.6104
21453.1 28.7945
21453.2 17.0912
21453.2 11.4273
21453.4 7.09889
21453.7 4.94522
21454.2 4.12433
21455.3 3.88395
21457.5 3.82309
21461.8 3.81009
21470.6 3.80799
21488.0 3.80961
21505.5 3.81658
21522.9 3.83472
21540.4 3.88122
21549.1 3.93101
21557.8 4.02436
21562.2 4.10411
21566.5 4.22592
21570.9 4.42481
21575.3 4.78050
21577.5 5.07487
21579.6 5.51165
21581.8 6.20207
21584.0 7.38521
21586.2 9.66097
21587.3 11.6755
21588.4 14.8924
21589.4 20.4599
21590.5 31.2088
21591.1 40.7328
21591.6 55.2522
21592.2 79.1619
21592.7 117.532
21593.4 186.780
21594.0 232.276
21594.7 186.197
21595.3 118.232
21595.7 86.2364
21596.1 64.8673
21597.0 40.0030
21597.8 27.3085
21598.7 20.1616
21599.5 15.7953
21600.3 12.9504
21602.0 9.60766
21603.7 7.79228
21605.4 6.71129
21608.8 5.53508
21612.1 4.94133
21615.5 4.60174
21618.8 4.38852
21622.2 4.24563
21628.9 4.07108
21635.7 3.97205
21642.4 3.90967
21649.1 3.86744
21662.6 3.81412
21676.0 3.78155
21689.5 3.75875
21696.2 3.74942
21699.6 3.74596
21701.2 3.74937
21702.1 3.77234
21702.5 3.85449
21702.7 4.07306
21702.8 4.51358
21702.9 6.22396
21703.0 8.81493
21703.1 6.34710
21703.3 4.21656
21703.5 3.93124
21703.8 3.80508
21704.6 3.76107
21706.0 3.74567
21709.0 3.73796
21714.9 3.73026
21726.6 3.71837
21750.2 3.69783
21797.3 3.65906
21844.4 3.61525
21891.5 3.55776
21938.6 3.47104
21962.1 3.40578
21985.7 3.31187
22009.2 3.16231
22021.0 3.04726
22032.8 2.88123
22044.6 2.61929
22050.5 2.42215
22056.3 2.14638
22059.3 1.96236
22062.2 1.73463
22065.2 1.44553
22068.1 1.07612
22074.0 0.147381
22075.5 0.157748
22076.2 0.412938
22077.0 1.06873
22077.3 1.68431
22077.7 2.62124
22078.1 4.05385
22078.4 6.19657
22078.8 9.64256
22079.2 15.1756
22079.5 24.2170
22079.9 38.4965
22080.5 75.8411
22081.0 113.468
22081.3 116.570
22081.6 107.680
22082.1 79.1880
22082.8 53.5581
22083.4 38.5936
22084.1 29.6941
22084.7 24.0521
22085.4 20.2504
22086.0 17.5554
22087.3 14.0652
22088.6 11.9062
22089.9 10.4744
22092.5 8.69137
22095.1 7.63677
22097.7 6.94880
22100.3 6.46464
22102.9 6.10609
22108.0 5.61082
22113.2 5.28670
22123.6 4.88813
22134.0 4.65283
22144.3 4.49828
22165.1 4.31117
22175.4 4.25351
22185.8 4.21340
22196.2 4.19154
22206.5 4.19562
22216.9 4.25295
22222.1 4.32772
22227.3 4.47552
22229.9 4.60416
22232.5 4.80109
22235.0 5.12182
22237.6 5.69018
22240.2 6.83351
22241.5 7.89717
22242.8 9.66339
22244.1 12.9668
22244.8 15.7888
22245.4 20.0480
22246.1 27.1171
22246.7 39.6867
22247.4 64.2999
22247.7 85.0228
22248.0 114.933
22248.5 182.733
22249.0 227.012
22249.5 181.568
22250.0 115.255
22250.4 83.0443
22250.7 61.4886
22251.1 47.0679
22251.4 37.1952
22252.1 25.1935
22252.8 18.5799
22253.5 14.5979
22254.2 12.0300
22255.6 9.04301
22257.0 7.44322
22258.4 6.48905
22261.2 5.45773
22264.0 4.93593
22266.8 4.63448
22269.6 4.44254
22272.4 4.31121
22278.0 4.14058
22283.6 4.03123
22289.2 4.00275
22290.6 4.07949
22292.0 4.39087
22292.7 4.87642
22293.4 6.25216
22293.7 8.01775
22293.9 9.67437
22294.1 12.2038
22294.3 16.8923
22294.4 25.4379
22294.5 33.2904
22294.6 43.8509
22294.7 62.4658
22294.8 90.8850
22294.9 147.509
22295.0 186.398
22295.1 154.675
22295.2 99.5470
22295.3 71.0809
22295.4 53.3446
22295.5 41.4406
22295.6 33.2530
22295.7 23.2175
22295.9 17.6135
22296.0 14.1912
22296.2 11.9522
22296.5 9.29403
22296.8 7.82915
22297.2 6.93117
22297.8 5.92229
22298.4 5.38345
22299.1 5.06546
22300.4 4.70984
22302.9 4.40251
22305.5 4.26724
22310.6 4.13993
22315.8 4.07661
22326.0 4.00836
22336.3 3.96891
22356.8 3.92014
22377.4 3.88805
22418.4 3.84345
22459.5 3.81061
22500.6 3.78350
22541.6 3.75973
22582.7 3.73864
22603.3 3.73273
22613.5 3.74925
22618.7 3.83738
22619.9 3.92989
22621.2 4.18135
22621.9 4.50870
22622.5 5.33567
22622.8 6.31942
22623.1 8.51286
22623.3 10.7636
22623.5 14.9180
22623.6 23.5404
22623.7 31.3761
22623.8 43.3164
22623.9 67.1679
22624.0 83.1810
22624.1 67.5230
22624.2 43.5811
22624.3 30.6239
22624.4 23.1564
22624.6 14.5357
22624.7 10.4849
22624.9 8.41723
22625.2 6.30932
22625.6 5.35594
22626.2 4.54457
22626.9 4.21734
22628.2 3.95813
22629.5 3.86012
22634.8 3.75536
22645.4 3.72126
22666.6 3.70276
22708.9 3.68059
22793.6 3.64131
22878.2 3.60218
22920.6 3.58203
22941.8 3.57176
22952.3 3.56674
22957.6 3.56515
22960.3 3.56836
22961.6 3.58549
22962.3 3.64772
22962.6 3.83413
22962.8 4.28563
22962.9 6.95943
22963.0 10.4222
22963.1 6.99773
22963.2 4.36492
22963.4 3.89211
22963.7 3.66923
22964.3 3.59309
22965.5 3.56941
22968.0 3.56159
22972.9 3.55725
22982.6 3.55176
23002.2 3.54158
23041.3 3.52093
23119.5 3.47688
23197.7 3.42792
23236.8 3.40103
23256.3 3.38706
23266.1 3.38177
23271.0 3.38909
23273.5 3.43564
23274.7 3.62123
23275.3 4.24757
23275.6 6.02536
23275.7 9.50836
23275.8 14.6103
23275.9 26.5683
23276.0 40.8117
23276.0 49.8959
23276.1 41.0952
23276.1 26.7011
23276.2 17.0737
23276.2 12.4658
23276.3 8.06504
23276.5 5.18102
23276.9 3.95786
23277.8 3.54619
23279.5 3.42195
23282.8 3.38387
23289.5 3.36819
23303.0 3.35434
23329.8 3.33134
23383.6 3.28355
23491.1 3.16986
23598.5 3.01945
23706.0 2.80757
23759.7 2.66429
23813.5 2.48226
23867.2 2.24297
23921.0 1.91493
23947.8 1.70145
23974.7 1.44199
24001.6 1.12376
24028.4 0.736027
24055.3 0.297326
24068.7 0.103816
24075.5 0.0404716
24082.2 0.0249866
24088.9 0.0941298
24092.3 0.179218
24095.6 0.313442
24099.0 0.513793
24102.3 0.803832
24105.7 1.21667
24109.0 1.79745
24112.4 2.61778
24115.8 3.77665
24119.1 5.42434
24122.5 7.78051
24125.8 11.2079
24129.2 16.2362
24132.6 23.6648
24135.9 34.5479
24142.5 69.1851
24149.0 105.789
24152.3 109.257
24155.6 101.459
24162.1 74.8482
24169.3 52.1431
24176.4 38.3527
24183.6 29.9000
24190.8 24.4339
24197.9 20.6899
24205.1 18.0073
24219.4 14.4768
24233.8 12.2895
24248.1 10.8223
24255.3 10.2617
24262.4 9.79507
24266.0 9.60323
24269.6 9.47470
24271.4 9.48078
24273.2 9.67035
24274.1 10.0031
24275.0 10.9347
24275.4 12.1359
24275.9 15.0252
24276.1 18.3372
24276.3 24.7685
24276.4 30.6282
24276.6 40.0967
24276.7 56.2308
24276.8 84.3802
24276.9 131.981
24277.0 160.425
24277.1 128.280
24277.2 85.0128
24277.3 56.8064
24277.5 40.5850
24277.6 31.0356
24277.7 25.5450
24277.9 18.9864
24278.1 15.6256
24278.5 12.4790
24278.9 11.1025
24279.8 9.93483
24280.6 9.45989
24282.3 9.04474
24284.0 8.84570
24287.4 8.61108
24290.7 8.44464
24297.5 8.17599
24304.2 7.94818
24317.7 7.56295
24331.2 7.24452
24358.2 6.74520
24385.2 6.37081
24439.1 5.84627
24493.1 5.49573
24547.0 5.24418
24601.0 5.05424
24655.0 4.90554
24681.9 4.84332
24695.4 4.81603
24702.2 4.80680
24705.5 4.81515
24707.2 4.86449
24708.1 5.03942
24708.5 5.56845
24708.7 6.84028
24708.8 9.18261
24708.9 17.2656
24709.0 29.5453
24709.1 17.1115
24709.2 9.86706
24709.3 7.50188
24709.4 5.89144
24709.8 5.13524
24710.4 4.88106
24711.7 4.80543
24714.3 4.78187
24719.5 4.76829
24729.9 4.75041
24750.7 4.72782
24761.2 4.73338
24771.6 4.78665
24776.8 4.87875
24779.4 4.97512
24782.0 5.15332
24784.6 5.53231
24785.9 5.89870
24787.2 6.54040
24788.5 7.81207
24789.1 8.97144
24789.8 10.8793
24790.4 14.3276
24790.8 17.2397
24791.1 21.4546
24791.4 28.3007
24791.7 39.4190
24792.1 60.0101
24792.4 97.8355
24792.7 154.792
24793.0 192.152
24793.3 155.748
24793.6 99.0402
24793.8 70.4527
24794.1 51.3791
24794.3 39.0264
24794.5 30.7891
24795.0 21.0470
24795.4 15.9061
24795.9 12.7803
24796.3 10.8259
24797.3 8.53931
24798.2 7.31250
24799.1 6.59304
24800.9 5.81479
24802.7 5.42205
24804.6 5.19754
24808.2 4.95947
24811.9 4.84065
24815.5 4.77125
24822.8 4.69422
24837.4 4.62297
24852.0 4.58398
24881.2 4.53163
24910.4 4.49112
24968.8 4.42457
25027.2 4.37130
25056.4 4.35023
25085.6 4.33476
25114.8 4.32873
25144.0 4.34149
25158.6 4.36186
25173.2 4.40014
25187.8 4.47122
25202.4 4.60927
25209.7 4.72756
25217.0 4.90748
25224.3 5.19664
25231.6 5.69879
25238.9 6.67545
25242.5 7.54623
25246.2 8.94411
25249.8 11.3780
25253.5 16.1134
25255.3 20.3065
25257.1 26.8259
25258.9 37.4351
25260.8 54.9244
25262.9 85.6253
25265.0 106.276
25267.1 86.0959
25269.2 55.5244
25271.4 35.5835
25273.6 24.5066
25275.7 18.1611
25277.9 14.2980
25280.0 11.8054
25282.2 10.1154
25286.5 8.05196
25290.8 6.88787
25295.2 6.17024
25303.8 5.36828
25312.4 4.95101
25321.1 4.70501
25329.7 4.54605
25338.3 4.43610
25355.6 4.29447
25372.8 4.20613
25390.1 4.14367
25407.4 4.09514
25441.9 4.01838
25476.4 3.95248
25511.0 3.88775
25545.5 3.81822
25614.6 3.64078
25649.1 3.51405
25683.6 3.33674
25718.1 3.06278
25735.4 2.85798
25752.7 2.57095
25761.3 2.37899
25769.9 2.13929
25778.6 1.83246
25787.2 1.43030
25795.8 0.897991
25804.5 0.264398
25806.6 0.135026
25808.8 0.0688102
25811.0 0.142578
25813.1 0.520215
25814.2 0.929131
25815.3 1.59095
25816.3 2.64822
25817.4 4.33824
25818.5 7.06646
25819.6 11.5383
25820.7 18.9744
25821.7 31.1858
25823.4 63.5912
25825.0 98.3836
25825.8 102.288
25826.6 95.5479
25828.3 71.3653
25829.6 54.4572
25831.0 42.6988
25832.4 34.6584
25833.7 29.0289
25836.4 21.9212
25839.1 17.7703
25841.9 15.0923
25844.6 13.2502
25850.0 10.9125
25855.5 9.50199
25860.9 8.56839
25866.3 7.90538
25871.8 7.41294
25882.6 6.72986
25893.5 6.27978
25904.4 5.96109
25915.2 5.72357
25937.0 5.39286
25958.7 5.17304
26002.2 4.89749
26045.7 4.72995
26089.1 4.61600
26176.1 4.46801
26263.0 4.37334
26350.0 4.30552
26436.9 4.25320
26480.4 4.23103
26502.2 4.22115
26513.0 4.21832
26518.5 4.22501
26521.2 4.26013
26522.5 4.39515
26523.2 4.85551
26523.6 6.17876
26523.7 9.04858
26523.8 12.8980
26523.9 23.9035
26524.0 35.7790
26524.0 43.4754
26524.1 35.8367
26524.1 23.7830
26524.2 12.2817
26524.3 8.26565
26524.5 5.77871
26524.9 4.72264
26525.7 4.35714
26527.3 4.24954
26530.4 4.21885
26536.7 4.20817
26549.3 4.20059
26574.6 4.18950
26625.0 4.16968
26675.4 4.15167
26700.7 4.14399
26713.3 4.14372
26719.6 4.15763
26722.7 4.21885
26724.3 4.45009
26725.1 5.24043
26725.5 7.47676
26725.7 12.5098
26725.8 20.1358
26725.8 27.7930
26725.9 39.2290
26725.9 58.9876
26726.0 74.0857
26726.1 59.0434
26726.1 38.9915
26726.2 24.3161
26726.3 16.2891
26726.4 9.97548
26726.7 6.25119
26727.2 4.78229
26728.3 4.31473
26730.4 4.18176
26734.7 4.14466
26743.3 4.13247
26760.5 4.12456
26795.0 4.11341
26863.8 4.09349
27001.5 4.05822
27070.4 4.04309
27139.2 4.03210
27173.7 4.03167
27208.1 4.04553
27225.3 4.07210
27233.9 4.10067
27242.5 4.15438
27251.1 4.27069
27255.4 4.38589
27259.7 4.59287
27261.9 4.76503
27264.0 5.02176
27266.2 5.43049
27268.3 6.13831
27270.5 7.52277
27271.6 8.77793
27272.6 10.8024
27273.7 14.4442
27274.2 17.4291
27274.8 21.7362
27275.3 28.5070
27275.9 39.5991
27276.4 58.8563
27276.9 92.3765
27277.5 145.296
27278.0 180.589
27278.5 145.594
27279.1 92.7549
27279.7 56.9177
27280.2 37.8653
27280.8 26.9755
27281.4 20.5582
27282.0 16.3889
27282.5 13.6350
27283.7 10.2636
27284.8 8.38731
27286.0 7.24064
27288.3 5.97283
27290.6 5.32543
27292.9 4.95105
27295.2 4.71518
27297.5 4.55695
27302.1 4.36421
27306.7 4.25546
27315.9 4.14302
27325.1 4.08832
27334.3 4.05722
27352.7 4.02418
27389.5 3.99724
27426.2 3.98790
27463.0 3.99193
27481.4 4.00353
27499.8 4.03043
27518.2 4.09568
27527.4 4.16375
27536.6 4.28907
27541.2 4.39429
27545.8 4.55299
27550.4 4.80695
27555.0 5.24637
27559.6 6.10449
27561.9 6.87243
27564.2 8.11023
27566.5 10.2776
27568.8 14.5293
27569.9 18.3118
27571.1 24.2724
27572.2 34.0846
27573.4 50.3012
27574.7 78.5800
27576.0 97.7968
27577.3 79.4272
27578.6 51.3668
27579.7 35.5325
27580.8 25.7712
27581.9 19.6894
27583.0 15.7796
27585.2 11.2520
27587.4 8.88191
27589.6 7.49496
27591.8 6.62398
27596.2 5.62890
27600.6 5.10268
27604.9 4.79183
27609.3 4.59215
27613.7 4.45597
27622.5 4.28652
27631.2 4.18846
27640.0 4.12608
27648.8 4.08362
27666.3 4.03032
27683.8 3.99906
27701.4 3.98035
27710.1 3.97827
27714.5 3.99244
27716.7 4.04960
27717.8 4.24790
27718.4 4.87232
27718.6 6.44913
27718.8 9.56493
27718.8 13.6214
27718.9 22.3775
27719.0 33.4415
27719.0 40.5304
27719.1 33.1859
27719.1 22.0565
27719.2 12.5611
27719.3 8.96881
27719.4 6.17724
27719.7 4.70385
27720.3 4.17406
27721.4 4.01424
27723.7 3.97174
27728.3 3.96074
27737.4 3.95764
27755.7 3.97058
27764.9 4.00114
27774.0 4.10046
27778.6 4.24404
27780.9 4.38768
27783.2 4.64548
27785.5 5.18045
27786.6 5.69280
27787.8 6.56795
27788.9 8.27838
27789.5 9.78889
27790.1 12.2081
27790.6 16.4094
27791.2 24.5568
27791.5 31.8794
27791.8 42.8977
27792.1 61.4491
27792.3 91.2932
27792.7 144.775
27793.0 179.849
27793.3 145.807
27793.7 92.4629
27794.0 62.6751
27794.2 44.4869
27794.5 33.1579
27794.8 25.8225
27795.4 17.2917
27795.9 12.9392
27796.5 10.3683
27797.1 8.78091
27798.2 6.95779
27799.3 6.00187
27800.4 5.43899
27802.7 4.83579
27805.0 4.53530
27807.2 4.36348
27811.7 4.18351
27816.3 4.09459
27820.8 4.04367
27829.8 3.98905
27847.9 3.94313
27856.9 3.93074
27861.4 3.92654
27863.7 3.93129
27864.8 3.96455
27865.4 4.09226
27865.6 4.47100
27865.8 5.28666
27865.9 9.61466
27866.0 15.5751
27866.1 9.88827
27866.2 5.46718
27866.4 4.59215
27866.7 4.16300
27867.2 4.00041
27868.4 3.94716
27870.6 3.92873
27875.2 3.91980
27884.3 3.91184
27902.5 3.90139
27938.9 3.88627
28011.7 3.86314
28157.4 3.82306
28303.0 3.78199
28375.9 3.75901
28412.3 3.74649
28430.5 3.74536
28439.6 3.77926
28441.9 3.82217
28444.1 3.94914
28445.3 4.12535
28446.4 4.59750
28447.0 5.19178
28447.6 6.60878
28447.9 8.20939
28448.1 11.3122
28448.3 14.1118
28448.4 18.5890
28448.6 26.1148
28448.7 39.9058
28448.9 62.3407
28449.0 77.3197
28449.2 63.3313
28449.3 41.1519
28449.5 26.5763
28449.6 18.4166
28449.8 13.8078
28449.9 11.1677
28450.3 8.10847
28450.6 6.64784
28451.2 5.29072
28451.8 4.71782
28453.1 4.23672
28454.3 4.04714
28456.8 3.89584
28459.3 3.83662
28469.4 3.76841
28489.4 3.74045
28529.5 3.71942
28569.7 3.70641
28589.7 3.71370
28599.7 3.77118
28602.3 3.83287
28604.8 4.00454
28606.0 4.23749
28607.3 4.85427
28607.9 5.64968
28608.5 7.58273
28608.8 9.91660
28609.1 14.8544
28609.3 19.9658
28609.5 28.4851
28609.5 35.7933
28609.6 46.4033
28609.7 62.1131
28609.8 82.8719
28609.9 129.687
28610.0 161.962
28610.1 129.785
28610.2 82.9940
28610.3 62.2313
28610.4 48.1537
28610.5 30.1669
28610.7 20.9094
28610.8 15.6802
28611.0 12.4813
28611.1 10.3963
28611.4 8.00576
28612.0 5.85376
28612.6 4.99323
28613.8 4.30630
28615.0 4.04768
28617.4 3.85055
28619.7 3.77830
28629.2 3.70285
28648.2 3.67607
28686.2 3.65459
28762.2 3.61828
28800.2 3.60078
28838.1 3.58832
28857.1 3.59092
28876.1 3.62106
28885.6 3.67478
28890.4 3.73175
28895.1 3.83776
28899.9 4.06479
28902.2 4.28769
28904.6 4.68076
28905.8 5.00238
28907.0 5.47705
28908.2 6.21801
28909.4 7.45105
28910.5 9.76834
28911.1 11.7357
28911.7 14.7623
28912.3 19.8380
28912.9 28.7756
28913.5 46.3686
28913.8 61.8646
28914.1 84.5509
28914.6 133.487
28915.0 166.245
28915.5 134.077
28915.9 85.2025
28916.3 57.2593
28916.7 40.5478
28917.1 30.1627
28917.4 23.4495
28918.2 15.6803
28919.0 11.6999
28919.7 9.36160
28920.5 7.91208
28922.0 6.26125
28923.5 5.38964
28925.1 4.88005
28928.1 4.33211
28931.2 4.05932
28934.2 3.90324
28940.3 3.73886
28946.4 3.65680
28952.5 3.60860
28964.7 3.55407
28989.1 3.49984
29013.5 3.46536
29111.1 3.34641
29159.9 3.27712
29208.7 3.19536
29257.5 3.10624
29269.7 3.09380
29281.9 3.11584
29288.0 3.17740
29291.1 3.24814
29294.1 3.38462
29297.2 3.68222
29298.7 3.97662
29300.2 4.49405
29301.7 5.53722
29302.5 6.49001
29303.3 8.06598
29304.0 10.9847
29304.4 13.3997
29304.8 17.0296
29305.2 22.7923
29305.6 32.5676
29305.9 50.4101
29306.3 85.3545
29306.7 135.655
29307.0 169.318
29307.3 136.899
29307.7 86.9150
29308.0 58.0759
29308.3 40.9293
29308.6 30.0023
29308.9 23.2290
29309.5 15.3566
29310.0 11.3339
29310.6 8.95614
29311.2 7.46444
29312.4 5.78150
29313.6 4.88886
29314.7 4.36586
29317.1 3.79988
29319.4 3.51212
29321.8 3.34471
29326.5 3.16088
29331.2 3.06191
29335.8 2.99820
29345.2 2.91379
29364.0 2.79807
29382.8 2.69491
29401.5 2.58580
29420.3 2.46323
29457.8 2.15328
29495.4 1.70175
29514.2 1.39068
29532.9 0.998349
29551.7 0.517341
29561.1 0.264743
29570.5 0.0658402
29575.2 0.0317201
29579.9 0.0974915
29582.2 0.193539
29584.5 0.353021
29586.9 0.602681
29589.2 0.976770
29591.6 1.53204
29593.9 2.34718
29596.3 3.54336
29598.6 5.29790
29601.0 7.91455
29603.3 11.8180
29605.7 17.7253
29608.0 26.5385
29612.5 54.7566
29617.0 85.7778
29619.3 89.5748
29621.5 84.0454
29626.0 63.1503
29629.8 48.0964
29633.7 37.7053
29637.5 30.6171
29641.3 25.6859
29649.0 19.4708
29656.7 15.8402
29664.4 13.5134
29668.2 12.6468
29672.0 11.9250
29675.9 11.3226
29679.7 10.8506
29681.6 10.6955
29683.5 10.6935
29684.5 10.8568
29685.5 11.3665
29685.9 11.9552
29686.4 13.1047
29686.9 15.6036
29687.1 17.9460
29687.4 21.4438
29687.7 28.4601
29688.0 33.2698
29688.3 28.6507
29688.6 21.6348
29689.0 17.1518
29689.3 14.5346
29689.9 12.0672
29690.6 11.0138
29691.2 10.4623
29692.5 9.89949
29693.7 9.60106
29696.3 9.23877
29698.9 8.98813
29704.0 8.59943
29709.1 8.28333
29714.2 8.01175
29719.3 7.77339
29729.5 7.37241
29739.7 7.04647
29749.9 6.77647
29770.4 6.35431
29790.8 6.03961
29811.2 5.79604
29852.1 5.44365
29892.9 5.20091
29933.8 5.02341
30015.5 4.78081
30097.2 4.62284
30138.1 4.56346
30179.0 4.51452
30219.8 4.47722
30240.3 4.46545
30260.7 4.46315
30281.1 4.48334
30291.3 4.51415
30301.5 4.57899
30306.7 4.63722
30311.8 4.72869
30316.9 4.88106
30322.0 5.15694
30324.5 5.38668
30327.1 5.72891
30329.6 6.27358
30332.2 7.20432
30334.8 8.99977
30336.0 10.5860
30337.3 13.0853
30338.6 17.4081
30339.9 25.5642
30340.5 32.6473
30341.1 43.4842
30341.8 60.6483
30342.4 87.5089
30343.2 138.145
30344.0 172.431
30344.8 139.200
30345.6 88.8318
30346.5 55.0274
30347.3 36.8889
30348.1 26.5441
30349.0 20.3937
30349.8 16.4094
30350.7 13.7561
30352.4 10.5081
30354.1 8.69257
30355.7 7.57855
30359.1 6.33996
30362.5 5.70239
30365.9 5.33060
30369.3 5.09427
30372.6 4.93421
30379.4 4.73627
30386.2 4.62184
30399.7 4.49845
30413.2 4.43399
30426.7 4.39404
30453.8 4.34516
30480.8 4.31402
30507.8 4.29064
30534.9 4.27138
30548.4 4.26268
30555.2 4.25853
30558.5 4.25733
30560.2 4.26133
30561.1 4.28197
30561.5 4.35354
30561.7 4.54219
30561.9 6.36464
30562.0 8.56603
30562.1 6.45553
30562.3 4.65756
30562.5 4.41485
30562.8 4.30804
30563.6 4.27150
30565.0 4.25912
30567.9 4.25376
30573.8 4.24924
30585.5 4.24246
30608.8 4.23039
30655.5 4.20883
30749.0 4.17210
30842.4 4.14099
30935.9 4.11372
31029.3 4.08924
31122.8 4.06684
31216.2 4.04603
31262.9 4.03747
31286.3 4.04210
31298.0 4.08507
31303.8 4.27009
31305.3 4.45572
31306.7 4.94914
31307.5 5.57181
31308.2 7.07706
31308.6 8.80673
31308.9 12.2994
31309.1 15.8144
31309.3 21.4726
31309.5 31.6612
31309.7 52.1384
31309.8 80.4270
31310.0 100.928
31310.2 80.9768
31310.3 52.8153
31310.5 32.2747
31310.7 21.5868
31310.9 15.7920
31311.1 12.3970
31311.5 8.84857
31311.8 7.18298
31312.6 5.66974
31313.3 5.03612
31314.9 4.52219
31316.4 4.32442
31319.4 4.17098
31322.4 4.11287
31334.4 4.05003
31358.5 4.02743
31406.6 4.01242
31454.8 4.00185
31478.8 3.99695
31490.9 3.99471
31496.9 3.99456
31499.9 3.99893
31501.4 4.01889
31502.2 4.09234
31502.5 4.32812
31502.7 4.92166
31502.8 5.87827
31502.9 9.03635
31503.0 14.1460
31503.1 9.10193
31503.2 5.49762
31503.3 4.66616
31503.6 4.22485
31504.1 4.06292
31505.1 4.01272
31507.1 3.99773
31511.0 3.99274
31519.0 3.98994
31534.8 3.98649
31566.5 3.98035
31630.0 3.96851
31693.5 3.95687
31725.2 3.95109
31741.1 3.94830
31749.0 3.94735
31753.0 3.94872
31754.9 3.95668
31755.9 3.98707
31756.4 4.08969
31756.7 4.37569
31756.8 4.92255
31756.9 7.42384
31757.0 10.9236
31757.1 7.44231
31757.2 4.79099
31757.4 4.28219
31757.7 4.05819
31758.3 3.97797
31759.4 3.95397
31761.8 3.94695
31766.5 3.94429
31775.9 3.94207
31794.8 3.93848
31832.4 3.93154
31907.8 3.91766
32058.5 3.89001
32133.9 3.87779
32209.2 3.87306
32246.9 3.88251
32265.8 3.89691
32284.6 3.92760
32303.4 3.99941
32312.9 4.07335
32322.3 4.20915
32327.0 4.32311
32331.7 4.49542
32336.4 4.77275
32341.1 5.25928
32345.8 6.22768
32348.2 7.11808
32350.5 8.58726
32352.9 11.2844
32354.1 13.5502
32355.3 16.9418
32356.4 22.4104
32357.6 31.8061
32358.8 49.2764
32360.0 83.0440
32361.0 130.909
32362.0 163.052
32363.0 131.404
32364.0 83.6709
32365.0 53.4832
32366.0 36.3716
32367.0 26.4126
32368.0 20.3306
32369.0 16.3276
32370.0 13.6226
32372.0 10.2731
32374.0 8.37918
32376.0 7.20894
32380.0 5.90105
32384.0 5.22460
32387.9 4.83151
32391.9 4.58215
32395.9 4.41385
32403.9 4.20694
32411.8 4.08894
32419.8 4.01451
32427.8 3.96420
32443.7 3.90114
32459.6 3.86324
32491.5 3.81824
32523.3 3.78957
32555.2 3.76695
32587.1 3.74662
32603.0 3.73692
32610.9 3.73306
32614.9 3.73554
32616.9 3.75443
32617.9 3.82899
32618.4 4.07613
32618.7 4.73732
32618.8 5.92237
32618.9 10.4307
32619.0 17.1955
32619.1 10.4917
32619.2 6.35058
32619.3 5.03944
32619.5 4.21642
32619.9 3.88383
32620.8 3.77150
32622.4 3.73780
32625.7 3.72656
32632.4 3.71979
32645.6 3.71061
32672.1 3.69307
32725.1 3.65585
32778.2 3.61986
32791.4 3.61756
32804.7 3.63480
32811.3 3.67114
32817.9 3.78597
32821.2 3.94782
32822.9 4.10606
32824.6 4.38230
32826.2 4.93341
32827.0 5.43575
32827.9 6.24793
32828.7 7.72074
32829.1 8.95082
32829.5 10.7294
32829.9 13.5665
32830.4 18.1302
32830.8 26.0641
32831.2 40.6487
32831.6 63.3378
32832.0 78.6800
32832.4 64.0748
32832.8 41.5723
32833.1 31.2319
32833.4 24.0671
32833.9 15.7450
32834.4 11.5046
32835.0 9.11912
32835.5 7.66136
32836.1 6.71065
32837.1 5.59124
32838.2 4.98377
32839.3 4.61787
32841.5 4.21883
32843.6 4.01520
32845.8 3.89828
32850.1 3.77592
32858.7 3.69189
32867.3 3.68969
32876.0 3.76257
32880.3 3.85479
32884.6 4.03398
32888.9 4.42297
32891.1 4.80247
32893.2 5.46247
32895.4 6.76485
32896.4 7.93893
32897.5 9.82174
32898.6 13.1706
32899.7 19.8249
32900.2 25.8238
32900.8 35.4032
32901.3 51.4478
32901.8 78.1577
32902.4 123.489
32903.0 154.220
32903.6 124.892
32904.2 79.9161
32904.6 59.3600
32904.9 45.1192
32905.7 28.4036
32906.5 19.7951
32907.2 14.9681
32908.0 11.9563
32908.7 10.0082
32910.2 7.68393
32911.7 6.41583
32913.3 5.64875
32916.3 4.80461
32919.3 4.37089
32922.3 4.11798
32928.4 3.84378
32934.4 3.70098
32940.5 3.61346
32952.5 3.50703
32976.7 3.38190
32988.8 3.33045
32994.9 3.30464
32997.9 3.29471
32999.4 3.31012
33000.2 3.40465
33000.5 3.73483
33000.7 4.57222
33000.8 5.89442
33000.9 10.6677
33001.0 18.5487
33001.1 11.1616
33001.2 6.27587
33001.3 4.76575
33001.5 3.86847
33001.9 3.48413
33002.7 3.34670
33004.3 3.29522
33007.4 3.26659
33013.7 3.23378
33026.4 3.17400
33051.7 3.03872
33077.0 2.86295
33102.3 2.61709
33127.6 2.24383
33140.2 1.97384
33152.8 1.61254
33165.5 1.11411
33171.8 0.798847
33178.1 0.445511
33184.5 0.117613
33187.6 0.0397642
33190.8 0.145851
33192.4 0.340759
33193.9 0.706579
33195.5 1.34846
33197.1 2.44606
33198.7 4.31533
33200.3 7.52466
33201.8 13.0977
33203.4 22.7580
33204.6 33.6123
33205.7 47.8794
33208.0 76.1640
33209.2 80.0429
33210.3 75.5354
33212.6 57.3170
33215.2 40.5891
33217.7 30.3231
33220.3 23.9992
33222.9 19.8864
33225.5 17.0610
33228.1 15.0274
33233.2 12.3331
33238.4 10.6519
33243.5 9.51379
33253.9 8.08387
33264.2 7.22869
33274.5 6.66248
33295.1 5.96196
33315.8 5.54626
33336.4 5.27149
33377.7 4.93099
33419.0 4.72860
33460.2 4.59609
33480.9 4.54728
33501.5 4.50959
33522.2 4.49386
33532.5 4.53608
33537.6 4.70992
33538.9 4.87356
33540.2 5.29664
33540.9 5.83378
33541.5 7.13713
33541.8 8.65724
33542.1 12.0020
33542.3 15.4086
33542.5 21.6784
33542.6 34.7199
33542.7 46.6622
33542.8 67.0742
33542.9 102.695
33543.0 127.994
33543.1 101.132
33543.2 65.1587
33543.3 44.8549
33543.4 31.9486
33543.5 23.9994
33543.6 19.3721
33543.7 13.3521
33543.9 10.4084
33544.3 7.54185
33544.6 6.30366
33545.3 5.29635
33546.0 4.91481
33547.4 4.62646
33548.8 4.52588
33554.4 4.43315
33565.5 4.41539
33587.8 4.44997
33598.9 4.52782
33604.5 4.61250
33610.1 4.77099
33615.6 5.10682
33618.4 5.43098
33621.2 5.99044
33624.0 7.08082
33625.4 8.04844
33626.8 9.59790
33628.2 12.3108
33629.6 17.5298
33630.3 22.1447
33631.0 29.2050
33631.7 40.7713
33632.3 59.3829
33633.2 93.0443
33634.0 115.961
33634.8 94.1001
33635.7 60.7035
33636.2 44.4368
33636.8 33.6999
33637.4 26.4691
33638.0 21.4899
33639.1 15.3952
33640.2 12.0099
33641.4 9.94411
33642.5 8.61834
33644.8 7.06448
33647.1 6.22157
33649.4 5.71729
33651.7 5.38992
33653.9 5.16492
33658.5 4.88252
33663.1 4.71811
33672.2 4.54050
33681.3 4.44900
33690.5 4.39387
33708.7 4.32980
33745.3 4.26579
33781.8 4.22876
33854.8 4.17978
33891.4 4.16119
33909.6 4.15328
33918.8 4.15250
33923.3 4.16627
33925.6 4.23076
33926.7 4.47340
33927.3 5.25602
33927.6 7.34177
33927.7 11.0692
33927.8 15.5695
33927.9 26.0606
33928.0 48.0769
33928.1 26.1623
33928.2 14.9741
33928.3 10.4482
33928.4 6.95776
33928.8 5.12220
33929.4 4.44342
33930.7 4.23204
33933.4 4.16938
33938.6 4.14961
33949.2 4.14027
33970.2 4.13097
34012.3 4.11734
34054.3 4.10778
34096.4 4.10486
34138.5 4.11827
34159.5 4.14078
34180.5 4.19040
34191.1 4.23627
34201.6 4.30980
34212.1 4.43477
34222.6 4.66590
34227.9 4.86048
34233.1 5.15428
34238.4 5.62443
34243.7 6.43849
34248.9 8.01593
34251.5 9.41555
34254.2 11.6480
34256.8 15.4928
34259.4 22.8294
34260.8 29.1930
34262.1 38.8423
34263.4 54.0635
34264.7 78.2429
34266.3 123.854
34268.0 155.201
34269.7 126.196
34271.3 81.1829
34272.8 54.4211
34274.3 38.3531
34275.8 28.5597
34277.2 22.3192
34280.2 15.2553
34283.2 11.6222
34286.1 9.51253
34289.1 8.19055
34295.0 6.68127
34300.9 5.88381
34306.8 5.41151
34312.7 5.10721
34318.6 4.89896
34330.5 4.63848
34342.3 4.48662
34354.1 4.38925
34365.9 4.32243
34389.6 4.23770
34413.2 4.18666
34436.9 4.15247
34460.5 4.12772
34507.8 4.09306
34555.1 4.06755
34602.4 4.04195
34626.0 4.02406
34637.9 4.02872
34643.8 4.15227
34645.2 4.30719
34646.7 4.76203
34647.5 5.37390
34648.2 6.92766
34648.6 8.74616
34648.9 12.6459
34649.1 16.5731
34649.3 22.9896
34649.5 34.7306
34649.7 57.3442
34649.8 91.9116
34650.0 114.625
34650.2 95.0027
34650.3 61.2733
34650.5 39.2398
34650.7 27.0692
34650.8 20.0778
34651.0 15.8049
34651.4 11.1472
34651.7 8.82091
34652.4 6.65454
34653.1 5.73015
34654.4 4.94604
34655.8 4.62768
34658.5 4.36498
34661.3 4.25759
34666.7 4.16718
34672.2 4.12849
34683.1 4.09349
34694.0 4.07678
34737.7 4.04910
34825.2 4.02636
34912.6 4.01185
35000.0 4.00031
35000.0 4.95535
40000.0 4.89307
50000.0 4.79869
60000.0 4.72920
70000.0 4.67477
80000.0 4.63017
90000.0 4.59234
99999.9 4.55941
100000 4.58204
150000 4.66965
200000 4.81408
250000 4.98161
300000 5.15719
500000 5.82482
600000 6.11509
700000 6.37184
800000 6.59945
824676 6.65122
900000 6.79851
1.00000E+06 6.96892
1.12500E+06 7.12551
1.25000E+06 7.26611
1.37500E+06 7.32756
1.50000E+06 7.38394
1.56201E+06 7.38850
1.59092E+06 7.38762
1.59092E+06 7.38762
1.75000E+06 7.35106
1.77864E+06 7.33598
1.88015E+06 7.28465
1.88015E+06 7.28465
2.00000E+06 7.19699
2.05706E+06 7.14651
2.06924E+06 7.13597
2.06925E+06 7.13596
2.09534E+06 7.11118
2.14379E+06 7.06274
2.14380E+06 7.06273
2.15608E+06 7.04999
2.15609E+06 7.04998
2.15739E+06 7.04862
2.15740E+06 7.04861
2.22348E+06 6.97697
2.22348E+06 6.97696
2.30095E+06 6.88746
2.30095E+06 6.88745
2.47571E+06 6.60686
2.65048E+06 6.37244
2.82524E+06 6.17496
3.00000E+06 6.00745
3.06250E+06 5.92716
3.12500E+06 5.85077
3.18750E+06 5.77801
3.25000E+06 5.70866
3.31250E+06 5.64251
3.37500E+06 5.57937
3.43750E+06 5.51905
3.50000E+06 5.46139
3.56250E+06 5.40623
3.62500E+06 5.35344
3.68750E+06 5.30288
3.75000E+06 5.25443
3.81250E+06 5.20797
3.87500E+06 5.16340
3.93750E+06 5.12063
4.00000E+06 5.07955
4.06250E+06 5.03648
4.12500E+06 4.99471
4.18750E+06 4.95417
4.25000E+06 4.91481
4.31250E+06 4.87657
4.37500E+06 4.83942
4.43750E+06 4.80330
4.50000E+06 4.76817
4.56250E+06 4.73399
4.62500E+06 4.70072
4.68750E+06 4.66833
4.75000E+06 4.63678
4.81250E+06 4.60604
4.87500E+06 4.57608
4.93750E+06 4.54687
5.00000E+06 4.51838
5.06250E+06 4.50405
5.12500E+06 4.49000
5.18750E+06 4.47622
5.25000E+06 4.46269
5.31250E+06 4.44941
5.37500E+06 4.43637
5.43750E+06 4.42357
5.50000E+06 4.41099
5.56250E+06 4.39863
5.62500E+06 4.38649
5.68750E+06 4.37455
5.75000E+06 4.36282
5.81250E+06 4.35128
5.87500E+06 4.33994
5.93750E+06 4.32878
6.00000E+06 4.31780
6.06768E+06 4.32154
6.13536E+06 4.32525
6.20304E+06 4.32892
6.27072E+06 4.33257
6.31630E+06 4.33498
6.36188E+06 4.33738
6.40746E+06 4.33977
6.45304E+06 4.34214
6.49862E+06 4.34451
6.54420E+06 4.34685
6.58978E+06 4.34918
6.63536E+06 4.35150
6.68094E+06 4.35381
6.72652E+06 4.35610
6.77210E+06 4.35838
6.81768E+06 4.36065
6.86326E+06 4.36290
6.90884E+06 4.36514
6.95442E+06 4.36737
7.00000E+06 4.36959
7.12083E+06 4.38140
7.24166E+06 4.39308
7.36248E+06 4.40464
7.48331E+06 4.41608
7.58842E+06 4.42585
7.69352E+06 4.43553
7.84676E+06 4.44939
8.00000E+06 4.46308
8.12132E+06 4.47446
8.24264E+06 4.48575
8.36396E+06 4.49696
8.48528E+06 4.50809
8.59799E+06 4.51824
8.64041E+06 4.52201
8.68282E+06 4.52577
8.72524E+06 4.52952
8.76765E+06 4.53326
8.81007E+06 4.53699
8.85248E+06 4.54072
8.89490E+06 4.54443
8.93731E+06 4.54814
8.97731E+06 4.55160
9.00000E+06 4.55355
9.04493E+06 4.55850
9.08987E+06 4.56351
9.13480E+06 4.56857
9.17973E+06 4.57368
9.21812E+06 4.57757
9.25651E+06 4.58149
9.29489E+06 4.58543
9.33328E+06 4.58940
9.37167E+06 4.59339
9.41006E+06 4.59740
9.44844E+06 4.60143
9.48683E+06 4.60548
9.55098E+06 4.61232
9.61512E+06 4.61921
9.67927E+06 4.62617
9.74342E+06 4.63318
9.80756E+06 4.64026
9.87171E+06 4.64739
9.93585E+06 4.65458
1.00000E+07 4.66183
1.00610E+07 4.66844
1.01220E+07 4.67525
1.01830E+07 4.68224
1.02441E+07 4.68943
1.03051E+07 4.69679
1.03661E+07 4.70433
1.04271E+07 4.71206
1.04881E+07 4.71996
1.05521E+07 4.72847
1.06161E+07 4.73716
1.06801E+07 4.74605
1.07441E+07 4.75511
1.08080E+07 4.76437
1.08720E+07 4.77381
1.09360E+07 4.78342
1.10000E+07 4.79321
1.10611E+07 4.79967
1.11223E+07 4.80627
1.11834E+07 4.81303
1.12446E+07 4.81994
1.13057E+07 4.82701
1.13668E+07 4.83422
1.14280E+07 4.84158
1.14891E+07 4.84908
1.15530E+07 4.85696
1.16168E+07 4.86499
1.16807E+07 4.87318
1.17446E+07 4.88152
1.18084E+07 4.89001
1.18723E+07 4.89866
1.19361E+07 4.90745
1.20000E+07 4.91639
1.20613E+07 4.92106
1.21225E+07 4.92579
1.21838E+07 4.93058
1.22450E+07 4.93542
1.23063E+07 4.94032
1.23675E+07 4.94528
1.24288E+07 4.95029
1.24900E+07 4.95535
1.25538E+07 4.96068
1.26175E+07 4.96606
1.26813E+07 4.97151
1.27450E+07 4.97701
1.28088E+07 4.98257
1.28725E+07 4.98819
1.29363E+07 4.99386
1.30000E+07 4.99960
1.30625E+07 5.00420
1.31250E+07 5.00884
1.31875E+07 5.01352
1.32500E+07 5.01824
1.33125E+07 5.02300
1.33750E+07 5.02779
1.34375E+07 5.03263
1.35000E+07 5.03750
1.35625E+07 5.04242
1.36250E+07 5.04737
1.36875E+07 5.05235
1.37500E+07 5.05738
1.38125E+07 5.06245
1.38750E+07 5.06756
1.39375E+07 5.07271
1.40000E+07 5.07791
1.40625E+07 5.07952
1.41250E+07 5.08115
1.41875E+07 5.08280
1.42500E+07 5.08447
1.43125E+07 5.08616
1.43750E+07 5.08787
1.44375E+07 5.08960
1.45000E+07 5.09135
1.46250E+07 5.09450
1.47500E+07 5.09772
1.48750E+07 5.10100
1.50000E+07 5.10435
1.51684E+07 5.10465
1.53475E+07 5.10475
1.55265E+07 5.10498
1.57056E+07 5.10537
1.58846E+07 5.10591
1.60000E+07 5.10610
1.62096E+07 5.10193
1.62096E+07 5.10193
1.66048E+07 5.09384
1.70000E+07 5.08670
1.75000E+07 5.07665
1.80000E+07 5.06848
1.85000E+07 5.04841
1.90000E+07 5.03088
2.00000E+07 4.99548