Nd-146(n,g) ENDF/B-VII.1
Energy(eV) XS(b)
1.00000E-05 74.9188
1.25000E-05 67.0094
1.50000E-05 61.1709
2.00000E-05 52.9756
2.75000E-05 45.1777
3.50000E-05 40.0458
4.25000E-05 36.3409
5.00000E-05 33.5047
6.25000E-05 29.9675
7.50000E-05 27.3565
0.000100000 23.6914
0.000125000 21.1902
0.000150000 19.3439
0.000200000 16.7523
0.000275000 14.2864
0.000350000 12.6636
0.000425000 11.4920
0.000500000 10.5951
0.000625000 9.47652
0.000750000 8.65084
0.00100000 7.49184
0.00125000 6.70089
0.00150000 6.11704
0.00200000 5.29750
0.00275000 4.51770
0.00350000 4.00450
0.00425000 3.63401
0.00500000 3.35038
0.00625000 2.99665
0.00750000 2.73553
0.0100000 2.36901
0.0125000 2.11888
0.0150000 1.93424
0.0200000 1.67505
0.0253000 1.48926
0.0314750 1.33516
0.0376500 1.22073
0.0500000 1.05922
0.0625000 0.947333
0.0750000 0.864734
0.100000 0.748780
0.125000 0.669638
0.150000 0.611210
0.200000 0.529179
0.275000 0.451101
0.350000 0.399696
0.500000 0.334137
0.750000 0.272451
1.00000 0.235630
1.50000 0.191871
2.00000 0.165716
2.75000 0.140753
3.50000 0.124262
5.00000 0.103134
7.50000 0.0830987
10.0000 0.0710268
15.0000 0.0565128
20.0000 0.0477175
27.5000 0.0392143
35.0000 0.0335341
50.0000 0.0261979
75.0000 0.0192565
100.000 0.0151748
150.000 0.0105743
200.000 0.00814075
279.726 0.00654647
299.657 0.00676701
319.588 0.00805437
329.554 0.0101067
334.537 0.0122248
339.520 0.0161567
344.503 0.0246715
346.994 0.0332231
349.485 0.0489214
350.731 0.0622295
351.977 0.0826722
353.223 0.116439
354.468 0.178249
355.091 0.230523
355.714 0.310620
356.337 0.442524
356.960 0.682799
357.271 0.885083
357.583 1.19351
357.894 1.69797
358.205 2.60799
358.361 3.36682
358.439 3.87713
358.517 4.51215
358.556 4.89091
358.595 5.31830
358.634 5.80429
358.673 6.36007
358.712 7.00145
358.750 7.74288
358.789 8.60858
358.828 9.62788
358.867 10.8427
358.906 12.2984
358.945 14.0676
358.984 16.2469
359.023 18.9809
359.062 22.4549
359.101 26.9727
359.140 32.9954
359.179 41.2925
359.218 53.0881
359.256 70.6797
359.295 98.4941
359.334 146.138
359.354 183.516
359.373 236.104
359.393 313.555
359.412 430.789
359.432 616.233
359.451 908.483
359.476 1453.51
359.500 1816.78
359.525 1453.34
359.549 908.303
359.566 642.975
359.583 466.976
359.601 348.879
359.618 268.709
359.652 171.198
359.686 117.639
359.721 85.4728
359.755 64.7734
359.823 40.7575
359.892 27.9397
359.961 20.3226
360.029 15.4368
360.098 12.1234
360.235 8.03748
360.372 5.71639
360.509 4.27155
360.646 3.31306
360.921 2.15905
361.195 1.51816
361.469 1.12572
361.744 0.868160
362.292 0.561819
362.841 0.393610
363.390 0.291429
363.938 0.224758
365.035 0.145935
366.133 0.102905
367.230 0.0768757
368.327 0.0599453
370.522 0.0399912
372.716 0.0291309
374.911 0.0225732
377.105 0.0183122
381.495 0.0132925
385.884 0.0105572
394.662 0.00781957
412.218 0.00582213
429.775 0.00509032
500.000 0.00438675
562.493 0.00455086
593.740 0.00490921
609.363 0.00547862
617.174 0.00708012
619.127 0.00864681
621.080 0.0130543
622.057 0.0191766
623.033 0.0365456
623.521 0.0606868
623.766 0.0848069
624.010 0.128889
624.254 0.223025
624.376 0.316548
624.498 0.486092
624.559 0.628419
624.620 0.844239
624.681 1.19505
624.742 1.82216
624.773 2.34190
624.803 3.11760
624.834 4.35367
624.864 6.50019
624.895 10.7243
624.910 14.5765
624.925 20.8625
624.940 32.2949
624.948 41.7221
624.956 55.7959
624.963 78.3262
624.971 115.792
624.978 183.267
624.986 309.770
624.993 495.661
625.000 619.600
625.007 495.662
625.014 309.773
625.020 202.378
625.026 138.425
625.032 99.0118
625.038 73.7013
625.050 44.8766
625.062 29.9684
625.074 21.3571
625.086 15.9629
625.110 9.86294
625.134 6.67512
625.158 4.81953
625.182 3.64178
625.206 2.84823
625.254 1.87748
625.302 1.33135
625.350 0.993409
625.398 0.769897
625.494 0.501785
625.591 0.353435
625.783 0.203567
625.975 0.133115
626.167 0.0945093
626.551 0.0558027
626.935 0.0377486
627.320 0.0279004
628.088 0.0180719
629.625 0.0110368
631.162 0.00858524
634.236 0.00687226
637.310 0.00631777
649.606 0.00603615
674.199 0.00681875
698.791 0.00854928
711.087 0.0107905
714.161 0.0122723
717.235 0.0158722
718.772 0.0205639
720.309 0.0335405
721.078 0.0514226
721.462 0.0692693
721.846 0.101890
722.231 0.171705
722.423 0.241199
722.615 0.367695
722.711 0.474120
722.807 0.636319
722.903 0.901330
722.999 1.37796
723.047 1.77517
723.095 2.37266
723.143 3.33367
723.191 5.02535
723.215 6.40726
723.239 8.43721
723.263 11.6058
723.287 16.9473
723.311 26.9827
723.323 35.6577
723.335 49.1799
723.347 71.7947
723.359 113.247
723.365 147.685
723.371 198.459
723.377 275.230
723.383 392.612
723.392 627.488
723.400 785.346
723.408 627.484
723.417 392.612
723.422 288.136
723.427 215.890
723.438 130.020
723.448 84.9224
723.459 59.4994
723.469 43.7027
723.479 33.4625
723.500 21.3131
723.521 14.7258
723.542 10.7707
723.584 6.47815
723.626 4.31572
723.667 3.08232
723.709 2.31017
723.751 1.79729
723.834 1.17747
723.918 0.832044
724.001 0.620086
724.085 0.480756
724.252 0.314717
724.419 0.223440
724.753 0.131673
725.087 0.0887739
725.421 0.0653539
726.089 0.0419888
727.425 0.0253502
728.762 0.0196663
731.434 0.0159591
734.106 0.0150728
744.796 0.0168348
755.485 0.0217946
766.175 0.0311539
771.520 0.0390588
776.865 0.0511276
782.209 0.0709044
784.882 0.0859239
786.218 0.0954347
787.554 0.106725
788.890 0.120273
789.558 0.128086
790.226 0.136721
790.895 0.146300
791.563 0.156964
792.899 0.182268
794.235 0.214473
795.571 0.256342
796.907 0.312170
798.244 0.388928
799.580 0.498571
800.916 0.662939
802.252 0.925525
802.920 1.12004
803.588 1.38332
804.256 1.75187
804.925 2.29003
805.593 3.11944
806.261 4.49261
806.929 7.00255
807.263 9.11117
807.597 12.3018
807.931 17.4228
808.265 26.2488
808.599 42.7545
808.766 56.3098
808.933 75.3119
809.217 120.403
809.500 150.383
809.784 120.212
810.068 75.0765
810.347 46.5427
810.626 30.4234
810.906 21.0617
811.185 15.3125
811.464 11.5792
811.743 9.03913
812.301 5.92331
812.859 4.16841
813.418 3.08803
814.534 1.88627
815.651 1.26972
816.767 0.912622
817.884 0.687620
819.000 0.536869
821.234 0.353795
823.467 0.251164
825.700 0.187956
827.933 0.146310
832.399 0.0966178
836.865 0.0692689
841.331 0.0526608
845.798 0.0418495
854.730 0.0291578
863.662 0.0223514
881.527 0.0158860
899.392 0.0133230
917.257 0.0124266
935.121 0.0125862
944.054 0.0135646
948.520 0.0167053
949.637 0.0198225
950.753 0.0286001
951.311 0.0407721
951.870 0.0751646
952.149 0.122721
952.288 0.170023
952.428 0.255935
952.567 0.437925
952.637 0.616945
952.707 0.937676
952.777 1.60359
952.812 2.24400
952.847 3.36458
952.881 5.59636
952.899 7.65715
952.916 11.0704
952.934 17.4060
952.943 22.7507
952.951 30.9095
952.960 44.1561
952.969 67.3887
952.977 111.974
952.982 150.021
952.986 203.174
952.993 325.082
953.000 406.358
953.007 325.082
953.014 203.175
953.020 135.443
953.026 94.1198
953.031 67.7499
953.037 50.8996
953.049 31.2649
953.060 21.0589
953.071 15.0562
953.083 11.2798
953.106 7.00525
953.129 4.75758
953.152 3.44447
953.175 2.60582
953.198 2.04252
953.244 1.35181
953.289 0.961735
953.381 0.560657
953.473 0.368852
953.565 0.262635
953.748 0.155256
954.115 0.0770621
954.482 0.0492972
955.217 0.0292994
955.951 0.0222744
957.419 0.0172857
958.887 0.0155911
964.761 0.0142584
976.507 0.0148107
1000.00 0.0176270
1010.10 0.0193790
1015.15 0.0204050
1017.68 0.0209606
1020.20 0.0215471
1022.73 0.0221664
1025.25 0.0228206
1027.78 0.0235123
1030.30 0.0242439
1032.83 0.0250184
1035.35 0.0258389
1037.88 0.0267089
1040.40 0.0276321
1045.45 0.0296559
1050.50 0.0319494
1055.55 0.0345611
1060.60 0.0375508
1070.70 0.0449843
1080.80 0.0551299
1090.90 0.0694718
1101.00 0.0906730
1111.10 0.123899
1116.15 0.148069
1121.20 0.180257
1126.25 0.224418
1131.30 0.287257
1136.35 0.380843
1141.40 0.528588
1146.45 0.780344
1148.98 0.977290
1151.50 1.25540
1154.03 1.66208
1156.55 2.27942
1159.08 3.24784
1161.60 4.77597
1164.80 7.62414
1168.00 9.49462
1171.20 7.57019
1174.40 4.72408
1176.97 3.18669
1179.53 2.22214
1182.10 1.61187
1184.67 1.21216
1189.80 0.748023
1194.93 0.503697
1200.06 0.360990
1205.20 0.270983
1215.46 0.168585
1225.72 0.114993
1235.99 0.0835952
1246.25 0.0636890
1256.52 0.0503170
1277.05 0.0341135
1297.58 0.0251707
1318.11 0.0198778
1338.64 0.0166897
1379.69 0.0142867
1400.22 0.0149386
1420.75 0.0175744
1441.28 0.0245563
1451.55 0.0318984
1461.81 0.0454349
1466.95 0.0568244
1472.08 0.0741008
1477.21 0.102077
1478.49 0.111785
1479.78 0.123045
1481.06 0.136203
1481.70 0.143636
1482.34 0.151711
1482.98 0.160531
1483.63 0.170176
1484.27 0.180752
1484.91 0.192362
1486.19 0.219358
1487.47 0.252655
1488.76 0.294372
1490.04 0.347593
1491.32 0.416947
1492.61 0.509636
1493.89 0.637345
1495.17 0.820021
1496.46 1.09390
1497.74 1.53012
1499.02 2.28281
1499.66 2.87948
1500.30 3.73053
1500.95 4.99586
1501.59 6.95175
1502.23 10.1053
1502.87 15.2305
1503.64 24.3859
1504.40 30.4852
1505.17 24.3541
1505.93 15.1998
1506.54 10.2761
1507.15 7.17841
1507.76 5.21474
1508.37 3.92656
1509.59 2.42829
1510.81 1.63779
1512.03 1.17537
1513.25 0.883213
1515.69 0.550262
1518.13 0.375417
1520.57 0.272674
1523.01 0.207244
1525.45 0.163083
1530.33 0.109014
1535.21 0.0784511
1540.08 0.0595128
1544.96 0.0469730
1554.72 0.0319223
1564.48 0.0235782
1584.00 0.0151402
1603.51 0.0112047
1623.03 0.00911083
1662.06 0.00732518
1701.09 0.00731010
1720.61 0.00801754
1740.13 0.00963166
1759.64 0.0133504
1769.40 0.0171164
1779.16 0.0239939
1784.04 0.0297790
1788.92 0.0385919
1793.80 0.0529831
1798.67 0.0788929
1801.11 0.100450
1802.33 0.114929
1803.55 0.132940
1804.77 0.155772
1805.38 0.169543
1805.99 0.185285
1806.60 0.203393
1807.21 0.224364
1807.82 0.248835
1808.43 0.277578
1809.04 0.311765
1809.65 0.352790
1810.26 0.402602
1810.87 0.463893
1811.48 0.540467
1812.09 0.637834
1812.70 0.764222
1813.31 0.932009
1813.92 1.16213
1814.53 1.48876
1815.14 1.97350
1815.75 2.73476
1816.36 4.02171
1816.67 5.02036
1816.97 6.41972
1817.28 8.44569
1817.58 11.4814
1817.89 16.1661
1818.19 23.3948
1818.60 37.5065
1819.00 46.9385
1819.41 37.4853
1819.81 23.3744
1820.16 15.2682
1820.51 10.3829
1820.87 7.39497
1821.22 5.48747
1821.92 3.32798
1822.63 2.21745
1823.33 1.57837
1824.03 1.17908
1825.44 0.728910
1826.85 0.494748
1828.26 0.357984
1829.67 0.271322
1831.07 0.213042
1833.89 0.141908
1836.70 0.101877
1839.52 0.0771469
1842.33 0.0608323
1847.97 0.0413456
1853.60 0.0306356
1864.86 0.0199933
1876.12 0.0152315
1887.38 0.0128865
1909.91 0.0114295
1932.43 0.0124935
1954.95 0.0164904
1966.22 0.0205830
1977.48 0.0276430
1988.74 0.0410468
1991.56 0.0462708
1994.37 0.0527085
1995.78 0.0565050
1997.19 0.0607671
1998.59 0.0655807
2000.00 0.0710368
2000.94 0.0750957
2001.88 0.0795332
2002.82 0.0844083
2003.75 0.0897684
2005.63 0.102250
2007.51 0.117684
2009.39 0.137077
2011.26 0.161906
2013.14 0.194399
2015.02 0.238026
2016.89 0.298558
2018.77 0.385878
2020.65 0.518278
2022.52 0.732501
2024.40 1.11080
2025.34 1.41770
2026.28 1.86568
2027.22 2.55159
2028.15 3.65596
2029.09 5.53195
2030.03 8.79376
2031.02 14.0756
2032.00 17.5932
2032.99 14.0580
2033.97 8.77686
2035.02 5.24935
2036.06 3.34469
2037.10 2.27518
2038.15 1.63460
2039.19 1.22559
2040.24 0.951041
2042.33 0.618483
2044.42 0.433603
2046.50 0.320758
2050.68 0.196251
2054.86 0.132846
2059.04 0.0963116
2063.21 0.0733733
2067.39 0.0580533
2075.75 0.0395152
2084.10 0.0291799
2100.81 0.0187227
2117.52 0.0138791
2134.23 0.0113240
2167.65 0.00907206
2234.49 0.00871506
2301.34 0.0110584
2334.76 0.0134015
2351.47 0.0150208
2368.18 0.0170542
2376.53 0.0182665
2380.71 0.0189307
2384.89 0.0196374
2389.07 0.0203908
2393.24 0.0211943
2397.42 0.0220527
2401.60 0.0229706
2405.78 0.0239538
2409.95 0.0250080
2418.31 0.0273587
2426.66 0.0300887
2435.02 0.0332824
2443.37 0.0370500
2451.73 0.0415345
2460.08 0.0469284
2468.44 0.0534924
2476.79 0.0615874
2485.15 0.0717237
2493.50 0.0846412
2501.86 0.101444
2510.22 0.123834
2518.57 0.154526
2526.93 0.198069
2535.28 0.262443
2543.64 0.362475
2551.99 0.527293
2560.35 0.816010
2568.70 1.33753
2576.85 2.13129
2585.00 2.65018
2593.15 2.11393
2601.30 1.32080
2607.13 0.929020
2612.97 0.669992
2618.80 0.498607
2624.64 0.382344
2636.30 0.242426
2647.97 0.166145
2659.64 0.120581
2671.31 0.0913890
2694.64 0.0577068
2717.98 0.0398754
2741.32 0.0294003
2764.65 0.0228584
2776.32 0.0207582
2782.15 0.0209214
2785.07 0.0251918
2786.53 0.0437423
2787.26 0.117089
2787.44 0.191975
2787.62 0.398963
2787.71 0.677848
2787.80 1.42848
2787.85 2.41732
2787.87 3.35352
2787.90 4.87055
2787.92 7.88633
2787.93 10.7025
2787.94 14.8257
2787.95 22.6573
2787.96 36.5108
2787.97 49.6961
2787.98 66.3361
2787.98 97.7689
2787.99 138.915
2787.99 222.254
2788.00 277.814
2788.01 222.254
2788.01 138.915
2788.02 97.7693
2788.02 75.1180
2788.03 44.6472
2788.04 29.0260
2788.05 20.2140
2788.06 14.8259
2788.07 11.3145
2788.09 7.19009
2788.10 4.96278
2788.12 3.62898
2788.16 2.20989
2788.23 1.05279
2788.30 0.622033
2788.44 0.295512
2788.59 0.177330
2788.87 0.0901920
2789.16 0.0590394
2790.30 0.0283962
2792.58 0.0203308
2797.14 0.0177656
2806.26 0.0161818
2824.51 0.0143510
2861.00 0.0125855
2897.49 0.0138240
2915.74 0.0173212
2924.86 0.0214478
2929.42 0.0265199
2931.71 0.0377459
2932.85 0.0763221
2933.13 0.114992
2933.42 0.222811
2933.56 0.370415
2933.70 0.772156
2933.77 1.31513
2933.84 2.73151
2933.88 4.55333
2933.90 6.23911
2933.91 8.86078
2933.93 13.9186
2933.94 18.2118
2933.95 24.7763
2933.96 35.4528
2933.97 54.1993
2933.98 90.1181
2933.99 155.126
2933.99 252.350
2934.00 309.180
2934.01 252.350
2934.01 154.078
2934.02 116.279
2934.02 84.7827
2934.03 63.5650
2934.03 48.9938
2934.04 31.2585
2934.05 21.4911
2934.06 15.6195
2934.07 11.8402
2934.09 7.61278
2934.11 5.20623
2934.13 3.83966
2934.17 2.31034
2934.25 1.09964
2934.33 0.651211
2934.49 0.313110
2934.64 0.190687
2934.96 0.101470
2935.27 0.0699063
2936.53 0.0401101
2939.04 0.0353562
2944.06 0.0420753
2949.08 0.0557843
2954.10 0.0805042
2956.61 0.100679
2957.87 0.114033
2959.12 0.130429
2959.75 0.140075
2960.38 0.150891
2961.01 0.163069
2961.64 0.176825
2962.26 0.192493
2962.89 0.210412
2963.52 0.231031
2964.15 0.254874
2964.77 0.282737
2965.40 0.315512
2966.66 0.400954
2967.91 0.526757
2969.17 0.721819
2969.80 0.862047
2970.42 1.04621
2971.05 1.29372
2971.68 1.63449
2972.31 2.11868
2972.94 2.82569
2973.56 3.88170
2974.19 5.45426
2975.10 8.71433
2976.00 10.8812
2976.91 8.70746
2977.81 5.44760
2978.50 3.75974
2979.18 2.67147
2979.86 1.96521
2980.55 1.49465
2981.92 0.937366
2983.29 0.638582
2984.65 0.461752
2986.02 0.349262
2988.76 0.220032
2991.50 0.151705
2994.23 0.111366
2999.71 0.0681459
3005.18 0.0467090
3010.66 0.0345422
3021.61 0.0219393
3032.55 0.0158627
3043.50 0.0124669
3065.40 0.00900875
3087.30 0.00742340
3109.19 0.00668372
3131.09 0.00651906
3142.04 0.00676821
3147.51 0.00747723
3150.25 0.00993296
3151.62 0.0194109
3152.30 0.0563435
3152.65 0.197581
3152.73 0.338738
3152.82 0.714432
3152.86 1.20780
3152.90 2.47156
3152.92 4.06033
3152.95 7.55870
3152.96 11.4776
3152.97 18.2632
3152.97 25.4380
3152.98 34.8153
3152.98 49.4809
3152.99 74.3379
3152.99 121.240
3153.00 148.088
3153.01 121.240
3153.01 73.7574
3153.02 49.4812
3153.02 34.8155
3153.03 23.9937
3153.03 18.2634
3153.05 11.0111
3153.06 7.55883
3153.08 3.95862
3153.10 2.47164
3153.14 1.20786
3153.18 0.714485
3153.27 0.336335
3153.36 0.196557
3153.70 0.0561190
3154.39 0.0194200
3155.76 0.0101035
3158.51 0.00785255
3164.00 0.00754928
3174.98 0.00829275
3185.97 0.00983698
3196.95 0.0127856
3207.94 0.0191453
3213.43 0.0254346
3218.92 0.0367363
3221.67 0.0461101
3224.41 0.0601852
3227.16 0.0827210
3228.53 0.0994472
3229.22 0.109890
3229.91 0.122123
3230.59 0.136623
3231.28 0.153932
3231.97 0.174885
3232.65 0.200497
3233.34 0.232351
3234.03 0.272510
3234.71 0.324270
3235.40 0.392301
3236.09 0.484414
3236.77 0.612834
3237.46 0.799610
3238.14 1.08400
3238.83 1.54575
3239.52 2.35255
3239.86 2.99430
3240.20 3.89752
3240.55 5.19123
3240.89 7.03397
3241.45 11.2234
3242.00 14.0025
3242.56 11.2184
3243.11 7.02919
3243.62 4.50672
3244.13 3.02026
3244.63 2.12850
3245.14 1.56842
3246.16 0.942469
3247.17 0.624872
3248.19 0.443661
3249.20 0.331102
3251.23 0.204838
3253.26 0.139534
3255.29 0.101540
3257.32 0.0775165
3259.35 0.0613772
3263.41 0.0417227
3267.47 0.0306795
3275.59 0.0193764
3283.72 0.0140221
3291.84 0.0110889
3308.08 0.00820104
3340.56 0.00637925
3373.05 0.00618197
3405.53 0.00671811
3438.01 0.00794200
3470.50 0.0102344
3486.74 0.0123297
3494.86 0.0149764
3498.92 0.0218229
3500.95 0.0468074
3501.46 0.0722032
3501.97 0.143372
3502.22 0.241202
3502.47 0.512637
3502.60 0.878646
3502.73 1.86514
3502.79 3.16111
3502.82 4.38701
3502.85 6.40516
3502.89 10.3804
3502.90 13.9023
3502.92 19.0894
3502.93 28.4915
3502.95 46.5262
3502.96 62.2164
3502.97 86.3964
3502.97 125.023
3502.98 182.351
3502.99 288.758
3503.00 364.696
3503.01 288.757
3503.02 182.351
3503.03 113.558
3503.04 72.9480
3503.05 49.8714
3503.06 35.9262
3503.07 26.9853
3503.08 20.9567
3503.10 13.9026
3503.12 9.70824
3503.14 7.25554
3503.18 4.43651
3503.22 2.98958
3503.25 2.15099
3503.33 1.26798
3503.49 0.595633
3503.64 0.348346
3503.96 0.166014
3504.27 0.100628
3504.89 0.0532030
3505.52 0.0365078
3508.02 0.0205983
3513.01 0.0174862
3518.01 0.0178680
3520.51 0.0183371
3523.00 0.0189077
3525.50 0.0195623
3528.00 0.0202978
3530.50 0.0211234
3533.00 0.0220691
3535.49 0.0232235
3537.99 0.0249399
3540.49 0.0300427
3541.74 0.0466707
3542.36 0.109598
3542.67 0.347530
3542.75 0.581244
3542.83 1.20421
3542.87 2.00195
3542.91 3.98988
3542.93 6.41293
3542.95 11.4843
3542.96 16.8999
3542.97 26.9879
3542.97 35.4987
3542.98 48.2167
3542.98 67.7312
3542.99 94.0613
3542.99 148.247
3543.00 188.098
3543.01 148.247
3543.01 94.0615
3543.02 58.8939
3543.03 37.6400
3543.03 25.6383
3543.04 19.2576
3543.05 11.0888
3543.07 7.36344
3543.09 3.82654
3543.12 2.33813
3543.18 1.13843
3543.23 0.682906
3543.34 0.329016
3543.44 0.200440
3543.87 0.0712114
3544.73 0.0379957
3546.45 0.0303005
3549.89 0.0300147
3556.76 0.0339100
3563.63 0.0394322
3570.50 0.0466543
3577.37 0.0562222
3584.24 0.0692302
3591.12 0.0876781
3594.55 0.100880
3596.27 0.113019
3597.13 0.137472
3597.56 0.219478
3597.77 0.520659
3597.83 0.813837
3597.88 1.56163
3597.91 2.50718
3597.93 4.78180
3597.95 7.47233
3597.96 12.6434
3597.97 17.8917
3597.97 25.2696
3597.98 40.4048
3597.99 65.2514
3597.99 106.353
3598.00 129.880
3598.01 106.353
3598.01 64.7428
3598.02 37.6120
3598.03 22.3998
3598.04 14.5768
3598.04 10.6008
3598.06 6.09570
3598.07 3.95536
3598.10 2.03562
3598.13 1.27855
3598.20 0.666963
3598.26 0.438442
3598.50 0.200994
3598.98 0.140141
3599.96 0.128832
3601.90 0.135585
3605.78 0.161008
3609.67 0.195625
3613.56 0.242318
3617.44 0.306504
3621.33 0.396533
3625.21 0.524592
3629.10 0.705699
3635.55 1.12775
3642.00 1.40703
3648.45 1.12265
3654.90 0.700865
3660.47 0.459940
3666.03 0.314194
3671.60 0.224773
3677.16 0.167565
3688.29 0.102702
3699.42 0.0693464
3710.55 0.0501973
3721.68 0.0382987
3743.94 0.0250822
3766.20 0.0185296
3788.46 0.0151157
3810.72 0.0135723
3821.85 0.0136172
3827.42 0.0150042
3830.20 0.0206916
3831.59 0.0431166
3832.29 0.130572
3832.46 0.218949
3832.64 0.463136
3832.72 0.790560
3832.81 1.66534
3832.86 2.80758
3832.90 5.59798
3832.92 8.96952
3832.94 16.0096
3832.95 23.4323
3832.96 37.1046
3832.97 49.7838
3832.97 65.3961
3832.98 88.2078
3832.98 128.151
3832.99 200.326
3833.00 255.452
3833.01 200.326
3833.02 127.313
3833.02 73.4827
3833.03 47.2887
3833.04 31.0572
3833.05 22.5699
3833.07 12.9594
3833.08 8.35470
3833.12 4.28027
3833.15 2.62637
3833.22 1.26851
3833.28 0.747562
3833.42 0.351079
3833.55 0.207262
3834.09 0.0631476
3835.16 0.0258583
3837.31 0.0164125
3841.61 0.0141513
3850.20 0.0139723
3867.39 0.0154269
3884.58 0.0184663
3901.77 0.0241366
3918.96 0.0354262
3927.55 0.0456337
3931.85 0.0529025
3934.00 0.0573332
3936.14 0.0624423
3937.22 0.0653011
3938.29 0.0683885
3939.37 0.0717342
3940.44 0.0753691
3941.52 0.0793334
3942.59 0.0836619
3944.74 0.0936299
3946.89 0.105802
3949.04 0.120911
3951.18 0.140080
3953.33 0.164994
3955.48 0.198418
3957.63 0.244970
3959.78 0.313112
3961.93 0.419287
3964.08 0.599504
3966.22 0.942548
3967.30 1.24205
3968.37 1.70707
3969.45 2.46157
3970.52 3.70396
3971.76 5.85833
3973.00 7.29587
3974.24 5.87877
3975.48 3.75017
3976.63 2.46932
3977.77 1.72969
3978.92 1.29850
3980.07 1.03950
3981.21 0.881219
3982.36 0.786276
3983.50 0.734136
3984.65 0.713684
3985.80 0.719143
3986.94 0.748074
3988.09 0.800454
3989.24 0.878240
3990.38 0.985296
3991.53 1.12685
3993.82 1.53994
3995.37 1.92913
3996.91 2.37801
4000.00 2.93430
4001.55 2.75742
4003.09 2.34550
4006.18 1.47510
4008.14 1.08482
4010.11 0.813711
4014.03 0.493448
4017.95 0.326963
4021.88 0.231813
4025.80 0.172909
4029.73 0.134069
4037.57 0.0877446
4045.42 0.0622754
4053.27 0.0469631
4061.12 0.0383081
4065.04 0.0407284
4066.02 0.0462988
4066.51 0.0523069
4067.00 0.0635974
4067.49 0.0881626
4067.74 0.112633
4067.98 0.157010
4068.23 0.250841
4068.35 0.342566
4068.48 0.504136
4068.60 0.836480
4068.66 1.14782
4068.72 1.68010
4068.78 2.72635
4068.84 5.11397
4068.87 7.72778
4068.90 12.6548
4068.92 17.3389
4068.94 24.2913
4068.95 35.6325
4068.97 55.2213
4068.97 70.4296
4068.98 88.8475
4069.00 110.413
4069.02 88.8470
4069.03 55.2207
4069.05 35.6319
4069.07 23.7177
4069.08 16.6298
4069.10 12.4245
4069.13 7.39706
4069.16 4.93304
4069.19 3.48140
4069.22 2.60908
4069.29 1.61201
4069.35 1.09701
4069.41 0.797351
4069.54 0.480702
4069.66 0.325745
4069.79 0.238582
4070.04 0.149159
4070.29 0.106515
4070.55 0.0828702
4071.05 0.0588607
4071.55 0.0473830
4072.06 0.0409458
4073.06 0.0341823
4075.08 0.0285350
4077.09 0.0258295
4085.15 0.0204551
4101.27 0.0148165
4133.50 0.00915617
4165.74 0.00644905
4181.86 0.00586563
4185.89 0.00599815
4189.92 0.00673901
4193.94 0.0115029
4195.96 0.0308612
4196.46 0.0507075
4196.97 0.106171
4197.22 0.181945
4197.47 0.389950
4197.60 0.666490
4197.72 1.39565
4197.79 2.31623
4197.82 3.17725
4197.85 4.56120
4197.88 7.18729
4197.90 9.42222
4197.91 12.5839
4197.93 17.9900
4197.94 26.6815
4197.96 43.9887
4197.97 77.2403
4197.99 124.515
4198.00 154.481
4198.01 124.514
4198.03 77.2399
4198.04 52.3769
4198.05 36.0880
4198.06 25.9355
4198.07 19.8601
4198.09 12.3283
4198.11 8.33407
4198.13 5.98917
4198.15 4.50370
4198.20 2.80577
4198.28 1.37609
4198.36 0.819148
4198.53 0.385643
4198.70 0.224545
4199.04 0.104950
4199.38 0.0618132
4200.73 0.0192186
4203.43 0.00823222
4208.84 0.00529242
4219.65 0.00426737
4241.27 0.00355084
4284.51 0.00275372
4327.74 0.00228127
4349.36 0.00221228
4360.17 0.00259765
4365.58 0.00441859
4368.28 0.0117816
4369.63 0.0408695
4370.31 0.154103
4370.48 0.268241
4370.65 0.582546
4370.73 1.00584
4370.82 2.11542
4370.86 3.51999
4370.90 6.95971
4370.92 10.9185
4370.94 19.3899
4370.95 28.2192
4370.96 42.2906
4370.97 72.2409
4370.98 95.3897
4370.98 130.362
4370.99 211.664
4371.00 259.948
4371.01 211.664
4371.02 129.586
4371.03 80.5375
4371.03 53.2524
4371.04 35.6721
4371.05 26.2304
4371.07 15.2926
4371.08 10.1741
4371.12 5.31112
4371.15 3.24592
4371.22 1.55573
4371.28 0.915779
4371.42 0.424685
4371.55 0.244539
4371.81 0.111927
4372.08 0.0645289
4373.14 0.0178013
4375.27 0.00588609
4379.51 0.00285575
4388.01 0.00205135
4405.01 0.00177267
4439.00 0.00158526
4472.99 0.00152466
4489.99 0.00173711
4498.48 0.00275944
4502.73 0.00690456
4504.86 0.0233477
4505.92 0.0877796
4506.19 0.153372
4506.45 0.334949
4506.58 0.581181
4506.72 1.24846
4506.78 2.13071
4506.85 4.36361
4506.88 7.07444
4506.90 9.56765
4506.92 13.3206
4506.93 20.2701
4506.95 32.9672
4506.96 45.7210
4506.97 63.7093
4506.97 92.6997
4506.98 139.949
4506.99 228.605
4507.00 279.900
4507.01 219.183
4507.02 139.948
4507.03 97.4376
4507.03 72.9553
4507.04 43.9896
4507.06 28.8950
4507.07 20.2704
4507.08 14.5985
4507.09 11.2157
4507.12 7.19292
4507.17 3.62072
4507.22 2.17030
4507.31 1.02895
4507.41 0.601159
4507.61 0.277141
4507.80 0.159147
4508.58 0.0417698
4510.14 0.0115805
4513.27 0.00391287
4519.51 0.00197379
4532.00 0.00148461
4544.50 0.00148370
4550.74 0.00190017
4553.86 0.00366381
4555.43 0.0106861
4556.21 0.0382593
4556.60 0.143990
4556.79 0.532958
4556.84 0.905921
4556.89 1.86721
4556.91 3.08093
4556.94 5.80236
4556.95 8.71639
4556.96 14.3989
4556.97 27.3838
4556.98 40.5146
4556.99 66.4107
4556.99 103.839
4557.00 132.821
4557.01 103.839
4557.01 66.4108
4557.02 46.6782
4557.02 33.0970
4557.03 18.4409
4557.04 11.5189
4557.05 7.81417
4557.07 4.23743
4557.09 2.70028
4557.13 1.34632
4557.17 0.803274
4557.33 0.220337
4557.64 0.0585465
4558.26 0.0158976
4559.51 0.00496900
4562.01 0.00219727
4567.01 0.00148957
4577.01 0.00129512
4597.01 0.00122320
4637.00 0.00118673
4676.99 0.00121045
4696.99 0.00132866
4706.99 0.00176939
4711.99 0.00349915
4714.49 0.0103550
4715.74 0.0373893
4716.36 0.142525
4716.52 0.248196
4716.67 0.538331
4716.75 0.924213
4716.83 1.94239
4716.87 3.22913
4716.91 6.37224
4716.93 10.1069
4716.95 17.6561
4716.96 25.3961
4716.97 39.1139
4716.98 65.7517
4716.98 113.139
4716.99 181.022
4717.00 226.278
4717.01 181.022
4717.02 113.139
4717.03 65.7518
4717.03 41.0255
4717.04 27.5196
4717.05 20.2764
4717.07 11.5472
4717.09 7.57131
4717.12 3.88968
4717.16 2.38689
4717.22 1.14982
4717.29 0.673959
4717.43 0.312618
4717.57 0.179988
4718.12 0.0472136
4719.23 0.0128870
4721.44 0.00415020
4725.86 0.00195217
4734.70 0.00141168
4752.39 0.00130520
4787.76 0.00136623
4858.51 0.00176015
4893.88 0.00217767
4929.25 0.00294832
4964.63 0.00461904
4982.31 0.00632999
5000.00 0.00964580
5007.49 0.0123634
5011.24 0.0155012
5013.11 0.0227538
5014.05 0.0482685
5014.52 0.145164
5014.75 0.505694
5014.81 0.857889
5014.87 1.75908
5014.90 2.92650
5014.93 5.64141
5014.94 8.80157
5014.96 14.8167
5014.97 21.3165
5014.97 30.9021
5014.98 47.5335
5014.99 77.2326
5014.99 123.563
5015.00 154.451
5015.01 123.563
5015.01 77.2327
5015.02 50.8025
5015.03 34.7277
5015.04 18.4721
5015.05 11.2428
5015.06 7.74296
5015.08 4.18924
5015.11 2.61467
5015.15 1.29768
5015.20 0.775974
5015.38 0.221558
5015.75 0.0692032
5016.49 0.0297713
5017.97 0.0205324
5020.92 0.0201538
5026.82 0.0255488
5032.72 0.0351425
5038.62 0.0522323
5041.57 0.0662046
5044.52 0.0868961
5047.47 0.119438
5048.94 0.143176
5049.68 0.157838
5050.42 0.174873
5051.16 0.194876
5051.90 0.218540
5052.63 0.246809
5053.37 0.280898
5054.11 0.322624
5054.85 0.374267
5055.58 0.439374
5056.32 0.522723
5057.06 0.631968
5057.80 0.778255
5058.53 0.980297
5059.27 1.26786
5060.01 1.69398
5060.75 2.35007
5061.48 3.40179
5062.22 5.09967
5063.11 8.15540
5064.00 10.1901
5064.89 8.15179
5065.78 5.09627
5066.54 3.36347
5067.29 2.30543
5068.05 1.65161
5068.81 1.23102
5070.32 0.751374
5071.84 0.503169
5073.35 0.359631
5074.86 0.269773
5077.89 0.168173
5080.92 0.115326
5083.94 0.0845260
5090.00 0.0521214
5096.05 0.0366228
5102.11 0.0284014
5114.22 0.0219117
5126.33 0.0234953
5132.38 0.0280090
5138.43 0.0374916
5144.49 0.0584007
5147.52 0.0788284
5150.54 0.114636
5153.57 0.185589
5154.33 0.214265
5155.08 0.250348
5155.84 0.296591
5156.22 0.324703
5156.60 0.357049
5156.98 0.394618
5157.35 0.438336
5157.73 0.489883
5158.11 0.550865
5158.49 0.624088
5158.87 0.712473
5159.25 0.820669
5159.62 0.954845
5160.00 1.12415
5160.38 1.34005
5160.76 1.62171
5161.14 1.99408
5161.52 2.49853
5161.90 3.19010
5162.27 4.15041
5162.65 5.47405
5163.33 8.75534
5164.00 10.9362
5164.34 10.2900
5164.68 8.74724
5165.35 5.46721
5166.02 3.38882
5166.68 2.21668
5167.34 1.53547
5168.01 1.11781
5168.67 0.846423
5169.34 0.662112
5170.67 0.436420
5171.99 0.310327
5173.32 0.236101
5174.65 0.207247
5174.98 0.220347
5175.32 0.275859
5175.65 0.594294
5175.73 0.906436
5175.81 1.71830
5175.86 2.73949
5175.90 5.09266
5175.92 7.74406
5175.94 13.1456
5175.95 18.4589
5175.96 26.4002
5175.97 39.8855
5175.98 63.3178
5175.99 103.140
5176.00 126.496
5176.01 99.2904
5176.02 63.3167
5176.03 45.6269
5176.03 35.0311
5176.05 21.1664
5176.06 13.9281
5176.07 10.0449
5176.10 5.68544
5176.12 3.71649
5176.17 1.95063
5176.22 1.23638
5176.33 0.655528
5176.43 0.436182
5176.83 0.203702
5177.24 0.152581
5177.65 0.130346
5179.27 0.0937895
5182.51 0.0628552
5185.76 0.0461781
5189.01 0.0357423
5195.50 0.0238052
5201.99 0.0175482
5208.49 0.0140566
5214.98 0.0125469
5218.23 0.0129629
5221.47 0.0159770
5223.09 0.0208958
5224.72 0.0354614
5225.53 0.0559220
5226.34 0.113551
5226.75 0.192644
5226.95 0.270658
5227.15 0.411095
5227.36 0.703708
5227.46 0.988297
5227.56 1.48407
5227.66 2.49093
5227.71 3.42960
5227.76 4.97494
5227.81 7.92415
5227.84 10.4138
5227.86 14.2568
5227.89 20.9314
5227.91 32.6259
5227.93 42.6536
5227.94 56.0995
5227.95 77.7811
5227.96 108.978
5227.98 175.318
5228.00 217.956
5228.02 175.317
5228.04 108.977
5228.05 70.1183
5228.07 47.6579
5228.09 33.2726
5228.10 24.7468
5228.14 14.8537
5228.17 9.94396
5228.20 7.03257
5228.23 5.22797
5228.30 3.22913
5228.36 2.17749
5228.43 1.57422
5228.56 0.929861
5228.69 0.614297
5228.82 0.436752
5229.08 0.255117
5229.61 0.120285
5230.13 0.0717351
5231.18 0.0363352
5232.22 0.0237081
5234.32 0.0144542
5236.41 0.0110582
5240.59 0.00839902
5244.78 0.00728692
5261.52 0.00576505
5295.01 0.00558920
5328.50 0.00744099
5345.24 0.00977252
5353.61 0.0122997
5357.80 0.0169237
5359.89 0.0317539
5360.94 0.0878580
5361.46 0.301909
5361.59 0.514896
5361.72 1.09154
5361.79 1.85325
5361.85 3.77751
5361.88 6.15998
5361.92 11.4639
5361.93 17.5245
5361.95 28.6863
5361.96 38.4430
5361.97 53.5630
5361.97 77.9308
5361.98 117.646
5361.99 192.165
5362.00 235.281
5362.01 184.245
5362.02 117.646
5362.03 81.9132
5362.03 58.5858
5362.04 43.3229
5362.05 34.3008
5362.06 22.1190
5362.07 15.3299
5362.10 8.37100
5362.13 5.32618
5362.18 2.66376
5362.23 1.60804
5362.34 0.763351
5362.44 0.449386
5362.65 0.213176
5362.86 0.127870
5363.71 0.0431143
5365.39 0.0218847
5368.76 0.0176843
5375.50 0.0197202
5382.24 0.0247955
5385.61 0.0306915
5387.30 0.0440533
5388.14 0.0906069
5388.56 0.265590
5388.67 0.440466
5388.77 0.908387
5388.83 1.52406
5388.88 3.05883
5388.91 4.99588
5388.93 9.29569
5388.95 13.8330
5388.96 22.5172
5388.97 41.7130
5388.98 62.2594
5388.98 93.8275
5388.99 148.164
5389.00 187.626
5389.01 148.164
5389.02 93.8276
5389.02 66.1875
5389.03 49.2195
5389.04 28.0370
5389.05 17.7447
5389.06 12.1419
5389.08 6.65717
5389.10 4.18471
5389.15 2.09335
5389.19 1.27086
5389.28 0.612114
5389.37 0.368546
5389.72 0.119406
5390.41 0.0547182
5391.81 0.0397916
5394.61 0.0399514
5400.20 0.0509416
5405.80 0.0698048
5411.39 0.102371
5412.79 0.114170
5414.19 0.128153
5415.59 0.144888
5416.99 0.165122
5417.69 0.176885
5418.39 0.189928
5419.09 0.204464
5419.79 0.220727
5421.18 0.259644
5422.58 0.309668
5423.98 0.375460
5425.38 0.464061
5426.78 0.587121
5428.18 0.763793
5429.58 1.02819
5430.97 1.44125
5432.37 2.11527
5433.77 3.22854
5435.39 5.16542
5437.00 6.45525
5437.81 6.07353
5438.62 5.16147
5440.23 3.22475
5441.66 2.09340
5443.09 1.41659
5444.52 1.00530
5445.95 0.744190
5448.80 0.449817
5451.66 0.299220
5454.52 0.212811
5457.38 0.158988
5463.09 0.0985314
5468.80 0.0675223
5474.52 0.0505135
5477.38 0.0459866
5480.23 0.0461821
5481.66 0.0514407
5482.38 0.0578753
5483.09 0.0705150
5483.81 0.0986378
5484.16 0.126920
5484.52 0.178408
5484.88 0.286881
5485.06 0.393059
5485.23 0.580507
5485.41 0.964616
5485.50 1.32480
5485.59 1.93999
5485.68 3.13842
5485.73 4.20519
5485.77 5.87073
5485.82 8.82492
5485.86 14.4114
5485.88 19.5639
5485.90 27.2796
5485.93 39.7390
5485.94 48.7070
5485.95 60.0934
5485.96 76.9115
5485.97 96.1321
5486.00 120.157
5486.01 113.091
5486.03 96.1312
5486.05 60.0925
5486.07 41.2082
5486.09 29.5983
5486.11 21.6473
5486.13 16.5977
5486.17 10.4177
5486.21 7.09455
5486.25 5.12643
5486.29 3.87222
5486.36 2.44360
5486.44 1.67529
5486.52 1.22639
5486.67 0.740644
5486.83 0.498370
5486.98 0.361950
5487.14 0.277108
5487.29 0.220765
5487.61 0.152731
5487.92 0.114964
5488.54 0.0763265
5489.16 0.0578305
5489.78 0.0474288
5491.02 0.0364821
5493.50 0.0273916
5495.99 0.0231541
5505.92 0.0155695
5515.85 0.0117807
5525.79 0.00933762
5545.65 0.00638372
5565.52 0.00471200
5605.25 0.00299379
5625.12 0.00259846
5635.05 0.00277470
5640.02 0.00415075
5642.50 0.00991022
5643.74 0.0327679
5644.36 0.121714
5644.67 0.456471
5644.75 0.785845
5644.83 1.64307
5644.87 2.73985
5644.91 5.43763
5644.93 8.66878
5644.95 15.2617
5644.96 22.0840
5644.97 32.6851
5644.98 54.9438
5644.98 94.5408
5644.99 151.265
5645.00 189.081
5645.01 151.265
5645.02 94.5409
5645.02 61.6630
5645.03 41.8739
5645.04 29.7890
5645.04 22.0841
5645.06 13.3733
5645.07 9.14009
5645.10 4.81508
5645.13 3.00262
5645.18 1.46816
5645.24 0.867226
5645.35 0.405586
5645.46 0.234619
5645.90 0.0625214
5646.77 0.0174775
5648.53 0.00595130
5652.05 0.00299582
5659.08 0.00217299
5673.14 0.00183025
5701.26 0.00154152
5757.50 0.00123785
5813.74 0.00109753
5841.86 0.00108363
5855.92 0.00115427
5862.95 0.00146520
5866.47 0.00270761
5868.23 0.00762876
5869.11 0.0269244
5869.55 0.100860
5869.77 0.374035
5869.88 1.30503
5869.90 2.14505
5869.93 4.02576
5869.96 9.90321
5869.97 19.1346
5869.98 28.5660
5869.98 43.0567
5869.99 67.9988
5870.00 86.1128
5870.01 67.9988
5870.02 43.0567
5870.03 23.9111
5870.04 14.1203
5870.06 6.33693
5870.08 3.52831
5870.10 2.23394
5870.17 0.678997
5870.33 0.188338
5870.65 0.0502928
5871.28 0.0136763
5872.55 0.00424484
5875.08 0.00185488
5880.14 0.00125608
5890.26 0.00111652
5910.49 0.00114070
5930.73 0.00145137
5940.85 0.00266735
5945.91 0.00746880
5948.44 0.0264179
5949.08 0.0458413
5949.71 0.100337
5950.02 0.174968
5950.34 0.380998
5950.50 0.656957
5950.66 1.39305
5950.74 2.33636
5950.78 3.22696
5950.81 4.68905
5950.85 7.50789
5950.87 9.96118
5950.89 13.5698
5950.91 19.8831
5950.93 31.5273
5950.94 41.2542
5950.95 55.6560
5950.96 77.5119
5950.97 107.850
5950.99 171.630
5951.00 215.315
5951.01 171.629
5951.03 107.462
5951.04 72.3692
5951.05 49.1842
5951.06 34.9867
5951.08 25.9272
5951.10 15.6853
5951.12 10.4293
5951.15 7.40977
5951.17 5.52570
5951.22 3.40343
5951.27 2.30198
5951.32 1.65917
5951.41 0.982911
5951.60 0.457619
5951.79 0.264420
5952.18 0.120903
5952.56 0.0693647
5954.09 0.0184664
5957.15 0.00546857
5963.27 0.00219459
5975.51 0.00139503
6000.00 0.00126397
6024.49 0.00139930
6036.73 0.00181519
6042.85 0.00333097
6045.91 0.00925090
6047.44 0.0324015
6048.21 0.121240
6048.40 0.210066
6048.59 0.449507
6048.69 0.764311
6048.78 1.56237
6048.83 2.54447
6048.88 4.83140
6048.90 7.30590
6048.93 12.1865
6048.94 16.5607
6048.95 23.5108
6048.96 35.0782
6048.97 53.6035
6048.99 86.4118
6049.00 107.208
6049.01 86.4115
6049.03 53.6033
6049.04 30.5268
6049.06 18.5155
6049.07 12.1866
6049.09 8.73163
6049.12 4.98628
6049.15 3.20448
6049.21 1.62044
6049.28 0.980634
6049.40 0.467521
6049.53 0.272789
6049.78 0.126251
6050.03 0.0728460
6051.03 0.0197177
6053.03 0.00603505
6057.02 0.00257743
6065.02 0.00174492
6081.01 0.00162835
6113.00 0.00186078
6144.99 0.00235021
6160.98 0.00299194
6168.98 0.00459257
6172.98 0.0103700
6174.98 0.0328405
6175.98 0.120186
6176.23 0.208280
6176.48 0.451111
6176.60 0.775720
6176.73 1.63884
6176.79 2.75312
6176.85 5.46865
6176.88 8.61634
6176.91 15.4158
6176.93 22.4411
6176.95 34.1246
6176.95 44.1223
6176.96 58.5975
6176.97 79.9466
6176.98 106.664
6176.99 170.663
6177.00 213.329
6177.01 170.662
6177.02 106.664
6177.04 65.6402
6177.05 44.1224
6177.06 31.1889
6177.07 23.0257
6177.09 13.8758
6177.11 9.21030
6177.16 4.81390
6177.20 2.97228
6177.29 1.44411
6177.38 0.850445
6177.56 0.396805
6177.74 0.230113
6178.09 0.106094
6178.45 0.0616702
6179.87 0.0179040
6182.71 0.00680361
6188.39 0.00414957
6199.76 0.00383740
6222.50 0.00478980
6245.23 0.00680043
6256.60 0.00917231
6262.29 0.0140425
6265.13 0.0303347
6266.55 0.0922431
6266.91 0.154842
6267.26 0.327499
6267.44 0.560160
6267.62 1.17913
6267.70 1.98018
6267.75 2.73959
6267.79 3.99793
6267.84 6.44039
6267.86 8.52761
6267.88 11.7956
6267.90 17.2971
6267.93 27.4850
6267.94 36.0413
6267.95 48.7938
6267.96 68.3556
6267.97 100.193
6267.99 159.216
6268.00 200.380
6268.02 159.216
6268.03 100.193
6268.04 70.5966
6268.05 51.7467
6268.06 39.0157
6268.07 30.2279
6268.09 19.0636
6268.11 13.2281
6268.13 9.54099
6268.15 7.28286
6268.19 4.58404
6268.23 3.14443
6268.28 2.28927
6268.36 1.36870
6268.52 0.650199
6268.68 0.381909
6269.01 0.180420
6269.34 0.107389
6269.99 0.0541079
6270.65 0.0352177
6273.26 0.0172114
6278.50 0.0138868
6288.97 0.0164841
6299.43 0.0222525
6309.90 0.0324921
6312.52 0.0362346
6315.13 0.0406877
6317.75 0.0460408
6320.37 0.0525508
6321.68 0.0563472
6322.99 0.0605730
6324.29 0.0653023
6325.60 0.0706092
6328.22 0.0833861
6330.84 0.0999773
6333.45 0.122056
6336.07 0.152265
6338.69 0.195008
6341.30 0.257980
6343.92 0.355358
6346.54 0.514710
6347.85 0.633261
6349.15 0.791212
6350.46 1.00307
6351.77 1.28470
6354.39 2.05357
6357.00 2.56479
6359.62 2.05142
6362.23 1.28268
6364.02 0.916759
6365.80 0.670194
6367.59 0.504190
6369.37 0.389980
6372.94 0.250432
6376.51 0.173224
6380.08 0.126618
6383.65 0.0965447
6390.79 0.0615735
6397.93 0.0429000
6405.07 0.0318367
6419.36 0.0200521
6433.64 0.0143917
6447.92 0.0114308
6476.48 0.00934285
6505.04 0.0106248
6519.32 0.0129216
6533.61 0.0173941
6547.89 0.0265801
6551.46 0.0303063
6553.24 0.0325078
6555.03 0.0349837
6556.81 0.0377803
6558.60 0.0409534
6560.38 0.0445718
6562.17 0.0487205
6563.95 0.0535082
6565.74 0.0590629
6567.52 0.0655564
6569.31 0.0732062
6571.09 0.0822947
6572.88 0.0931930
6574.66 0.106396
6576.45 0.122569
6578.24 0.142637
6580.02 0.167841
6581.81 0.199960
6583.59 0.241494
6585.38 0.295969
6587.16 0.368264
6588.95 0.464733
6590.73 0.592279
6594.37 0.946156
6598.00 1.18138
6599.82 1.11159
6601.64 0.944977
6605.27 0.591389
6607.48 0.438736
6609.69 0.331324
6614.11 0.203721
6618.53 0.144861
6619.64 0.142578
6620.74 0.158871
6621.29 0.190636
6621.57 0.224267
6621.85 0.286588
6622.12 0.419354
6622.26 0.548252
6622.40 0.775629
6622.54 1.23284
6622.61 1.65731
6622.67 2.37099
6622.74 3.70597
6622.81 6.63543
6622.85 9.64833
6622.88 14.9514
6622.90 19.5836
6622.92 25.9978
6622.93 35.5120
6622.95 49.6014
6622.96 64.0736
6622.98 79.3058
6623.00 99.1085
6623.03 79.3050
6623.05 49.6001
6623.08 28.4115
6623.11 17.8381
6623.14 11.8818
6623.16 8.51262
6623.19 6.31916
6623.22 4.91291
6623.28 3.21544
6623.33 2.26106
6623.39 1.69153
6623.50 1.05846
6623.62 0.734926
6623.73 0.550564
6623.96 0.356935
6624.18 0.262015
6624.41 0.208648
6624.86 0.152877
6625.77 0.108994
6626.67 0.0906247
6628.49 0.0727287
6630.30 0.0625626
6637.54 0.0407451
6644.79 0.0293113
6652.03 0.0222251
6666.52 0.0141725
6681.01 0.00993055
6695.50 0.00743588
6709.99 0.00589763
6724.48 0.00523607
6728.11 0.00547178
6731.73 0.00656799
6735.35 0.0133454
6737.16 0.0406512
6738.07 0.146725
6738.30 0.253531
6738.52 0.544576
6738.64 0.929342
6738.75 1.93532
6738.81 3.20816
6738.86 6.21106
6738.89 9.72998
6738.92 16.8328
6738.93 23.5497
6738.95 34.8669
6738.96 55.3716
6738.97 97.3553
6738.99 153.607
6739.00 194.324
6739.01 153.607
6739.03 96.9703
6739.03 69.0781
6739.04 49.8271
6739.05 37.0789
6739.06 28.4280
6739.08 18.0147
6739.10 12.5768
6739.13 6.86311
6739.17 4.34679
6739.24 2.16667
6739.31 1.29278
6739.45 0.611041
6739.59 0.356707
6739.88 0.165513
6740.16 0.0961633
6741.29 0.0273877
6743.56 0.00963877
6748.09 0.00498773
6752.62 0.00399034
6757.15 0.00354781
6775.27 0.00277872
6811.51 0.00211102
6847.75 0.00183331
6865.87 0.00185410
6874.93 0.00212051
6879.46 0.00317074
6881.72 0.00730444
6882.85 0.0235796
6883.42 0.0866618
6883.70 0.323809
6883.84 1.16929
6883.88 1.96288
6883.92 3.85347
6883.93 6.09251
6883.95 10.5504
6883.97 23.0908
6883.98 38.3997
6883.99 65.8829
6883.99 107.544
6884.00 131.765
6884.01 107.544
6884.01 65.8829
6884.02 40.8627
6884.03 25.6527
6884.05 12.7847
6884.06 7.51092
6884.08 4.90831
6884.11 2.50466
6884.14 1.53367
6884.26 0.431066
6884.50 0.115916
6884.99 0.0312268
6885.96 0.00927229
6887.91 0.00369948
6891.80 0.00231675
6899.58 0.00203167
6915.15 0.00217779
6930.72 0.00260913
6946.28 0.00348320
6961.85 0.00542020
6969.63 0.00735784
6977.42 0.0108618
6981.31 0.0137793
6985.20 0.0181749
6989.09 0.0252385
6992.98 0.0376424
6996.88 0.0624902
6998.82 0.0854867
7000.77 0.124042
7001.74 0.153892
7002.23 0.173023
7002.71 0.195870
7003.20 0.223566
7003.69 0.257410
7004.17 0.299505
7004.66 0.352454
7005.15 0.420502
7005.63 0.509325
7006.12 0.628360
7006.61 0.791209
7007.09 1.02101
7007.58 1.35267
7008.06 1.84207
7008.55 2.56262
7009.28 4.09952
7010.00 5.12355
7010.36 4.82107
7010.73 4.09842
7011.45 2.56156
7012.21 1.54580
7012.96 0.990678
7013.72 0.676705
7014.47 0.487384
7015.23 0.366130
7015.99 0.284414
7017.50 0.185184
7019.01 0.129850
7020.52 0.0960042
7023.55 0.0585744
7026.57 0.0394755
7029.59 0.0284476
7032.62 0.0215132
7035.64 0.0168721
7041.69 0.0112400
7047.74 0.00808191
7053.79 0.00613414
7059.83 0.00484774
7071.93 0.00330514
7084.03 0.00244785
7108.22 0.00157232
7132.41 0.00115443
7156.60 0.000929275
7180.79 0.000841912
7192.89 0.000996623
7198.94 0.00175850
7201.96 0.00482982
7203.47 0.0169846
7204.23 0.0644901
7204.61 0.245852
7204.80 0.906413
7204.84 1.52344
7204.89 3.06994
7204.91 4.95673
7204.94 8.97668
7204.95 13.2746
7204.96 21.3420
7204.97 38.5018
7204.98 54.4105
7204.98 74.0704
7204.99 118.513
7205.00 148.141
7205.01 118.513
7205.02 74.0704
7205.02 51.2489
7205.03 36.4658
7205.04 21.3421
7205.05 13.7611
7205.06 9.53647
7205.08 5.18723
7205.11 3.30074
7205.15 1.64551
7205.20 0.981382
7205.38 0.269919
7205.73 0.0710852
7206.45 0.0187119
7207.89 0.00527366
7210.76 0.00187461
7216.50 0.00104088
7227.99 0.000985630
7239.48 0.00194044
7245.22 0.00596364
7248.10 0.0219057
7248.81 0.0382244
7249.53 0.0840538
7249.89 0.146805
7250.25 0.319989
7250.43 0.552813
7250.61 1.16982
7250.70 1.96404
7250.74 2.70273
7250.79 3.91150
7250.83 6.21331
7250.86 8.24952
7250.88 11.2717
7250.90 16.5327
7250.92 25.6539
7250.95 43.7625
7250.96 59.5171
7250.97 82.6630
7250.98 133.860
7251.00 165.329
7251.02 130.654
7251.03 82.6626
7251.04 61.2794
7251.05 46.1875
7251.07 28.7007
7251.09 19.2147
7251.11 13.6510
7251.13 10.1549
7251.15 7.83061
7251.19 5.04573
7251.22 3.51245
7251.26 2.58237
7251.34 1.56159
7251.49 0.747030
7251.64 0.436231
7251.95 0.201503
7252.25 0.115711
7252.86 0.0526445
7253.47 0.0301400
7255.90 0.00805636
7260.77 0.00245220
7270.51 0.00109682
7280.24 0.00123046
7285.11 0.00279902
7287.54 0.00922280
7288.76 0.0344328
7289.37 0.130724
7289.67 0.481868
7289.75 0.812941
7289.82 1.65043
7289.86 2.65381
7289.90 4.92271
7289.92 7.29447
7289.94 11.7781
7289.96 21.4673
7289.97 31.2661
7289.98 45.1892
7289.99 72.3029
7290.00 90.3789
7290.01 72.3027
7290.02 45.1891
7290.04 25.7714
7290.05 15.8716
7290.08 7.46287
7290.11 4.25360
7290.14 2.73008
7290.19 1.39100
7290.25 0.845876
7290.47 0.236633
7290.91 0.0628526
7291.80 0.0165676
7293.58 0.00461684
7297.14 0.00156902
7304.26 0.000786554
7318.50 0.000607873
7332.74 0.000781434
7339.86 0.00157196
7343.42 0.00461590
7345.20 0.0165016
7346.09 0.0625504
7346.53 0.235844
7346.75 0.846121
7346.81 1.40898
7346.87 2.74797
7346.89 4.29607
7346.92 7.57768
7346.95 16.2590
7346.96 26.5575
7346.98 44.8387
7346.99 71.7421
7347.00 89.6777
7347.01 71.7419
7347.02 44.8386
7347.04 26.5575
7347.05 17.3514
7347.07 8.74799
7347.10 5.07463
7347.12 3.34173
7347.17 1.73300
7347.22 1.06486
7347.41 0.301019
7347.80 0.0805027
7348.58 0.0212905
7350.14 0.00595442
7353.26 0.00215728
7359.50 0.00173682
7365.73 0.00464354
7368.85 0.0168507
7370.41 0.0646773
7370.80 0.113133
7371.19 0.247379
7371.38 0.428005
7371.58 0.913155
7371.68 1.54512
7371.77 3.12544
7371.82 5.03565
7371.85 6.67101
7371.87 9.23361
7371.90 13.7944
7371.92 22.0523
7371.93 29.0453
7371.94 39.5544
7371.96 55.8513
7371.97 83.4210
7371.98 131.979
7372.00 166.578
7372.02 131.979
7372.03 83.1541
7372.04 57.5709
7372.05 41.7900
7372.07 31.2734
7372.08 24.0903
7372.10 15.3747
7372.12 10.5794
7372.14 7.59269
7372.17 5.76850
7372.21 3.64302
7372.30 1.81229
7372.39 1.07954
7372.57 0.508461
7372.74 0.295373
7373.10 0.135251
7373.45 0.0774430
7374.87 0.0201082
7377.72 0.00537887
7383.40 0.00162973
7394.77 0.000665924
7417.51 0.000411483
7440.25 0.000420074
7451.61 0.000696111
7457.30 0.00186037
7460.14 0.00650902
7461.56 0.0248430
7462.27 0.0961771
7462.63 0.364948
7462.72 0.628288
7462.81 1.32658
7462.85 2.22908
7462.89 4.40250
7462.92 6.89893
7462.94 12.2267
7462.95 17.4383
7462.96 26.5532
7462.97 43.9864
7462.98 60.2455
7462.98 80.6999
7462.99 128.392
7463.00 161.400
7463.01 128.392
7463.02 80.6999
7463.03 51.3096
7463.03 34.5676
7463.05 18.0641
7463.07 10.8866
7463.08 7.22438
7463.12 3.75588
7463.15 2.31971
7463.21 1.12385
7463.28 0.660321
7463.54 0.176442
7464.06 0.0458799
7465.10 0.0118749
7467.17 0.00320712
7471.33 0.00101595
7479.64 0.000459262
7496.26 0.000310217
7529.50 0.000264367
7562.74 0.000293991
7579.36 0.000496169
7587.67 0.00133321
7591.82 0.00467499
7593.90 0.0178939
7594.94 0.0695394
7595.46 0.266076
7595.59 0.460349
7595.72 0.981614
7595.78 1.65464
7595.85 3.35195
7595.88 5.42169
7595.91 9.93158
7595.93 14.5637
7595.95 23.1438
7595.96 41.1161
7595.97 57.6652
7595.98 86.2985
7595.99 136.123
7596.00 172.598
7596.01 136.122
7596.02 86.2984
7596.03 60.2974
7596.04 42.8099
7596.05 23.9034
7596.07 14.9521
7596.08 10.3815
7596.12 5.69886
7596.15 3.58068
7596.21 1.78306
7596.27 1.06274
7596.40 0.498297
7596.52 0.289074
7597.02 0.0756808
7598.01 0.0194978
7600.00 0.00508036
7600.00 0.231254
8000.00 0.223909
9000.00 0.207778
10000.0 0.194185
12500.0 0.167901
15000.0 0.148875
17000.0 0.137057
20000.0 0.123187
20000.0 0.123187
20000.0 0.123187
25000.0 0.106767
30000.0 0.0955116
35000.0 0.0873970
40000.0 0.0813275
50000.0 0.0729032
60000.0 0.0673289
70000.0 0.0633090
80000.0 0.0604623
90000.0 0.0598169
100000 0.0580957
125000 0.0543002
150000 0.0515824
170000 0.0498098
200000 0.0478223
250000 0.0455662
300000 0.0442583
350000 0.0439199
400000 0.0437974
456000 0.0435685
456970 0.0435646
456970 0.0435011
456997 0.0434981
456998 0.0434980
500000 0.0387190
600000 0.0329583
693000 0.0320729
693000 0.0320729
700000 0.0320062
800000 0.0320451
900000 0.0327186
921829 0.0327954
921829 0.0327954
1.00000E+06 0.0330705
1.05038E+06 0.0318682
1.05038E+06 0.0318682
1.10000E+06 0.0306841
1.19773E+06 0.0294227
1.19773E+06 0.0294227
1.20000E+06 0.0293934
1.30000E+06 0.0255998
1.31221E+06 0.0252792
1.38627E+06 0.0233348
1.38627E+06 0.0233348
1.40000E+06 0.0229743
1.48077E+06 0.0213935
1.48077E+06 0.0213934
1.50000E+06 0.0210170
1.52819E+06 0.0207434
1.52819E+06 0.0207434
1.60000E+06 0.0200465
1.61378E+06 0.0200083
1.70000E+06 0.0197692
1.70883E+06 0.0197052
1.70883E+06 0.0197052
1.75716E+06 0.0193550
1.75716E+06 0.0193550
1.78193E+06 0.0191755
1.78194E+06 0.0191755
1.78949E+06 0.0191208
1.78949E+06 0.0191208
1.79241E+06 0.0190996
1.79241E+06 0.0190996
1.79976E+06 0.0190464
1.79976E+06 0.0190463
1.80000E+06 0.0190446
1.82453E+06 0.0184644
1.82453E+06 0.0184643
1.84668E+06 0.0179403
1.84668E+06 0.0179403
1.89773E+06 0.0167326
1.89773E+06 0.0167326
1.90000E+06 0.0166789
1.91857E+06 0.0164422
1.91857E+06 0.0164421
1.93217E+06 0.0162688
1.93217E+06 0.0162688
1.99161E+06 0.0155110
1.99161E+06 0.0155109
2.00000E+06 0.0154040
2.00305E+06 0.0153824
2.00305E+06 0.0153824
2.50000E+06 0.0118677
3.00000E+06 0.00946616
3.41142E+06 0.00812557
3.42374E+06 0.00808543
3.44671E+06 0.00801058
3.49921E+06 0.00783951
3.50000E+06 0.00783694
3.51300E+06 0.00779867
3.54586E+06 0.00770195
4.00000E+06 0.00636514
5.00000E+06 0.00375163
6.00000E+06 0.00213326
6.02839E+06 0.00210754
7.00000E+06 0.00122731
7.60000E+06 0.000906405
7.61730E+06 0.000899748
7.61730E+06 0.000899747
7.70000E+06 0.000867913
8.00000E+06 0.000772085
8.64837E+06 0.000618589
9.00000E+06 0.000535344
1.00000E+07 0.000599171
1.10000E+07 0.000791294
1.20000E+07 0.000937794
1.30000E+07 0.00103072
1.34131E+07 0.00102977
1.40000E+07 0.00102843
1.45000E+07 0.000960774
1.50000E+07 0.000884899
1.56434E+07 0.000760245
1.60000E+07 0.000691156
1.70000E+07 0.000511711
1.80000E+07 0.000373454
1.90000E+07 0.000266458
2.00000E+07 0.000201049