Nd-148(n,g) ENDF/B-VII.1
Energy(eV) XS(b)
1.00000E-05 129.936
1.25000E-05 116.218
1.50000E-05 106.092
2.00000E-05 91.8785
2.75000E-05 78.3543
3.50000E-05 69.4536
4.25000E-05 63.0281
5.00000E-05 58.1091
6.25000E-05 51.9743
7.50000E-05 47.4459
0.000100000 41.0893
0.000125000 36.7514
0.000150000 33.5493
0.000200000 29.0546
0.000275000 24.7778
0.000350000 21.9632
0.000425000 19.9313
0.000500000 18.3758
0.000625000 16.4358
0.000750000 15.0038
0.00100000 12.9937
0.00125000 11.6219
0.00150000 10.6093
0.00200000 9.18796
0.00275000 7.83556
0.00350000 6.94551
0.00425000 6.30298
0.00500000 5.81108
0.00625000 5.19763
0.00750000 4.74480
0.0100000 4.10918
0.0125000 3.67542
0.0150000 3.35524
0.0200000 2.90581
0.0253000 2.58366
0.0314750 2.31649
0.0376500 2.11810
0.0500000 1.83813
0.0625000 1.64420
0.0750000 1.50106
0.100000 1.30015
0.125000 1.16307
0.150000 1.06190
0.200000 0.919911
0.275000 0.784864
0.350000 0.696028
0.500000 0.582877
0.750000 0.476652
1.00000 0.413434
1.50000 0.338622
2.00000 0.294180
2.75000 0.252076
3.50000 0.224523
5.00000 0.189705
7.50000 0.157536
10.0000 0.138853
15.0000 0.117685
20.0000 0.106109
27.5000 0.0967042
35.0000 0.0923225
50.0000 0.0920566
72.4439 0.108544
83.6659 0.127429
89.2769 0.142851
92.0824 0.159239
93.4851 0.196605
93.8358 0.231575
94.0112 0.265920
94.1865 0.328136
94.3619 0.460068
94.4495 0.590461
94.5372 0.826129
94.6249 1.32085
94.6687 1.80321
94.7125 2.66019
94.7345 3.36364
94.7564 4.41019
94.7783 6.06443
94.8002 8.90205
94.8221 14.3861
94.8331 19.2692
94.8440 27.1212
94.8550 40.8591
94.8660 67.8630
94.8714 91.9882
94.8769 130.216
94.8824 193.674
94.8879 300.613
94.8939 481.026
94.9000 601.035
94.9061 480.738
94.9121 300.650
94.9171 201.348
94.9221 139.600
94.9270 100.853
94.9320 75.6363
94.9420 46.5408
94.9519 31.3185
94.9618 22.4464
94.9718 16.8599
94.9916 10.5140
95.0115 7.19078
95.0314 5.24160
95.0513 4.00162
95.0711 3.16549
95.1109 2.14258
95.1506 1.56489
95.1904 1.20720
95.2301 0.970531
95.3096 0.686790
95.3891 0.529736
95.5481 0.371138
95.7071 0.296852
95.8661 0.256362
96.1841 0.216337
96.8201 0.189033
97.4561 0.181060
100.000 0.181879
101.705 0.188660
102.557 0.192701
103.409 0.197075
104.262 0.201760
105.114 0.206744
105.967 0.212031
106.819 0.217627
107.671 0.223547
108.524 0.229806
110.228 0.243431
111.933 0.258701
113.638 0.275869
115.342 0.295252
117.047 0.317236
120.456 0.371060
123.866 0.442891
127.275 0.541817
130.684 0.683565
134.094 0.897268
137.503 1.24202
139.208 1.50014
140.913 1.85318
142.617 2.35444
144.322 3.10058
146.027 4.28213
147.731 6.31817
148.584 7.93958
149.436 10.2829
150.288 13.8472
151.141 19.6410
151.993 29.9517
152.419 38.3790
152.845 50.7904
153.272 69.9881
153.698 101.399
154.124 155.925
154.550 253.243
154.975 404.108
155.400 503.127
155.825 401.298
156.250 250.529
156.754 141.483
157.259 86.5338
157.763 57.2683
158.267 40.3404
158.772 29.8132
159.276 22.8704
160.285 14.6226
161.293 10.1224
162.302 7.41080
164.319 4.45611
166.336 2.97129
168.353 2.12453
170.371 1.60303
171.379 1.43794
171.884 1.45982
172.010 1.54594
172.136 1.81781
172.199 2.19719
172.230 2.56653
172.262 3.21730
172.293 4.52109
172.309 5.73049
172.325 7.73953
172.341 11.4894
172.349 14.6910
172.356 19.5390
172.364 27.5685
172.372 41.8519
172.380 69.8439
172.384 93.5073
172.388 127.704
172.394 203.541
172.400 254.083
172.406 203.546
172.412 127.709
172.418 80.2674
172.424 53.1897
172.430 37.3488
172.436 27.5637
172.448 16.8328
172.459 11.4759
172.471 8.44963
172.483 6.58199
172.507 4.49866
172.530 3.42618
172.554 2.80269
172.601 2.14354
172.695 1.63194
172.790 1.43590
173.167 1.20314
173.922 1.06673
175.431 0.906789
178.450 0.691792
181.469 0.550365
182.979 0.498644
183.733 0.482242
184.111 0.498498
184.299 0.594501
184.347 0.690662
184.394 0.941191
184.417 1.25189
184.429 1.53155
184.441 1.98624
184.453 2.79451
184.465 4.42361
184.470 5.91833
184.476 8.35301
184.482 12.5477
184.488 19.7975
184.494 31.3805
184.500 39.0925
184.506 31.3812
184.512 19.7981
184.516 14.6110
184.520 11.0070
184.527 6.76053
184.535 4.56666
184.542 3.33544
184.550 2.56770
184.557 2.07188
184.573 1.48220
184.588 1.16070
184.603 0.969056
184.633 0.760224
184.694 0.594138
184.754 0.530349
184.996 0.460332
185.480 0.431212
186.448 0.404169
188.384 0.363899
192.256 0.304369
200.000 0.233677
213.222 0.187730
226.444 0.192972
233.055 0.212925
236.361 0.228423
239.666 0.248627
241.319 0.260858
242.972 0.274766
243.798 0.282427
244.624 0.290608
245.451 0.299354
245.864 0.303955
246.277 0.308716
246.690 0.313649
247.103 0.318763
247.517 0.324069
247.930 0.329583
248.756 0.341312
249.583 0.354209
250.409 0.368914
251.235 0.387795
252.062 0.429276
252.268 0.460258
252.475 0.539899
252.578 0.644834
252.630 0.746829
252.681 0.927976
252.733 1.30087
252.759 1.65575
252.785 2.27089
252.811 3.47853
252.823 4.57281
252.836 6.36599
252.849 9.59312
252.856 12.2854
252.862 16.2331
252.869 22.5281
252.875 32.8786
252.882 51.6670
252.888 85.9500
252.894 137.729
252.900 171.497
252.906 136.828
252.912 85.9545
252.916 61.6777
252.920 45.5890
252.928 26.8537
252.936 17.4357
252.944 12.2395
252.953 9.04132
252.961 6.99208
252.977 4.57716
252.993 3.27841
253.009 2.50280
253.041 1.66389
253.073 1.24473
253.105 1.00607
253.170 0.759097
253.299 0.575807
253.427 0.510981
253.943 0.455120
254.973 0.461853
257.034 0.513077
259.096 0.580588
261.157 0.665419
263.218 0.773042
265.279 0.911989
267.340 1.09545
269.401 1.34442
271.462 1.69400
273.523 2.20624
275.585 2.99949
277.646 4.32199
278.676 5.34062
279.707 6.76629
280.737 8.84418
281.768 12.0282
282.798 17.2285
283.829 26.4291
284.344 33.8084
284.860 44.3323
285.375 59.6048
285.890 81.6702
286.695 130.452
287.500 162.513
288.305 129.516
289.110 80.7685
289.962 48.3374
290.813 30.7909
291.664 20.9383
292.516 15.0277
293.367 11.2562
294.219 8.72229
295.921 5.65519
297.624 3.95083
299.327 2.91130
302.733 1.76541
306.138 1.18301
309.544 0.847926
312.950 0.637939
316.355 0.497895
323.167 0.328892
329.978 0.235094
336.789 0.178181
343.601 0.141682
357.223 0.102579
370.846 0.0958348
377.657 0.112725
381.063 0.134452
384.468 0.177369
387.874 0.272689
389.577 0.368629
391.280 0.543473
392.131 0.690193
392.983 0.912954
393.834 1.27478
394.047 1.40073
394.260 1.54697
394.366 1.62919
394.473 1.71827
394.579 1.81505
394.685 1.92048
394.792 2.03570
394.898 2.16174
395.005 2.30011
395.111 2.45249
395.218 2.62098
395.324 2.80757
395.537 3.24697
395.750 3.80016
395.963 4.50927
396.175 5.43963
396.388 6.69211
396.601 8.43551
396.814 10.9595
397.027 14.8093
397.240 21.0825
397.346 25.8125
397.453 32.2906
397.559 41.4771
397.665 55.0496
397.772 76.1421
397.878 110.812
397.985 171.401
398.091 280.554
398.196 448.141
398.300 559.453
398.405 446.998
398.510 278.938
398.609 175.942
398.708 116.540
398.807 81.4486
398.907 59.6154
399.105 35.5065
399.303 23.3949
399.501 16.5240
399.699 12.2764
400.096 7.52964
400.492 5.08366
400.889 3.66327
401.285 2.76634
401.682 2.16455
402.475 1.43235
403.267 1.02099
404.060 0.767145
404.853 0.599554
406.439 0.398940
408.025 0.287908
409.611 0.219989
411.196 0.175362
414.368 0.122020
417.539 0.0923631
423.883 0.0617784
430.226 0.0467098
436.569 0.0379062
449.255 0.0281021
474.628 0.0193453
500.000 0.0155756
506.994 0.0157421
508.742 0.0165024
510.490 0.0189770
511.365 0.0225720
512.239 0.0329292
512.676 0.0473933
512.894 0.0618694
513.113 0.0883254
513.332 0.144855
513.441 0.200986
513.550 0.302688
513.659 0.517372
513.714 0.727447
513.769 1.10257
513.796 1.41325
513.823 1.87631
513.851 2.61311
513.878 3.88992
513.905 6.39423
513.919 8.67101
513.932 12.3692
513.946 19.0621
513.953 24.5450
513.960 32.6820
513.967 45.6282
513.973 66.8919
513.980 104.592
513.987 174.545
513.994 278.841
514.000 349.096
514.007 278.844
514.013 174.548
514.020 103.859
514.027 65.6907
514.034 44.4653
514.041 31.8196
514.048 23.7899
514.055 18.4126
514.069 11.9581
514.083 8.34888
514.097 6.15170
514.125 3.73858
514.153 2.50679
514.181 1.79975
514.209 1.35426
514.237 1.05760
514.292 0.697431
514.348 0.495941
514.460 0.290334
514.572 0.192884
514.684 0.139160
514.907 0.0850362
515.355 0.0457898
515.802 0.0318766
516.696 0.0218191
517.590 0.0182366
519.379 0.0155879
521.168 0.0145822
528.322 0.0133042
542.632 0.0125025
571.250 0.0122340
599.869 0.0135783
614.178 0.0152665
621.333 0.0167682
624.910 0.0187361
626.699 0.0240738
627.146 0.0292586
627.593 0.0437257
627.817 0.0636185
628.041 0.119175
628.152 0.194824
628.208 0.269057
628.264 0.401959
628.320 0.676529
628.348 0.940057
628.376 1.39733
628.404 2.30473
628.418 3.13391
628.432 4.49213
628.446 6.98072
628.453 9.06413
628.460 12.1512
628.467 17.1331
628.474 25.6501
628.481 41.3826
628.488 71.8358
628.494 114.951
628.500 143.627
628.506 114.952
628.512 71.8371
628.517 47.4142
628.523 32.4751
628.528 23.2490
628.533 17.3170
628.543 10.5551
628.554 7.05539
628.564 5.03324
628.575 3.76633
628.595 2.33352
628.616 1.58700
628.637 1.15022
628.679 0.686386
628.720 0.458411
628.762 0.329859
628.845 0.197769
629.011 0.0999224
629.178 0.0647131
629.511 0.0391528
629.843 0.0301338
631.175 0.0216122
633.837 0.0201406
639.162 0.0213953
649.811 0.0264111
660.460 0.0349712
671.109 0.0506434
676.434 0.0638065
681.758 0.0838028
684.421 0.0979380
685.752 0.106496
686.418 0.111230
687.083 0.116305
687.749 0.121758
688.414 0.127625
689.080 0.133949
689.745 0.140778
690.411 0.148170
691.077 0.156186
691.742 0.164899
692.408 0.174392
693.739 0.196120
695.070 0.222337
696.401 0.254373
697.732 0.294081
699.063 0.344124
700.395 0.408413
701.726 0.492918
703.057 0.607052
704.388 0.766444
705.719 0.998425
707.050 1.35448
708.381 1.94047
709.047 2.38608
709.713 3.00232
710.378 3.88626
711.044 5.21198
711.709 7.31328
712.375 10.8726
713.041 17.3595
713.373 22.5601
713.706 29.7114
714.303 47.4957
714.900 59.2947
715.498 47.3779
716.095 29.5883
716.589 19.7386
717.082 13.6429
717.576 9.83185
718.070 7.35839
719.057 4.51247
720.044 3.02650
721.031 2.16307
722.018 1.62018
723.993 1.00415
725.967 0.682237
727.942 0.493598
729.916 0.373798
731.891 0.293062
735.839 0.194463
739.788 0.138899
743.737 0.104578
747.686 0.0819422
755.584 0.0550215
763.481 0.0406573
771.379 0.0346070
773.354 0.0359835
775.328 0.0431736
776.315 0.0545853
776.809 0.0663636
777.302 0.0882021
777.796 0.135308
778.043 0.182342
778.290 0.268022
778.413 0.340054
778.536 0.449757
778.660 0.628774
778.783 0.950554
778.845 1.21765
778.907 1.61944
778.968 2.26425
779.030 3.39558
779.092 5.65844
779.123 7.75443
779.153 11.2527
779.184 17.7806
779.200 23.3466
779.215 31.9210
779.223 38.1287
779.231 46.1425
779.238 56.8366
779.246 71.4584
779.250 80.9521
779.254 91.9808
779.258 105.566
779.261 121.543
779.265 141.429
779.269 164.975
779.277 229.121
779.283 293.722
779.288 366.892
779.300 458.210
779.306 431.365
779.312 366.885
779.323 229.113
779.335 143.120
779.346 93.9031
779.357 65.1839
779.368 47.4784
779.380 35.9565
779.391 28.0995
779.414 18.4754
779.436 13.0157
779.459 9.66306
779.504 5.91621
779.549 3.98740
779.594 2.87175
779.639 2.16800
779.684 1.69598
779.775 1.12163
779.865 0.799590
779.955 0.600948
780.045 0.469865
780.226 0.313023
780.406 0.226388
780.587 0.173531
780.767 0.138930
781.128 0.0978031
781.489 0.0752032
782.211 0.0523884
782.933 0.0415711
783.655 0.0355195
785.098 0.0291666
787.986 0.0238894
790.873 0.0214147
802.423 0.0170853
813.973 0.0154053
825.523 0.0153341
837.073 0.0175953
842.848 0.0205565
848.623 0.0264010
854.398 0.0393881
857.286 0.0525070
860.173 0.0765619
861.617 0.0968871
863.061 0.127975
864.504 0.179000
865.948 0.271473
866.670 0.348878
867.392 0.466291
867.753 0.549224
868.114 0.656882
868.294 0.723206
868.475 0.800202
868.655 0.890393
868.836 0.996848
869.016 1.12387
869.197 1.27702
869.377 1.46399
869.558 1.69534
869.738 1.98663
869.918 2.36002
870.099 2.84998
870.279 3.50958
870.460 4.42789
870.640 5.75833
870.821 7.78725
871.001 11.0939
871.092 13.5883
871.182 17.0047
871.272 21.8509
871.362 29.0137
871.452 40.1535
871.543 58.4769
871.633 90.5401
871.723 148.424
871.812 237.458
871.900 296.783
871.989 237.399
872.077 148.367
872.141 103.806
872.206 74.5375
872.270 55.2849
872.334 42.2843
872.463 26.7101
872.591 18.2587
872.720 13.2166
872.848 9.99146
873.106 6.26665
873.363 4.28813
873.620 3.11604
873.877 2.36587
874.134 1.85733
874.648 1.23232
875.162 0.877628
875.677 0.657278
876.191 0.511125
877.219 0.335449
878.248 0.237936
879.276 0.178272
880.304 0.139140
882.361 0.0926421
884.418 0.0671489
886.475 0.0517076
888.532 0.0416885
892.645 0.0300970
896.759 0.0245926
898.816 0.0237946
900.873 0.0260019
901.901 0.0307555
902.929 0.0456817
903.444 0.0670489
903.701 0.0885685
903.958 0.128042
904.215 0.212566
904.344 0.296678
904.472 0.449364
904.601 0.772451
904.665 1.08981
904.729 1.65733
904.761 2.12833
904.793 2.83246
904.826 3.96134
904.858 5.92365
904.890 9.82370
904.906 13.3949
904.922 19.2648
904.938 30.0500
904.946 39.0440
904.954 52.6203
904.962 74.6735
904.970 112.183
904.978 181.958
904.986 320.615
904.993 511.680
905.000 641.009
905.007 511.681
905.014 320.385
905.020 212.356
905.025 145.757
905.031 104.501
905.037 77.9146
905.049 47.5407
905.060 31.7874
905.072 22.6729
905.083 16.9574
905.107 10.4880
905.130 7.11472
905.153 5.14000
905.176 3.88657
905.199 3.04200
905.246 2.01037
905.292 1.42848
905.339 1.06846
905.385 0.830786
905.478 0.545219
905.570 0.387285
905.756 0.227455
905.941 0.152269
906.127 0.111029
906.498 0.0695994
907.240 0.0395355
907.982 0.0287591
909.466 0.0207152
910.950 0.0176206
916.887 0.0137553
928.760 0.0119423
952.507 0.0123249
976.254 0.0160681
988.127 0.0200606
1000.00 0.0270953
1013.21 0.0432254
1019.81 0.0590423
1021.46 0.0645539
1023.11 0.0709572
1023.94 0.0745611
1024.76 0.0784660
1025.59 0.0827117
1026.00 0.0849778
1026.41 0.0873393
1027.24 0.0924025
1028.06 0.0979439
1028.89 0.104041
1029.71 0.110755
1030.54 0.118189
1031.36 0.126430
1033.01 0.145881
1034.66 0.170462
1036.31 0.202106
1037.97 0.243862
1039.62 0.300467
1041.27 0.379996
1042.92 0.496606
1044.57 0.677376
1046.22 0.978959
1047.04 1.21180
1047.87 1.53767
1048.69 2.01304
1049.52 2.74242
1050.35 3.93710
1051.17 6.05308
1051.58 7.75528
1052.00 10.1802
1052.41 13.7133
1052.82 18.8138
1053.46 30.0220
1054.10 37.4440
1054.74 29.9752
1055.38 18.7686
1055.85 13.1256
1056.31 9.42023
1056.78 6.98431
1057.25 5.34333
1058.18 3.37414
1059.11 2.30689
1060.05 1.67047
1060.98 1.26377
1062.85 0.794357
1064.72 0.545291
1066.58 0.397907
1068.45 0.303700
1070.32 0.239962
1074.05 0.161800
1077.78 0.117701
1081.52 0.0905470
1085.25 0.0727838
1092.72 0.0521261
1100.19 0.0416927
1115.12 0.0350019
1130.06 0.0411165
1137.52 0.0510007
1144.99 0.0705762
1148.72 0.0873781
1150.59 0.0987630
1152.46 0.112994
1153.39 0.121477
1154.33 0.131068
1155.26 0.141990
1156.19 0.154468
1156.66 0.161396
1157.13 0.168839
1158.06 0.185466
1158.99 0.204861
1159.93 0.227668
1160.86 0.254764
1161.79 0.287211
1162.73 0.326596
1163.66 0.374924
1164.59 0.435240
1165.53 0.511656
1166.46 0.610640
1167.39 0.741635
1168.33 0.920353
1169.26 1.17215
1170.19 1.54311
1171.13 2.11839
1172.06 3.07600
1172.99 4.81395
1173.46 6.24616
1173.93 8.33398
1174.39 11.4609
1174.86 16.1178
1175.53 25.7216
1176.20 32.0835
1176.87 25.6839
1177.54 16.0813
1178.03 11.2535
1178.52 8.08115
1179.00 5.99427
1179.49 4.58521
1180.47 2.89757
1181.44 1.98227
1182.42 1.43624
1183.40 1.08689
1185.35 0.684055
1187.30 0.470218
1189.25 0.343841
1193.15 0.208920
1197.05 0.143826
1200.96 0.112507
1202.91 0.109059
1204.86 0.126087
1205.84 0.159865
1206.32 0.195969
1206.81 0.263442
1207.30 0.409520
1207.54 0.554914
1207.79 0.818203
1207.91 1.03807
1208.03 1.37060
1208.15 1.90792
1208.28 2.85982
1208.34 3.63837
1208.40 4.79261
1208.46 6.60836
1208.52 9.70319
1208.55 12.1859
1208.58 15.6171
1208.60 18.0691
1208.61 20.9271
1208.63 24.5113
1208.64 29.0849
1208.66 35.4971
1208.67 43.5871
1208.69 54.6751
1208.70 70.3527
1208.72 93.3168
1208.73 128.257
1208.75 183.258
1208.76 272.691
1208.78 434.876
1208.80 545.309
1208.81 509.464
1208.82 434.863
1208.84 272.678
1208.86 174.348
1208.87 117.379
1208.89 83.0078
1208.91 61.2830
1208.92 46.1930
1208.94 36.4365
1208.98 24.2402
1209.01 17.0821
1209.04 12.7712
1209.11 7.90462
1209.18 5.34497
1209.25 3.85832
1209.32 2.91984
1209.39 2.29760
1209.53 1.52783
1209.66 1.09806
1209.80 0.832144
1209.94 0.656217
1210.21 0.444579
1210.49 0.327670
1211.03 0.208618
1211.58 0.151925
1212.13 0.120342
1213.23 0.0874972
1215.43 0.0611671
1217.62 0.0496842
1222.02 0.0381980
1226.41 0.0319025
1235.20 0.0255082
1239.59 0.0271219
1240.69 0.0306919
1241.79 0.0417522
1242.34 0.0575398
1242.89 0.102544
1243.16 0.165005
1243.30 0.226867
1243.44 0.339018
1243.57 0.577935
1243.64 0.813136
1243.71 1.22731
1243.78 2.09420
1243.81 2.91098
1243.85 4.32313
1243.88 7.20146
1243.90 9.75827
1243.92 13.9469
1243.93 21.4813
1243.94 28.1510
1243.95 36.9702
1243.96 52.5938
1243.97 75.7348
1243.98 122.422
1243.98 198.928
1243.99 318.284
1244.00 397.858
1244.01 318.283
1244.02 198.928
1244.02 129.752
1244.03 88.1156
1244.04 62.6896
1244.04 48.3991
1244.06 29.0752
1244.07 19.7715
1244.08 13.9477
1244.10 10.5570
1244.12 6.53494
1244.15 4.43702
1244.18 3.20863
1244.21 2.42880
1244.23 1.91954
1244.29 1.26999
1244.34 0.904305
1244.45 0.531371
1244.55 0.351550
1244.66 0.252916
1244.88 0.152858
1245.31 0.0795270
1245.73 0.0534632
1246.59 0.0344765
1247.45 0.0276288
1249.17 0.0224404
1250.89 0.0203758
1257.76 0.0176042
1271.50 0.0166553
1285.25 0.0185905
1292.12 0.0214542
1295.55 0.0256111
1297.27 0.0366434
1297.70 0.0472673
1298.13 0.0767511
1298.34 0.117319
1298.56 0.229756
1298.67 0.384170
1298.77 0.802388
1298.83 1.36103
1298.85 1.89708
1298.88 2.78646
1298.91 4.58894
1298.92 6.30497
1298.93 8.92402
1298.95 14.0496
1298.96 18.3992
1298.96 23.8938
1298.97 33.8757
1298.97 47.8920
1298.98 76.5867
1298.99 122.564
1298.99 200.706
1299.00 244.630
1299.01 200.706
1299.01 122.565
1299.02 82.3870
1299.02 58.0398
1299.03 40.0377
1299.03 30.4925
1299.05 18.3999
1299.06 12.2144
1299.07 8.67018
1299.08 6.46327
1299.10 4.06169
1299.12 2.74192
1299.14 1.97627
1299.19 1.18195
1299.23 0.782730
1299.27 0.563205
1299.36 0.336390
1299.53 0.166270
1299.71 0.105542
1300.05 0.0613793
1300.40 0.0459130
1301.79 0.0316609
1304.56 0.0304122
1310.10 0.0369151
1315.65 0.0491650
1321.19 0.0716993
1323.96 0.0905598
1326.74 0.119048
1328.12 0.139092
1328.82 0.151177
1329.51 0.164993
1330.20 0.180886
1330.90 0.199292
1331.59 0.220769
1332.28 0.246038
1332.98 0.276093
1333.67 0.312106
1334.36 0.355823
1335.05 0.409601
1335.75 0.476767
1336.44 0.562139
1337.13 0.672902
1337.83 0.820138
1338.52 1.02164
1339.21 1.30741
1339.91 1.73098
1340.60 2.39512
1341.29 3.51527
1341.64 4.38399
1341.98 5.59518
1342.33 7.34918
1342.68 9.96072
1343.02 13.9852
1343.37 20.1713
1343.84 32.3256
1344.30 40.4401
1344.77 32.2970
1345.23 20.1438
1345.57 14.1216
1345.90 10.1679
1346.23 7.55867
1346.57 5.79180
1347.24 3.66865
1347.90 2.51227
1348.57 1.82159
1349.24 1.37886
1350.58 0.867104
1351.91 0.594951
1353.25 0.433608
1354.58 0.330299
1355.92 0.260248
1358.59 0.174117
1361.26 0.125273
1363.94 0.0949528
1366.61 0.0748762
1371.95 0.0508902
1377.30 0.0380241
1382.64 0.0325530
1383.98 0.0337646
1385.31 0.0401768
1385.98 0.0503818
1386.65 0.0804872
1386.98 0.122717
1387.32 0.241840
1387.48 0.405188
1387.57 0.567538
1387.65 0.856234
1387.74 1.46565
1387.78 2.05744
1387.82 3.07066
1387.84 3.91075
1387.86 5.15149
1387.88 7.09321
1387.90 10.3784
1387.92 16.5848
1387.93 22.2998
1387.94 30.4407
1387.96 45.6129
1387.97 71.1651
1387.97 92.1397
1387.98 122.758
1387.98 168.606
1387.99 251.382
1387.99 404.034
1388.00 501.873
1388.01 404.035
1388.01 251.383
1388.02 180.278
1388.02 138.871
1388.03 82.8270
1388.04 53.9414
1388.05 37.6006
1388.06 27.5927
1388.07 21.0637
1388.09 13.6957
1388.10 9.41636
1388.12 6.97790
1388.16 4.21515
1388.19 2.82096
1388.23 2.02155
1388.30 1.18777
1388.37 0.780457
1388.44 0.557094
1388.58 0.329237
1388.86 0.161348
1389.14 0.101444
1389.70 0.0577094
1390.26 0.0419953
1391.38 0.0302395
1392.50 0.0256806
1396.99 0.0196583
1405.97 0.0157488
1423.92 0.0130774
1441.87 0.0133219
1459.83 0.0162297
1477.78 0.0240851
1486.76 0.0322479
1495.73 0.0471285
1500.22 0.0595316
1502.47 0.0678505
1503.59 0.0727293
1504.71 0.0781887
1505.83 0.0843240
1506.96 0.0912505
1508.08 0.0991098
1509.20 0.108076
1509.76 0.113040
1510.32 0.118366
1511.44 0.130253
1512.57 0.144083
1513.69 0.160302
1514.81 0.179510
1515.93 0.202441
1517.05 0.230143
1518.18 0.264032
1519.30 0.306081
1520.42 0.359117
1521.54 0.427293
1522.66 0.516901
1523.79 0.637832
1524.91 0.806295
1526.03 1.05023
1527.15 1.42078
1528.27 2.01828
1529.40 3.05578
1529.96 3.87236
1530.52 5.01690
1531.08 6.64363
1531.64 8.94167
1532.57 14.2783
1533.50 17.8161
1534.43 14.2559
1535.36 8.92005
1536.37 5.28414
1537.38 3.34135
1538.39 2.26148
1539.40 1.61830
1540.41 1.20998
1541.41 0.936586
1543.43 0.606908
1545.45 0.424150
1547.47 0.312861
1551.50 0.190330
1555.54 0.128041
1559.57 0.0921806
1563.61 0.0696733
1567.64 0.0546313
1575.71 0.0364047
1583.79 0.0262026
1591.86 0.0199204
1599.93 0.0157783
1616.07 0.0108246
1632.21 0.00808866
1664.49 0.00534438
1696.78 0.00412243
1729.06 0.00364982
1745.20 0.00373268
1761.34 0.00443005
1769.41 0.00556557
1773.45 0.00674048
1777.48 0.00892238
1781.52 0.0136490
1783.54 0.0183941
1785.55 0.0270907
1786.56 0.0344561
1787.57 0.0457531
1788.58 0.0643706
1789.59 0.0982789
1790.09 0.126893
1790.60 0.170480
1791.10 0.241983
1791.61 0.370882
1791.86 0.478880
1792.11 0.641591
1792.36 0.904438
1792.62 1.37007
1792.74 1.75097
1792.87 2.31583
1792.99 3.20481
1793.06 3.85395
1793.12 4.72118
1793.18 5.91546
1793.25 7.62265
1793.31 10.1799
1793.37 14.2476
1793.40 17.2944
1793.44 21.2530
1793.47 26.8944
1793.50 34.6857
1793.53 46.6047
1793.56 64.4182
1793.59 93.9211
1793.62 140.194
1793.66 224.750
1793.70 281.301
1793.74 224.739
1793.78 140.183
1793.80 99.9923
1793.83 73.8137
1793.88 43.5457
1793.93 27.9641
1793.98 19.4430
1794.03 14.1627
1794.08 10.8069
1794.18 6.86505
1794.28 4.71961
1794.38 3.43995
1794.58 2.06186
1794.78 1.36923
1794.99 0.976459
1795.19 0.730459
1795.39 0.567750
1795.79 0.371139
1796.19 0.261750
1796.60 0.194705
1797.00 0.150760
1797.81 0.0983071
1798.61 0.0695050
1799.42 0.0519721
1800.22 0.0405385
1801.83 0.0270006
1803.44 0.0196019
1805.05 0.0151217
1806.67 0.0122047
1809.89 0.00876187
1813.11 0.00688570
1819.55 0.00501424
1832.44 0.00367928
1845.33 0.00323009
1871.11 0.00299484
1896.89 0.00308049
1922.67 0.00339027
1948.44 0.00404223
1974.22 0.00558955
1987.11 0.00742741
1993.56 0.00910851
2000.00 0.0119707
2007.01 0.0183150
2010.51 0.0245503
2014.01 0.0358272
2015.77 0.0452853
2017.52 0.0596838
2019.27 0.0832029
2021.02 0.125567
2021.90 0.160871
2022.34 0.184609
2022.77 0.214187
2023.21 0.251692
2023.65 0.300228
2024.09 0.364584
2024.31 0.404932
2024.53 0.452453
2024.96 0.576830
2025.40 0.761074
2025.84 1.05061
2026.06 1.26174
2026.28 1.54345
2026.50 1.93080
2026.72 2.48341
2026.93 3.30896
2027.15 4.61734
2027.37 6.85837
2027.48 8.62950
2027.59 11.1186
2027.70 14.8130
2027.81 20.4090
2027.92 29.2480
2028.03 43.3138
2028.16 69.2960
2028.30 86.6116
2028.44 69.2845
2028.57 43.3027
2028.72 26.0254
2028.86 16.6297
2029.00 11.3355
2029.14 8.16918
2029.29 6.12792
2029.43 4.75462
2029.71 3.09417
2030.00 2.16581
2030.29 1.60038
2030.86 0.974167
2031.43 0.654890
2032.00 0.470655
2032.57 0.354881
2033.14 0.277449
2034.28 0.183593
2035.42 0.131073
2036.57 0.0987698
2037.71 0.0775100
2039.99 0.0521829
2042.28 0.0382821
2046.84 0.0244347
2051.41 0.0181312
2055.98 0.0148619
2065.11 0.0120731
2083.39 0.0118979
2101.66 0.0153103
2110.79 0.0186387
2119.93 0.0238306
2122.21 0.0255607
2124.50 0.0275224
2126.78 0.0297573
2129.06 0.0323168
2131.35 0.0352652
2133.63 0.0386838
2134.77 0.0406009
2135.92 0.0426768
2138.20 0.0473763
2140.48 0.0529634
2142.77 0.0596716
2145.05 0.0678203
2147.33 0.0778515
2149.62 0.0903899
2151.90 0.106342
2154.19 0.127063
2156.47 0.154632
2158.75 0.192446
2161.04 0.246201
2163.32 0.326139
2165.61 0.452047
2167.89 0.665815
2169.03 0.832412
2170.17 1.06680
2171.32 1.40792
2172.46 1.92249
2173.60 2.72329
2174.74 3.97441
2176.22 6.35818
2177.70 7.94325
2179.18 6.34704
2180.66 3.96374
2182.18 2.40856
2183.70 1.55175
2185.22 1.06404
2186.74 0.768776
2188.26 0.578915
2189.78 0.450670
2192.82 0.294640
2195.86 0.207432
2198.90 0.154057
2204.98 0.0950169
2211.05 0.0649336
2217.13 0.0476317
2229.29 0.0296737
2241.45 0.0212188
2253.61 0.0168074
2277.92 0.0134755
2302.24 0.0145479
2314.39 0.0170657
2326.55 0.0221798
2338.71 0.0332361
2341.75 0.0379287
2344.79 0.0439931
2346.31 0.0477145
2347.83 0.0520211
2349.35 0.0570494
2350.87 0.0629627
2352.39 0.0699920
2353.15 0.0740136
2353.91 0.0784329
2355.43 0.0886922
2356.94 0.101326
2358.46 0.117153
2359.98 0.137339
2361.50 0.163649
2363.02 0.198810
2364.54 0.247352
2366.06 0.316955
2367.58 0.421706
2369.10 0.589387
2370.62 0.881508
2371.38 1.11505
2372.14 1.45121
2372.90 1.95680
2373.66 2.75222
2374.42 4.06017
2375.18 6.24052
2376.04 9.97681
2376.90 12.4637
2377.76 9.96804
2378.62 6.23264
2379.40 4.01107
2380.18 2.69817
2380.96 1.90834
2381.74 1.41094
2383.29 0.854107
2384.85 0.571599
2386.41 0.410494
2387.97 0.310812
2391.08 0.200015
2394.20 0.144346
2397.31 0.113921
2403.54 0.0893818
2409.77 0.0955067
2412.89 0.112812
2416.00 0.148797
2416.78 0.162782
2417.56 0.179794
2418.34 0.200674
2418.73 0.212897
2419.12 0.226553
2419.51 0.241906
2419.89 0.259143
2420.28 0.278677
2420.67 0.300802
2421.06 0.326118
2421.45 0.355095
2422.23 0.427417
2423.01 0.526781
2423.79 0.668001
2424.57 0.877694
2425.35 1.20642
2425.74 1.44569
2426.12 1.76204
2426.51 2.19316
2426.90 2.79469
2427.29 3.66580
2427.68 4.96339
2428.07 6.95533
2428.46 10.0200
2428.98 15.9757
2429.50 19.9246
2430.02 15.9665
2430.54 10.0106
2431.04 6.29888
2431.54 4.16718
2432.03 2.91179
2432.53 2.13266
2433.52 1.27444
2434.52 0.844273
2435.51 0.600631
2436.51 0.450003
2438.49 0.281691
2440.48 0.194912
2442.47 0.144431
2446.45 0.0910528
2450.42 0.0649191
2454.40 0.0502836
2462.35 0.0356333
2470.30 0.0293790
2478.26 0.0269531
2494.16 0.0287557
2502.11 0.0328044
2510.07 0.0398641
2514.04 0.0450560
2516.03 0.0482219
2518.02 0.0518553
2519.01 0.0538732
2520.01 0.0560414
2521.00 0.0583740
2521.99 0.0608866
2522.99 0.0635971
2523.98 0.0665253
2525.97 0.0731287
2527.96 0.0809218
2529.95 0.0901855
2531.94 0.101306
2533.92 0.114797
2535.91 0.131364
2537.90 0.151992
2539.89 0.178093
2541.88 0.211732
2543.86 0.256058
2545.85 0.315898
2547.84 0.399158
2549.83 0.519137
2551.82 0.699239
2553.80 0.982206
2555.79 1.44659
2557.78 2.22004
2560.04 3.54786
2562.30 4.42899
2564.56 3.53963
2566.82 2.21198
2569.06 1.36830
2571.29 0.893253
2573.53 0.618249
2575.77 0.449654
2578.01 0.340376
2580.24 0.266075
2584.72 0.175047
2589.19 0.123816
2593.66 0.0922855
2602.61 0.0572094
2611.56 0.0392021
2620.51 0.0287663
2638.40 0.0177984
2656.29 0.0125243
2674.19 0.00973278
2692.08 0.00850313
2701.03 0.00929603
2705.50 0.0139398
2707.74 0.0327290
2708.30 0.0520048
2708.86 0.106224
2709.14 0.180799
2709.42 0.386429
2709.56 0.663731
2709.63 0.932905
2709.70 1.40886
2709.77 2.37262
2709.80 3.27538
2709.84 4.80906
2709.87 7.72469
2709.89 10.3664
2709.91 14.3024
2709.93 21.4155
2709.94 34.0350
2709.95 45.3858
2709.96 60.3916
2709.97 86.2889
2709.98 121.521
2709.99 197.800
2710.00 243.046
2710.01 191.039
2710.02 121.521
2710.03 86.2888
2710.04 62.7188
2710.05 37.3246
2710.07 24.3094
2710.08 16.9564
2710.10 12.2174
2710.12 9.35446
2710.15 5.97200
2710.18 4.08812
2710.21 2.99972
2710.27 1.81101
2710.33 1.20393
2710.39 0.862922
2710.51 0.504706
2710.75 0.235887
2710.99 0.138118
2711.48 0.0665377
2711.96 0.0409993
2713.90 0.0160136
2717.77 0.00973611
2725.51 0.00847570
2741.00 0.0101862
2748.75 0.0127682
2756.49 0.0181941
2760.37 0.0232939
2764.24 0.0320089
2766.17 0.0390663
2768.11 0.0501568
2769.08 0.0592533
2770.05 0.0759810
2771.01 0.136896
2771.26 0.192577
2771.50 0.343023
2771.62 0.543870
2771.74 1.08330
2771.80 1.79180
2771.86 3.56509
2771.89 5.79441
2771.91 7.71610
2771.92 10.7745
2771.94 16.0454
2771.95 26.1631
2771.96 35.7086
2771.97 48.5949
2771.98 72.3178
2771.98 105.875
2771.99 169.357
2772.00 211.679
2772.01 169.357
2772.02 105.876
2772.02 76.2517
2772.03 56.0878
2772.04 34.2704
2772.05 22.7186
2772.06 16.0473
2772.07 11.8981
2772.09 9.15972
2772.11 5.90167
2772.13 4.05906
2772.15 3.00531
2772.20 1.84927
2772.29 0.921438
2772.37 0.573532
2772.55 0.309930
2772.73 0.216179
2773.08 0.150816
2773.44 0.131572
2774.86 0.138402
2776.28 0.184193
2776.99 0.220538
2777.70 0.270386
2778.05 0.302338
2778.41 0.340552
2778.76 0.386724
2779.12 0.443178
2779.47 0.513152
2779.83 0.601264
2780.18 0.714277
2780.54 0.862388
2780.89 1.06152
2781.25 1.33757
2781.60 1.73475
2781.96 2.33286
2782.31 3.28571
2782.67 4.91152
2782.85 6.17360
2783.02 7.90582
2783.20 10.3215
2783.38 13.6661
2783.69 21.8653
2784.00 27.3005
2784.31 21.8310
2784.62 13.6381
2784.82 9.95505
2785.02 7.40557
2785.42 4.41941
2785.82 2.88090
2786.21 2.01012
2786.61 1.47645
2787.01 1.12808
2787.80 0.718217
2788.60 0.496526
2789.39 0.363627
2790.98 0.219348
2792.57 0.146974
2794.15 0.105633
2795.74 0.0798283
2797.33 0.0626514
2800.51 0.0419177
2803.68 0.0303614
2806.86 0.0232638
2810.03 0.0185926
2816.39 0.0130169
2822.74 0.00994276
2835.44 0.00685508
2848.15 0.00544512
2860.85 0.00474218
2886.26 0.00437825
2911.67 0.00514053
2924.38 0.00622529
2937.08 0.00836876
2949.79 0.0130892
2956.14 0.0178031
2962.49 0.0263282
2965.67 0.0334336
2968.84 0.0441488
2972.02 0.0613990
2975.20 0.0917905
2975.99 0.103031
2976.78 0.116510
2977.58 0.132862
2978.37 0.152962
2979.17 0.178043
2979.56 0.192980
2979.96 0.209889
2980.36 0.229131
2980.75 0.251153
2981.55 0.305918
2982.34 0.380719
2983.14 0.486524
2983.93 0.642817
2984.72 0.886712
2985.52 1.29524
2985.92 1.60935
2986.31 2.04573
2986.71 2.67055
2987.11 3.59345
2987.50 4.99168
2987.90 7.11144
2988.45 11.3573
2989.00 14.1775
2989.55 11.3520
2990.10 7.10624
2990.53 4.85160
2990.96 3.41483
2991.39 2.49453
2991.82 1.88605
2992.67 1.17278
2993.53 0.793965
2994.39 0.570989
2995.25 0.429789
2996.96 0.268180
2998.68 0.183051
3000.39 0.132942
3002.11 0.100997
3003.82 0.0794032
3007.25 0.0529362
3010.68 0.0379652
3014.11 0.0286806
3017.54 0.0225341
3024.41 0.0151627
3031.27 0.0111059
3038.13 0.00879033
3041.56 0.00859407
3043.27 0.0109525
3044.13 0.0215465
3044.56 0.0631452
3044.77 0.218251
3044.88 0.756575
3044.91 1.24538
3044.93 2.41997
3044.95 3.80684
3044.96 6.46472
3044.97 12.9126
3044.98 20.5641
3044.99 32.1968
3044.99 52.9494
3045.00 64.1409
3045.01 49.8110
3045.01 31.9512
3045.02 22.1030
3045.02 15.6256
3045.03 8.68012
3045.05 3.67296
3045.07 1.99305
3045.09 1.27192
3045.17 0.382646
3045.33 0.109506
3045.64 0.0336618
3046.26 0.0135863
3047.51 0.00825586
3050.01 0.00659784
3055.00 0.00580354
3059.99 0.00630746
3062.49 0.0104287
3063.74 0.0275275
3064.36 0.0945252
3064.52 0.162204
3064.67 0.348985
3064.75 0.599039
3064.83 1.26551
3064.87 2.11873
3064.91 4.24365
3064.93 6.83120
3064.95 12.2380
3064.96 17.9986
3064.97 28.6932
3064.97 37.6792
3064.98 51.0456
3064.98 71.4126
3064.99 96.4983
3064.99 153.664
3065.00 193.344
3065.01 153.664
3065.01 96.4986
3065.02 62.2106
3065.03 39.9348
3065.03 27.2651
3065.04 19.6148
3065.06 11.4162
3065.07 7.62554
3065.10 3.90482
3065.12 2.39927
3065.18 1.15539
3065.23 0.683600
3065.34 0.317531
3065.45 0.184570
3065.89 0.0508481
3066.76 0.0160834
3068.51 0.00711981
3072.01 0.00467319
3079.00 0.00377346
3092.99 0.00330273
3099.99 0.00339114
3106.98 0.00408234
3110.48 0.00521266
3113.98 0.00857049
3115.73 0.0133145
3117.48 0.0268473
3118.35 0.0456964
3119.23 0.0988994
3119.66 0.172262
3119.88 0.245254
3120.10 0.376928
3120.32 0.655729
3120.43 0.927382
3120.54 1.41144
3120.65 2.41743
3120.70 3.37983
3120.76 5.01299
3120.81 8.26814
3120.84 11.1542
3120.86 15.8372
3120.89 24.5668
3120.91 31.8297
3120.92 41.7624
3120.93 58.3452
3120.95 83.5238
3120.96 130.720
3120.97 208.814
3120.99 339.042
3121.00 417.647
3121.01 329.143
3121.03 208.813
3121.04 135.309
3121.05 91.4251
3121.06 64.8037
3121.08 47.9148
3121.10 28.9136
3121.12 19.2000
3121.15 13.6310
3121.17 10.1604
3121.22 6.25493
3121.27 4.22962
3121.32 3.04815
3121.41 1.80560
3121.51 1.18803
3121.60 0.843502
3121.79 0.487118
3121.98 0.316511
3122.18 0.222712
3122.56 0.127851
3123.32 0.0587481
3124.09 0.0342226
3125.62 0.0165390
3127.15 0.0103005
3133.27 0.00422053
3139.38 0.00309144
3145.50 0.00275532
3151.62 0.00277671
3157.74 0.00336670
3163.86 0.00723260
3166.92 0.0229360
3167.68 0.0391242
3168.45 0.0849075
3168.83 0.148270
3169.21 0.325023
3169.41 0.565479
3169.50 0.802750
3169.60 1.22246
3169.69 2.09750
3169.74 2.93671
3169.79 4.35965
3169.84 7.21321
3169.86 9.81380
3169.88 14.1006
3169.91 21.8810
3169.92 28.3656
3169.93 38.0998
3169.94 53.5311
3169.96 79.6455
3169.97 127.038
3169.98 206.439
3169.99 330.308
3170.00 412.890
3170.01 330.307
3170.02 206.438
3170.03 121.848
3170.05 79.6460
3170.06 53.5317
3170.07 39.1222
3170.08 29.0296
3170.09 22.8002
3170.11 15.0798
3170.14 10.5302
3170.16 7.85429
3170.20 4.79475
3170.25 3.19993
3170.29 2.30090
3170.38 1.35265
3170.48 0.885670
3170.57 0.626927
3170.75 0.361607
3171.11 0.164874
3171.47 0.0945699
3172.19 0.0434733
3172.91 0.0253884
3175.80 0.00774263
3181.58 0.00324891
3193.14 0.00205947
3216.26 0.00168866
3262.50 0.00155630
3308.75 0.00160330
3331.87 0.00175219
3343.43 0.00216727
3349.21 0.00368349
3352.10 0.00962808
3353.54 0.0330765
3354.26 0.124773
3354.44 0.217877
3354.62 0.474020
3354.72 0.822919
3354.81 1.75095
3354.85 2.94714
3354.87 4.09613
3354.90 5.95737
3354.92 9.65526
3354.93 12.7534
3354.94 17.5852
3354.95 26.6748
3354.96 42.5390
3354.97 57.4484
3354.97 76.0733
3354.98 110.889
3354.99 165.240
3354.99 265.304
3355.00 329.325
3355.01 265.304
3355.01 164.084
3355.02 110.889
3355.03 80.7589
3355.03 57.4487
3355.04 44.6109
3355.05 27.7257
3355.06 19.3733
3355.07 13.8553
3355.08 10.6382
3355.10 6.68624
3355.12 4.50673
3355.14 3.28510
3355.18 1.96517
3355.27 0.923309
3355.35 0.534510
3355.52 0.245108
3355.69 0.140524
3356.37 0.0372059
3357.73 0.0106996
3360.45 0.00400546
3365.89 0.00235139
3376.76 0.00201007
3398.50 0.00215933
3420.24 0.00268948
3431.11 0.00339939
3436.55 0.00471934
3439.27 0.00877617
3440.63 0.0240430
3441.31 0.0831100
3441.48 0.142851
3441.65 0.308142
3441.73 0.530201
3441.82 1.12531
3441.86 1.90581
3441.90 3.82312
3441.92 6.08288
3441.94 11.0824
3441.95 16.5066
3441.96 25.5637
3441.97 34.7811
3441.98 46.4002
3441.98 63.8540
3441.99 96.2189
3441.99 154.551
3442.00 192.777
3442.01 154.551
3442.01 96.2191
3442.02 63.8543
3442.03 46.4005
3442.03 34.7813
3442.04 26.8391
3442.05 17.1823
3442.06 11.8526
3442.08 6.39644
3442.10 4.06058
3442.14 2.01742
3442.18 1.21529
3442.26 0.571605
3442.34 0.333778
3442.50 0.154822
3442.67 0.0903347
3443.32 0.0261375
3444.62 0.00982660
3447.22 0.00603110
3449.82 0.00572032
3452.42 0.00603250
3457.63 0.00756005
3462.83 0.0106181
3465.44 0.0132286
3468.04 0.0172238
3470.64 0.0237795
3473.24 0.0356389
3474.55 0.0455588
3475.85 0.0605737
3477.15 0.0848979
3478.45 0.128169
3479.10 0.163751
3479.75 0.216660
3480.08 0.253517
3480.40 0.300546
3480.73 0.362050
3481.05 0.444608
3481.38 0.559399
3481.70 0.724350
3482.03 0.974017
3482.35 1.37696
3482.51 1.67858
3482.68 2.08875
3482.84 2.66455
3483.00 3.49775
3483.17 4.77401
3483.33 6.80479
3483.49 10.2458
3483.65 16.1241
3483.83 25.7966
3484.00 32.2432
3484.17 25.7933
3484.35 16.1210
3484.47 11.3237
3484.60 8.15731
3484.72 6.06560
3484.85 4.65771
3485.10 2.94929
3485.35 2.02162
3485.60 1.46486
3485.85 1.10925
3486.34 0.697588
3486.84 0.478006
3487.34 0.348011
3487.84 0.264560
3488.34 0.208062
3489.34 0.138438
3490.33 0.0989484
3491.33 0.0744022
3492.33 0.0581153
3494.32 0.0385254
3496.32 0.0276572
3498.31 0.0210086
3500.30 0.0166499
3504.29 0.0114766
3508.28 0.00864803
3516.26 0.00583823
3524.24 0.00456048
3532.21 0.00389527
3548.17 0.00331482
3580.08 0.00321542
3596.03 0.00350789
3604.01 0.00405467
3608.00 0.00561967
3609.99 0.0113921
3610.99 0.0338438
3611.49 0.120836
3611.61 0.208513
3611.74 0.446357
3611.80 0.767529
3611.86 1.59962
3611.89 2.64103
3611.92 5.14909
3611.94 8.10392
3611.96 13.8660
3611.96 19.7025
3611.97 29.7999
3611.98 48.7163
3611.99 81.4684
3611.99 128.928
3612.00 162.343
3612.01 128.928
3612.01 80.8782
3612.02 45.6044
3612.03 28.1859
3612.04 18.7980
3612.05 13.3189
3612.06 7.61400
3612.08 4.89657
3612.11 2.50141
3612.14 1.51188
3612.21 0.717035
3612.27 0.420740
3612.40 0.195501
3612.53 0.113924
3613.04 0.0321919
3614.07 0.0111389
3616.13 0.00590974
3620.24 0.00489901
3624.36 0.00517701
3628.47 0.00601566
3632.59 0.00790191
3634.65 0.00978880
3636.70 0.0132316
3638.76 0.0205972
3639.79 0.0279392
3640.82 0.0413175
3641.85 0.0698506
3642.88 0.149364
3643.39 0.257363
3643.65 0.362755
3643.91 0.550520
3644.16 0.935386
3644.29 1.30258
3644.42 1.93092
3644.49 2.43970
3644.55 3.16454
3644.61 4.26437
3644.68 6.04561
3644.71 7.42728
3644.74 9.26280
3644.77 11.8498
3644.81 15.6411
3644.84 21.4626
3644.87 30.8957
3644.90 47.0407
3644.93 75.3749
3644.97 120.597
3645.00 150.744
3645.03 120.594
3645.07 75.3725
3645.10 47.7052
3645.13 32.0569
3645.16 22.3983
3645.19 16.5429
3645.25 9.89875
3645.31 6.58047
3645.37 4.65203
3645.43 3.47311
3645.55 2.13585
3645.67 1.44384
3645.79 1.04070
3645.91 0.785658
3646.04 0.614229
3646.28 0.405351
3646.52 0.287825
3646.76 0.215237
3647.00 0.167295
3647.49 0.109912
3647.97 0.0781939
3648.46 0.0588422
3648.94 0.0461758
3649.91 0.0311568
3650.88 0.0229363
3652.81 0.0147209
3654.75 0.0109137
3656.68 0.00885880
3660.56 0.00685588
3668.30 0.00555403
3676.05 0.00525158
3707.03 0.00595688
3722.52 0.00677760
3738.01 0.00793039
3745.75 0.00868519
3749.62 0.00912694
3753.50 0.00962805
3757.37 0.0102189
3761.24 0.0109992
3765.11 0.0127060
3767.05 0.0172063
3768.02 0.0336567
3768.50 0.0966255
3768.74 0.331741
3768.81 0.562007
3768.87 1.15382
3768.90 1.92346
3768.93 3.72952
3768.94 5.75775
3768.96 9.96181
3768.96 14.2891
3768.97 20.6793
3768.98 34.0874
3768.99 60.0735
3768.99 93.5705
3769.00 119.683
3769.01 93.5705
3769.01 59.6221
3769.02 39.1682
3769.02 27.9668
3769.03 15.7903
3769.05 9.55953
3769.06 6.57649
3769.08 3.54223
3769.10 2.20415
3769.14 1.08974
3769.18 0.650015
3769.35 0.185395
3769.68 0.0573838
3770.35 0.0239030
3771.69 0.0155943
3774.36 0.0140838
3779.70 0.0151690
3785.05 0.0173111
3790.39 0.0206864
3795.73 0.0268107
3798.41 0.0323220
3801.08 0.0417888
3803.75 0.0610091
3805.09 0.0795478
3806.42 0.112552
3807.76 0.180807
3808.43 0.246560
3809.09 0.362111
3809.76 0.594209
3810.10 0.809898
3810.43 1.17331
3810.76 1.85572
3810.93 2.44533
3811.10 3.36395
3811.27 4.89918
3811.43 7.70994
3811.52 10.0588
3811.60 13.4754
3811.68 18.6941
3811.77 26.4751
3811.88 42.2921
3812.00 52.8128
3812.12 42.1449
3812.24 26.3596
3812.33 17.5918
3812.43 12.1658
3812.53 8.77398
3812.62 6.59113
3812.72 5.09714
3812.82 4.04887
3813.01 2.72717
3813.20 1.95452
3813.40 1.47091
3813.59 1.14753
3813.78 0.921044
3813.98 0.755708
3814.17 0.632596
3814.36 0.537611
3814.56 0.463536
3814.94 0.356177
3815.33 0.284002
3815.72 0.232965
3816.10 0.195675
3816.88 0.146068
3818.42 0.0954650
3821.52 0.0592850
3824.61 0.0478752
3830.80 0.0443283
3833.89 0.0494251
3835.44 0.0657596
3836.21 0.125848
3836.41 0.186577
3836.60 0.354057
3836.70 0.581197
3836.79 1.18554
3836.84 1.98855
3836.89 3.99451
3836.91 6.40150
3836.94 11.8562
3836.95 17.5729
3836.96 28.4139
3836.97 37.7401
3836.97 51.9641
3836.98 74.4150
3836.99 110.112
3836.99 180.812
3837.00 220.179
3837.01 171.430
3837.02 110.112
3837.02 74.4153
3837.03 55.0184
3837.03 39.7021
3837.04 31.1193
3837.05 19.6315
3837.06 13.4116
3837.08 7.34575
3837.10 4.70685
3837.15 2.34637
3837.19 1.42499
3837.28 0.695475
3837.36 0.424593
3837.54 0.219727
3837.71 0.146137
3838.40 0.0736008
3839.79 0.0565581
3842.57 0.0559992
3848.11 0.0663850
3853.66 0.0835041
3859.21 0.109968
3864.76 0.152571
3870.31 0.225732
3875.86 0.361443
3878.64 0.472027
3881.41 0.626002
3886.21 0.996799
3891.00 1.24241
3895.80 0.994148
3900.59 0.623983
3903.55 0.462036
3906.52 0.348688
3912.44 0.213917
3918.36 0.143800
3924.29 0.104087
3930.21 0.0799470
3936.14 0.0645310
3942.06 0.0546236
3945.02 0.0523026
3946.50 0.0565505
3947.25 0.0788510
3947.62 0.166442
3947.80 0.486381
3947.85 0.794842
3947.89 1.56219
3947.92 2.47915
3947.94 4.54674
3947.95 6.82880
3947.96 10.7726
3947.97 20.1581
3947.98 29.3839
3947.99 43.8138
3947.99 70.4680
3948.00 87.5809
3948.01 70.4680
3948.01 43.8138
3948.02 29.3840
3948.03 20.1581
3948.04 10.7726
3948.05 6.58027
3948.06 4.54669
3948.09 2.42370
3948.11 1.53457
3948.16 0.775567
3948.20 0.477409
3948.39 0.163282
3948.76 0.0766762
3949.51 0.0534908
3951.01 0.0464934
3954.01 0.0429202
3960.00 0.0395331
3965.99 0.0379348
3968.99 0.0384812
3970.49 0.0424996
3971.24 0.0588211
3971.61 0.121926
3971.80 0.354488
3971.89 1.15603
3971.92 1.88919
3971.94 3.53735
3971.96 8.77677
3971.98 17.2824
3971.98 26.1908
3971.99 38.9742
3971.99 63.8830
3972.00 77.9117
3972.01 63.8830
3972.01 38.9743
3972.02 24.3471
3972.03 15.2290
3972.04 7.60966
3972.05 4.32869
3972.07 2.85972
3972.09 1.48460
3972.12 0.912893
3972.23 0.283633
3972.44 0.102052
3972.87 0.0535985
3973.73 0.0410352
3975.45 0.0378806
3978.88 0.0373724
3985.76 0.0386721
3999.50 0.0458192
4006.37 0.0522494
4009.81 0.0564795
4013.24 0.0615895
4016.68 0.0678343
4018.40 0.0715159
4020.11 0.0757182
4021.83 0.0807370
4023.55 0.0876372
4025.27 0.104621
4026.13 0.153617
4026.56 0.332293
4026.66 0.510733
4026.77 0.989983
4026.83 1.62383
4026.88 3.21772
4026.91 5.19622
4026.93 9.82680
4026.95 15.1191
4026.96 24.8544
4026.97 34.2671
4026.97 46.8659
4026.98 70.9541
4026.99 104.967
4026.99 172.331
4027.00 209.841
4027.01 163.391
4027.02 104.967
4027.02 75.6028
4027.03 55.6154
4027.03 34.2676
4027.04 22.8492
4027.05 16.2071
4027.07 9.30332
4027.09 6.01711
4027.13 3.07267
4027.16 1.90032
4027.23 0.953957
4027.31 0.598665
4027.45 0.328161
4027.60 0.229706
4028.18 0.133188
4029.34 0.112408
4031.66 0.116426
4033.99 0.127544
4036.31 0.141719
4040.96 0.179936
4045.60 0.237255
4050.25 0.327259
4052.57 0.392193
4054.90 0.477282
4057.22 0.590737
4059.54 0.744093
4061.87 0.953099
4064.19 1.23554
4068.60 1.97217
4073.00 2.46049
4077.41 1.96646
4081.81 1.22983
4085.76 0.795465
4089.71 0.537440
4093.66 0.381465
4097.60 0.282822
4105.50 0.172162
4113.40 0.115817
4121.29 0.0836750
4129.19 0.0638688
4137.09 0.0514666
4141.04 0.0493154
4142.02 0.0510469
4143.01 0.0580111
4144.00 0.0994969
4144.49 0.263051
4144.62 0.427932
4144.74 0.873698
4144.80 1.46568
4144.86 2.97031
4144.89 4.85278
4144.92 9.31958
4144.94 14.4809
4144.95 24.2840
4144.96 33.9119
4144.97 47.4426
4144.98 73.7950
4144.98 115.927
4144.99 183.696
4145.00 231.079
4145.01 183.696
4145.02 115.193
4145.02 73.7951
4145.03 49.9614
4145.04 35.4830
4145.04 26.2821
4145.06 15.4103
4145.07 10.3178
4145.10 5.42180
4145.13 3.33352
4145.19 1.63478
4145.25 0.976957
4145.36 0.475379
4145.48 0.291710
4145.94 0.105565
4146.87 0.0563765
4148.71 0.0425133
4152.41 0.0366674
4159.81 0.0315728
4174.61 0.0261255
4189.40 0.0241889
4204.20 0.0256322
4218.99 0.0326629
4226.39 0.0405541
4233.79 0.0549341
4241.19 0.0838508
4243.04 0.0955447
4244.89 0.110223
4245.81 0.119010
4246.74 0.128987
4247.66 0.140375
4248.59 0.153431
4249.51 0.168525
4250.44 0.186074
4251.36 0.206627
4252.28 0.230863
4253.21 0.259756
4254.13 0.294503
4255.06 0.336736
4255.98 0.388609
4256.91 0.453286
4257.83 0.534985
4258.76 0.639752
4259.68 0.776060
4260.61 0.956568
4261.53 1.19827
4262.46 1.52481
4263.38 1.96111
4265.19 3.13113
4267.00 3.90871
4267.91 3.67837
4268.81 3.12753
4270.62 1.95747
4271.76 1.43754
4272.89 1.07556
4275.17 0.647234
4277.44 0.425066
4279.71 0.298813
4281.98 0.221162
4284.26 0.170364
4288.80 0.110492
4293.35 0.0781008
4297.89 0.0589442
4302.44 0.0484105
4304.71 0.0521107
4305.85 0.0831386
4306.42 0.210219
4306.56 0.338357
4306.70 0.689208
4306.77 1.15367
4306.84 2.36988
4306.88 3.92293
4306.91 7.55546
4306.93 11.7635
4306.95 20.6292
4306.96 29.1617
4306.97 43.7783
4306.98 70.7489
4306.98 114.944
4306.99 183.890
4307.00 229.854
4307.01 183.890
4307.02 114.944
4307.02 79.5403
4307.03 56.6066
4307.03 41.7029
4307.04 31.7354
4307.05 19.9127
4307.06 13.9617
4307.09 7.55533
4307.11 4.79822
4307.16 2.39897
4307.20 1.44167
4307.30 0.697057
4307.39 0.420497
4307.58 0.211383
4307.77 0.135962
4308.52 0.0602352
4310.02 0.0390816
4313.02 0.0307660
4319.01 0.0243109
4331.01 0.0176519
4343.01 0.0141918
4355.00 0.0124423
4367.00 0.0120310
4378.99 0.0133701
4384.99 0.0152547
4390.99 0.0188535
4396.99 0.0264143
4399.99 0.0349801
4401.49 0.0486952
4402.24 0.0881216
4402.61 0.231021
4402.71 0.372650
4402.80 0.749662
4402.85 1.24442
4402.89 2.51225
4402.92 4.10272
4402.94 7.62175
4402.95 11.5514
4402.96 18.4281
4402.97 24.9119
4402.98 35.0903
4402.98 51.7023
4402.99 73.4474
4402.99 117.491
4403.00 146.854
4403.01 117.491
4403.01 73.4476
4403.02 42.3581
4403.03 26.2965
4403.04 17.5877
4403.05 12.4879
4403.06 7.16453
4403.08 4.62408
4403.11 2.38239
4403.14 1.47556
4403.21 0.724134
4403.27 0.442415
4403.52 0.149940
4404.03 0.0736795
4405.04 0.0590297
4407.07 0.0694899
4409.10 0.0936505
4411.12 0.137447
4413.15 0.225673
4414.17 0.307349
4414.67 0.366284
4415.18 0.443992
4415.43 0.492732
4415.69 0.549737
4415.94 0.617524
4416.19 0.698270
4416.45 0.796262
4416.70 0.915664
4416.95 1.06364
4417.21 1.24982
4417.46 1.48916
4417.71 1.80034
4417.97 2.21714
4418.22 2.78451
4418.47 3.58357
4418.73 4.72904
4418.98 6.40853
4419.23 8.86365
4419.62 14.1724
4420.00 17.7077
4420.19 16.6564
4420.39 14.1545
4420.77 8.84904
4421.10 5.80314
4421.43 3.96244
4421.76 2.82813
4422.10 2.10387
4422.76 1.27988
4423.42 0.854937
4424.08 0.609948
4424.75 0.456692
4426.07 0.283610
4427.40 0.193550
4428.73 0.140904
4430.05 0.107527
4431.38 0.0850701
4434.03 0.0577667
4436.68 0.0428002
4439.33 0.0361798
4440.66 0.0445350
4441.32 0.0891777
4441.65 0.262832
4441.74 0.434022
4441.82 0.889970
4441.86 1.48294
4441.90 2.91864
4441.92 4.63737
4441.94 8.16338
4441.95 12.0503
4441.96 18.4035
4441.97 30.6290
4441.98 40.9472
4441.98 55.7334
4441.99 89.1585
4442.00 111.442
4442.01 89.1584
4442.02 55.7334
4442.02 40.9472
4442.03 30.6290
4442.04 18.4034
4442.05 12.0502
4442.06 8.43434
4442.08 4.75411
4442.10 3.09878
4442.13 1.59164
4442.17 0.970352
4442.25 0.476180
4442.33 0.288020
4442.64 0.0939270
4443.27 0.0412529
4444.52 0.0260250
4447.02 0.0195428
4452.01 0.0144894
4462.01 0.00986119
4472.01 0.00766113
4482.00 0.00643767
4502.00 0.00527016
4511.99 0.00509288
4516.99 0.00535286
4519.49 0.00665773
4520.74 0.0119081
4521.36 0.0324756
4521.68 0.110802
4521.83 0.395015
4521.91 1.33195
4521.95 3.91271
4521.97 9.43973
4521.98 17.3041
4521.99 34.2064
4521.99 56.0856
4522.00 68.4081
4522.01 56.0856
4522.01 34.2064
4522.02 16.1806
4522.03 8.95029
4522.05 3.64376
4522.10 1.19969
4522.18 0.349031
4522.35 0.0972839
4522.68 0.0288102
4523.36 0.0109645
4524.70 0.00639687
4527.38 0.00524406
4532.76 0.00498264
4543.50 0.00508605
4554.24 0.00546464
4559.62 0.00590600
4562.30 0.00680776
4563.65 0.00985774
4564.32 0.0214998
4564.65 0.0660348
4564.82 0.229739
4564.90 0.783253
4564.95 2.37684
4564.97 5.85359
4564.98 10.6280
4564.99 23.2356
4564.99 37.7787
4565.00 46.4468
4565.01 37.7787
4565.01 23.2171
4565.02 14.0739
4565.03 8.75331
4565.04 4.34805
4565.07 1.66862
4565.12 0.523393
4565.22 0.152040
4565.43 0.0446583
4565.86 0.0159808
4566.70 0.00862398
4568.39 0.00686362
4571.76 0.00667394
4578.51 0.00727193
4592.00 0.00956263
4605.49 0.0143672
4612.24 0.0194117
4615.61 0.0257564
4617.29 0.0407783
4618.14 0.0931376
4618.56 0.288574
4618.67 0.481500
4618.77 0.990165
4618.82 1.64687
4618.88 3.23829
4618.90 5.17607
4618.93 9.26784
4618.94 13.3444
4618.95 20.6277
4618.97 35.0289
4618.97 48.7158
4618.98 67.6514
4618.99 107.116
4619.00 135.280
4619.01 107.115
4619.02 67.6514
4619.03 46.3895
4619.04 32.0635
4619.05 17.8812
4619.07 10.8840
4619.08 7.43459
4619.11 4.00470
4619.14 2.49454
4619.21 1.23834
4619.27 0.748585
4619.39 0.364799
4619.51 0.221854
4620.01 0.0775534
4620.99 0.0411465
4622.96 0.0349100
4626.90 0.0418630
4630.84 0.0561597
4632.82 0.0668018
4633.80 0.0733825
4634.79 0.0810415
4635.77 0.0900309
4636.76 0.100648
4637.74 0.113332
4638.73 0.128614
4639.71 0.147287
4640.70 0.170364
4641.68 0.199356
4642.67 0.236426
4643.65 0.284853
4644.64 0.349492
4645.62 0.438237
4646.61 0.563995
4647.60 0.748956
4648.58 1.03117
4649.57 1.47735
4650.55 2.18813
4651.78 3.49662
4653.00 4.36726
4654.23 3.49464
4655.45 2.18665
4656.55 1.41480
4657.64 0.956069
4658.74 0.678427
4659.84 0.502957
4662.03 0.306230
4664.22 0.206456
4666.41 0.149964
4668.61 0.115634
4672.99 0.0803282
4677.38 0.0701646
4679.57 0.0739006
4681.76 0.0875023
4683.96 0.122459
4685.05 0.158232
4686.15 0.222123
4687.24 0.350560
4687.79 0.468603
4688.34 0.664425
4688.61 0.814284
4688.89 1.02264
4689.03 1.15853
4689.16 1.32348
4689.30 1.52614
4689.44 1.77854
4689.57 2.09765
4689.71 2.50790
4689.85 3.04519
4689.98 3.76305
4690.12 4.74223
4690.26 6.10383
4690.40 8.02105
4690.53 10.7030
4690.77 17.1011
4691.00 21.3608
4691.12 20.0869
4691.24 17.0693
4691.47 10.6772
4691.70 6.68574
4691.92 4.40500
4692.15 3.06924
4692.37 2.24630
4692.82 1.33959
4693.27 0.886070
4693.73 0.629055
4694.18 0.470679
4695.08 0.293714
4695.98 0.202324
4696.88 0.149138
4698.69 0.0925971
4700.49 0.0645768
4702.30 0.0485347
4705.91 0.0315454
4709.52 0.0229855
4713.13 0.0179394
4720.35 0.0123345
4727.57 0.00932273
4734.79 0.00745429
4749.23 0.00527957
4763.67 0.00407409
4778.11 0.00333128
4792.55 0.00288069
4799.77 0.00286088
4803.38 0.00339580
4805.18 0.00575679
4806.09 0.0151404
4806.54 0.0514744
4806.76 0.188123
4806.88 0.670263
4806.93 2.14324
4806.96 5.71721
4806.97 11.8106
4806.98 18.7005
4806.99 32.1763
4806.99 52.7583
4807.00 64.3502
4807.01 52.7583
4807.01 32.1764
4807.02 18.7006
4807.03 11.1254
4807.04 5.24028
4807.07 1.92190
4807.13 0.593079
4807.25 0.165539
4807.50 0.0453612
4807.98 0.0135051
4808.95 0.00529742
4810.88 0.00320347
4814.75 0.00267461
4822.50 0.00274055
4830.24 0.00439050
4834.11 0.0114543
4836.04 0.0395234
4836.53 0.0682664
4837.01 0.148968
4837.25 0.259421
4837.49 0.564033
4837.62 0.971458
4837.74 2.05570
4837.80 3.45748
4837.83 4.73726
4837.86 6.87721
4837.89 10.8480
4837.90 14.2357
4837.92 19.4454
4837.93 27.9918
4837.95 43.2112
4837.96 73.1056
4837.97 100.936
4837.98 136.330
4837.99 221.905
4838.00 272.664
4838.01 214.321
4838.02 136.330
4838.03 89.1454
4838.04 60.6553
4838.05 43.2115
4838.06 32.0680
4838.08 19.4456
4838.10 12.9516
4838.12 9.21341
4838.14 6.87739
4838.18 4.28783
4838.26 2.10292
4838.34 1.24393
4838.50 0.582245
4838.66 0.336652
4838.97 0.154153
4839.29 0.0886625
4840.55 0.0239711
4843.09 0.00740557
4848.15 0.00316971
4853.21 0.00233944
4858.27 0.00201840
4878.52 0.00159571
4919.01 0.00132414
4959.51 0.00120855
5000.00 0.00122027
5020.49 0.00144972
5030.73 0.00229744
5035.85 0.00552765
5038.41 0.0181489
5039.69 0.0671717
5040.01 0.116590
5040.33 0.252736
5040.49 0.434611
5040.65 0.917773
5040.73 1.53372
5040.81 3.05785
5040.85 4.83432
5040.89 8.70076
5040.91 12.5672
5040.93 19.5003
5040.95 33.2645
5040.96 45.2396
5040.97 62.8329
5040.99 100.534
5041.00 125.668
5041.02 100.533
5041.03 62.8326
5041.04 39.8797
5041.06 27.2596
5041.07 19.5004
5041.08 14.5211
5041.11 8.70090
5041.14 5.83215
5041.16 4.11851
5041.19 3.08959
5041.24 1.91883
5041.35 0.933642
5041.45 0.552490
5041.66 0.258117
5041.87 0.149577
5042.29 0.0688695
5042.72 0.0398102
5044.40 0.0111930
5047.77 0.00397581
5054.50 0.00260109
5061.24 0.00477627
5064.61 0.0146573
5066.29 0.0537451
5066.71 0.0935876
5067.13 0.204849
5067.34 0.356624
5067.55 0.768772
5067.66 1.31910
5067.77 2.74462
5067.82 4.54310
5067.84 6.14451
5067.87 8.75665
5067.90 13.6758
5067.91 17.6249
5067.92 23.4958
5067.94 32.6899
5067.95 48.0142
5067.96 75.3518
5067.98 130.459
5067.99 209.165
5068.00 260.385
5068.01 209.164
5068.02 129.922
5068.03 87.7948
5068.04 62.8298
5068.05 45.0746
5068.06 34.5488
5068.08 21.4190
5068.10 14.4626
5068.12 10.3828
5068.14 7.80066
5068.18 4.90688
5068.25 2.42838
5068.33 1.44295
5068.48 0.675377
5068.63 0.391478
5068.93 0.179388
5069.23 0.102986
5070.43 0.0272367
5072.84 0.00784003
5077.65 0.00292264
5087.27 0.00168879
5096.89 0.00148146
5106.51 0.00143841
5145.00 0.00166342
5183.49 0.00241711
5202.74 0.00330957
5212.36 0.00435183
5217.17 0.00641297
5219.57 0.0131983
5220.78 0.0390226
5221.38 0.137740
5221.68 0.502962
5221.75 0.850716
5221.83 1.74281
5221.87 2.85158
5221.90 5.35484
5221.92 8.12463
5221.94 13.6285
5221.95 18.9295
5221.96 26.5628
5221.97 39.0550
5221.98 61.3449
5221.99 99.1050
5222.00 122.687
5222.01 99.1048
5222.02 61.3449
5222.03 40.8818
5222.04 28.8191
5222.05 15.4580
5222.07 9.44506
5222.09 6.45790
5222.12 3.48349
5222.15 2.16830
5222.22 1.06078
5222.29 0.631827
5222.42 0.297724
5222.55 0.173742
5223.08 0.0486930
5224.15 0.0161340
5226.28 0.00805911
5230.53 0.00659162
5239.04 0.00784587
5247.55 0.0106469
5256.06 0.0157909
5260.31 0.0200561
5264.56 0.0264441
5268.82 0.0366330
5273.07 0.0543375
5275.20 0.0685534
5276.27 0.0778751
5277.33 0.0892390
5278.39 0.103313
5279.46 0.120988
5279.99 0.131588
5280.52 0.143641
5281.05 0.157424
5281.58 0.173247
5282.65 0.213007
5283.71 0.267938
5284.77 0.346806
5285.84 0.464996
5286.90 0.652481
5287.43 0.789165
5287.96 0.969736
5288.50 1.21373
5289.03 1.54854
5289.56 2.01276
5290.09 2.65028
5291.05 4.24184
5292.00 5.30305
5292.96 4.24018
5293.91 2.64906
5294.92 1.58877
5295.93 1.01459
5296.94 0.692519
5297.95 0.500362
5298.96 0.380344
5299.96 0.307855
5300.47 0.291131
5300.97 0.306429
5301.23 0.352340
5301.48 0.501643
5301.60 0.712555
5301.73 1.28990
5301.79 2.04363
5301.86 3.96489
5301.89 6.33764
5301.92 11.5879
5301.93 17.3207
5301.95 28.4706
5301.96 38.3096
5301.97 53.6837
5301.97 78.6728
5301.98 115.194
5301.99 186.632
5302.00 229.590
5302.01 186.631
5302.02 114.581
5302.03 82.7699
5302.03 61.6291
5302.04 36.8342
5302.06 24.0696
5302.07 16.8454
5302.09 9.52602
5302.12 6.12312
5302.16 3.14101
5302.21 1.96003
5302.31 1.01786
5302.41 0.663812
5302.60 0.391673
5302.79 0.289903
5303.18 0.208790
5303.57 0.174126
5304.34 0.139315
5305.11 0.119030
5308.20 0.0753942
5311.30 0.0530885
5314.39 0.0396036
5320.57 0.0246684
5326.76 0.0170069
5332.94 0.0125717
5339.13 0.00978975
5351.50 0.00667702
5363.87 0.00516263
5376.24 0.00451252
5382.42 0.00450657
5388.61 0.00497894
5394.79 0.00806098
5397.88 0.0202860
5399.43 0.0680880
5399.82 0.116744
5400.20 0.251811
5400.40 0.435859
5400.59 0.933270
5400.69 1.58937
5400.78 3.26120
5400.83 5.36219
5400.85 7.21213
5400.88 10.1967
5400.90 15.4450
5400.93 25.8495
5400.94 35.2349
5400.95 50.2657
5400.96 75.6099
5400.97 121.757
5400.99 193.280
5401.00 243.514
5401.01 193.279
5401.03 121.756
5401.04 70.3685
5401.05 44.4028
5401.07 30.0248
5401.08 21.4757
5401.10 15.7445
5401.11 12.2109
5401.14 7.93236
5401.17 5.48780
5401.20 4.05716
5401.25 2.45292
5401.37 1.17405
5401.48 0.689418
5401.71 0.320485
5401.93 0.185502
5402.39 0.0861854
5402.84 0.0507663
5404.66 0.0160480
5408.30 0.00741352
5411.93 0.00604711
5415.57 0.00585150
5422.84 0.00665578
5430.11 0.00884251
5437.38 0.0138265
5441.01 0.0188027
5444.65 0.0277566
5446.47 0.0351743
5448.28 0.0462959
5450.10 0.0640507
5451.92 0.0949266
5452.83 0.119740
5453.74 0.155889
5454.19 0.180516
5454.65 0.211422
5455.10 0.251005
5455.55 0.302802
5455.78 0.335043
5456.01 0.372497
5456.46 0.468741
5456.92 0.607236
5457.37 0.814767
5457.83 1.14492
5458.05 1.38542
5458.28 1.70407
5458.51 2.13435
5458.74 2.72545
5458.96 3.54605
5459.19 4.67691
5459.60 7.48541
5460.00 9.35086
5460.41 7.47660
5460.81 4.67552
5461.15 3.12082
5461.48 2.16019
5461.82 1.55722
5462.15 1.16680
5462.82 0.716469
5463.49 0.481423
5464.16 0.344528
5464.82 0.258411
5466.16 0.160693
5467.50 0.109548
5468.84 0.0795725
5470.17 0.0605174
5471.51 0.0476636
5474.19 0.0319403
5476.86 0.0230655
5479.53 0.0175690
5482.21 0.0139343
5487.56 0.00957777
5492.91 0.00717205
5503.61 0.00476307
5514.30 0.00367144
5525.00 0.00312610
5546.40 0.00277658
5567.80 0.00301311
5589.19 0.00391275
5599.89 0.00480947
5610.59 0.00630171
5621.29 0.00902563
5626.64 0.0115862
5629.31 0.0147328
5630.65 0.0224515
5631.32 0.0499061
5631.65 0.152980
5631.82 0.526135
5631.90 1.77313
5631.92 2.84573
5631.95 5.27460
5631.97 12.6215
5631.98 22.2652
5631.99 46.3019
5631.99 72.9739
5632.00 92.5900
5632.01 72.9739
5632.01 46.3020
5632.02 25.3379
5632.03 14.7720
5632.05 6.80026
5632.08 2.45718
5632.15 0.758074
5632.29 0.218713
5632.56 0.0683003
5633.11 0.0287364
5634.20 0.0193261
5636.38 0.0187742
5640.76 0.0237565
5645.13 0.0326241
5649.50 0.0481907
5651.68 0.0606945
5652.78 0.0688888
5653.87 0.0788721
5654.96 0.0912252
5656.05 0.106739
5656.60 0.116035
5657.15 0.126579
5657.69 0.138623
5658.24 0.152464
5659.33 0.187153
5660.43 0.235000
5661.52 0.303401
5662.61 0.405423
5663.70 0.566199
5664.25 0.682559
5664.80 0.835726
5665.34 1.04136
5665.89 1.32078
5666.43 1.70450
5666.98 2.22727
5667.99 3.56322
5669.00 4.45323
5670.01 3.56158
5671.02 2.22568
5671.93 1.43218
5672.85 0.962645
5673.76 0.679867
5674.67 0.501435
5676.50 0.301732
5678.32 0.200186
5680.15 0.142110
5681.97 0.106013
5685.63 0.0654600
5689.28 0.0444724
5692.93 0.0322475
5696.58 0.0245170
5700.23 0.0193246
5707.53 0.0130094
5714.83 0.00947523
5722.14 0.00731655
5729.44 0.00592364
5744.04 0.00441135
5758.65 0.00409449
5765.95 0.00466031
5769.60 0.00541384
5773.25 0.00691963
5776.90 0.0102952
5778.73 0.0137184
5780.55 0.0199960
5781.47 0.0252995
5782.38 0.0334025
5783.29 0.0466731
5784.20 0.0706016
5784.66 0.0905904
5785.12 0.120716
5785.57 0.169441
5786.03 0.255419
5786.49 0.429982
5786.94 0.870594
5787.17 1.39801
5787.29 1.85977
5787.40 2.58919
5787.46 3.12213
5787.51 3.83268
5787.57 4.80566
5787.63 6.17973
5787.68 8.18918
5787.74 11.2397
5787.80 16.0269
5787.86 23.6721
5787.93 37.9263
5788.00 47.3412
5788.04 44.5742
5788.07 37.9252
5788.14 23.6710
5788.22 14.7315
5788.29 9.62857
5788.36 6.66565
5788.43 4.86600
5788.50 3.67794
5788.57 2.86990
5788.71 1.88470
5788.85 1.32550
5788.99 0.983545
5789.28 0.601314
5789.56 0.405142
5789.84 0.291461
5790.13 0.219808
5790.41 0.171916
5790.97 0.113484
5791.54 0.0806994
5792.11 0.0604882
5792.67 0.0471749
5793.80 0.0312237
5794.93 0.0224176
5796.07 0.0170373
5797.20 0.0135146
5799.46 0.00932331
5801.72 0.00701502
5806.25 0.00467762
5810.77 0.00356478
5815.30 0.00294086
5824.35 0.00228967
5842.46 0.00178233
5860.56 0.00160358
5896.77 0.00163733
5914.87 0.00205254
5923.92 0.00343912
5928.45 0.00869712
5930.71 0.0292945
5931.84 0.109397
5932.13 0.190308
5932.41 0.413678
5932.55 0.714440
5932.69 1.51084
5932.76 2.53854
5932.83 5.05228
5932.87 8.09430
5932.90 14.6110
5932.92 21.4056
5932.94 32.9761
5932.95 42.9740
5932.96 57.6751
5932.97 79.8028
5932.97 110.837
5932.99 175.947
5933.00 221.676
5933.01 175.946
5933.03 110.837
5933.03 82.8769
5933.04 61.8314
5933.06 38.0711
5933.07 25.3284
5933.09 17.9157
5933.12 10.2200
5933.15 6.56370
5933.21 3.31545
5933.27 2.00546
5933.39 0.955171
5933.51 0.556785
5933.75 0.257098
5933.99 0.147909
5934.96 0.0393513
5936.90 0.0113676
5940.77 0.00433446
5948.50 0.00279958
5956.24 0.00339336
5960.11 0.00655804
5962.05 0.0190793
5963.02 0.0680270
5963.50 0.255940
5963.62 0.442718
5963.74 0.947836
5963.80 1.61463
5963.86 3.29282
5963.89 5.31848
5963.92 9.94770
5963.94 14.8474
5963.95 24.2527
5963.96 33.1261
5963.97 45.1051
5963.98 67.1575
5963.98 98.3518
5963.99 157.362
5964.00 196.703
5964.01 157.362
5964.02 98.3518
5964.03 67.1576
5964.03 49.5979
5964.04 28.2016
5964.06 17.8390
5964.07 12.5354
5964.10 6.81920
5964.12 4.33073
5964.17 2.15800
5964.22 1.28708
5964.32 0.607624
5964.43 0.354597
5964.83 0.0946429
5965.64 0.0260141
5967.27 0.00840527
5970.52 0.00400003
5977.01 0.00304247
5990.01 0.00324640
6003.01 0.00394561
6016.00 0.00511547
6029.00 0.00710873
6041.99 0.0108400
6048.49 0.0140527
6054.99 0.0190703
6061.49 0.0276978
6064.74 0.0354143
6066.36 0.0446293
6067.17 0.0669430
6067.58 0.144890
6067.78 0.428509
6067.89 1.40438
6067.94 4.30611
6067.96 10.7262
6067.97 21.1620
6067.98 31.0573
6067.99 48.3590
6067.99 76.7856
6068.00 96.6755
6068.01 76.7857
6068.01 48.3591
6068.02 23.9227
6068.04 12.9629
6068.06 5.35692
6068.08 2.88436
6068.10 1.80152
6068.19 0.557603
6068.36 0.183258
6068.71 0.0815090
6069.41 0.0571624
6070.80 0.0562913
6072.19 0.0622633
6073.59 0.0706528
6074.98 0.0813541
6076.37 0.0949125
6077.07 0.103050
6077.76 0.112282
6079.16 0.134942
6080.55 0.165196
6081.94 0.206747
6083.34 0.265798
6084.73 0.353274
6086.12 0.489532
6087.52 0.714745
6088.21 0.883934
6088.91 1.11102
6089.60 1.41837
6090.30 1.83078
6091.65 2.92814
6093.00 3.65871
6094.35 2.92646
6095.70 1.82916
6096.87 1.19953
6098.03 0.818301
6099.20 0.584125
6100.36 0.434163
6102.69 0.263842
6105.02 0.176068
6107.35 0.125454
6109.68 0.0938141
6114.34 0.0580956
6119.00 0.0395366
6123.66 0.0287705
6128.33 0.0224124
6130.66 0.0219892
6131.82 0.0291976
6132.40 0.0610011
6132.69 0.182377
6132.84 0.617126
6132.91 2.00500
6132.95 5.49959
6132.97 11.8082
6132.98 19.3599
6132.99 34.4474
6132.99 56.5633
6133.00 68.8780
6133.01 53.6284
6133.02 34.4474
6133.02 20.5656
6133.03 13.0808
6133.05 6.38252
6133.08 2.47280
6133.14 0.798467
6133.27 0.236767
6133.52 0.0750091
6134.02 0.0312870
6135.01 0.0193331
6137.01 0.0151492
6141.01 0.0122547
6149.00 0.00905100
6156.99 0.00715945
6160.99 0.00689313
6162.99 0.00846727
6163.99 0.0157881
6164.49 0.0447182
6164.74 0.153801
6164.86 0.539712
6164.92 1.72624
6164.96 4.63213
6164.97 9.91447
6164.98 16.1367
6164.99 26.2186
6164.99 41.9465
6165.00 52.4318
6165.01 41.9465
6165.01 26.2186
6165.03 11.7895
6165.04 6.27117
6165.06 2.62893
6165.11 0.872018
6165.20 0.256226
6165.39 0.0733939
6165.76 0.0231216
6166.51 0.00990324
6168.01 0.00635766
6171.01 0.00515411
6177.01 0.00434162
6189.00 0.00341835
6200.99 0.00286149
6206.99 0.00284076
6209.99 0.00358045
6211.49 0.00686701
6212.24 0.0199384
6212.61 0.0703731
6212.80 0.256194
6212.89 0.896360
6212.94 2.79581
6212.96 6.96215
6212.98 13.6884
6212.99 30.1684
6212.99 49.7396
6213.00 60.3345
6213.01 46.7736
6213.01 30.1684
6213.02 17.9217
6213.03 12.0688
6213.04 6.32359
6213.06 2.54314
6213.11 0.818707
6213.21 0.234881
6213.40 0.0647564
6213.80 0.0184665
6214.58 0.00641977
6216.14 0.00330567
6219.26 0.00244635
6225.51 0.00210232
6238.01 0.00181524
6263.00 0.00149559
6287.99 0.00136663
6300.49 0.00150053
6306.74 0.00217331
6309.86 0.00484870
6311.42 0.0153959
6312.20 0.0565650
6312.59 0.214050
6312.79 0.785917
6312.84 1.32739
6312.89 2.70097
6312.91 4.40005
6312.94 8.10064
6312.95 11.9299
6312.96 19.0861
6312.97 34.2907
6312.98 48.4942
6312.98 73.0940
6312.99 115.436
6313.00 146.187
6313.01 115.436
6313.02 73.0940
6313.02 45.6575
6313.03 30.8024
6313.05 15.5056
6313.06 9.14681
6313.07 6.14538
6313.10 3.17789
6313.13 1.96018
6313.19 0.947865
6313.25 0.561099
6313.48 0.151085
6313.95 0.0400554
6314.89 0.0111727
6316.76 0.00382366
6320.51 0.00202323
6328.00 0.00187158
6335.49 0.00356109
6339.23 0.0106356
6341.10 0.0385582
6342.04 0.146712
6342.27 0.255204
6342.51 0.552120
6342.62 0.945383
6342.74 1.97651
6342.80 3.28534
6342.86 6.39099
6342.89 10.0480
6342.92 17.4963
6342.93 24.9163
6342.95 36.6851
6342.96 59.9160
6342.97 103.673
6342.99 164.574
6343.00 207.347
6343.01 164.573
6343.03 103.672
6343.03 74.6441
6343.04 53.9467
6343.05 40.1959
6343.06 30.8443
6343.08 19.5656
6343.10 13.6662
6343.13 7.57071
6343.17 4.78107
6343.24 2.37401
6343.31 1.42186
6343.45 0.670737
6343.59 0.390370
6343.87 0.179528
6344.15 0.103039
6345.27 0.0272053
6347.52 0.00771926
6352.02 0.00277890
6361.02 0.00153530
6379.01 0.00126043
6397.00 0.00134190
6405.99 0.00166322
6410.49 0.00278773
6412.74 0.00713691
6413.86 0.0241939
6414.42 0.0902890
6414.70 0.338623
6414.85 1.22301
6414.88 2.02700
6414.92 3.97786
6414.93 6.28582
6414.95 10.8729
6414.97 23.7203
6414.98 39.2919
6414.99 65.8349
6414.99 108.122
6415.00 131.669
6415.01 102.511
6415.02 65.8350
6415.02 44.4835
6415.03 32.8816
6415.04 18.5868
6415.05 11.7155
6415.06 7.99521
6415.08 4.36701
6415.10 2.73585
6415.15 1.35822
6415.19 0.808478
6415.37 0.220970
6415.72 0.0588276
6416.42 0.0160628
6417.83 0.00511809
6420.64 0.00237673
6426.26 0.00176620
6437.50 0.00186478
6448.74 0.00240459
6454.36 0.00316780
6457.18 0.00483977
6458.58 0.0104662
6459.28 0.0318683
6459.63 0.112941
6459.81 0.408278
6459.90 1.38724
6459.94 4.10180
6459.96 9.67418
6459.98 17.3085
6459.99 32.6909
6459.99 53.6873
6460.00 65.3786
6460.01 50.9010
6460.02 32.6909
6460.02 19.5118
6460.03 13.0784
6460.05 6.54088
6460.07 2.58353
6460.13 0.836841
6460.25 0.241707
6460.48 0.0672336
6460.94 0.0200306
6461.87 0.00788447
6463.73 0.00512920
6467.45 0.00539478
6471.16 0.00698142
6474.87 0.0100780
6476.73 0.0127116
6478.59 0.0167363
6480.45 0.0233338
6482.30 0.0352514
6483.23 0.0452041
6484.16 0.0602623
6485.09 0.0846211
6486.02 0.127798
6486.95 0.215841
6487.41 0.298771
6487.88 0.440668
6487.99 0.492463
6488.11 0.553346
6488.34 0.714340
6488.57 0.956508
6488.69 1.12596
6488.81 1.34396
6488.92 1.63054
6489.04 2.01685
6489.15 2.55321
6489.27 3.32411
6489.39 4.47754
6489.50 6.28197
6489.62 9.22623
6489.73 14.0954
6489.87 22.5599
6490.00 28.1358
6490.13 22.4915
6490.27 14.0417
6490.38 9.48898
6490.48 6.62594
6490.59 4.81181
6490.70 3.62213
6490.91 2.23889
6491.12 1.51182
6491.34 1.08409
6491.55 0.813941
6491.98 0.506578
6492.41 0.344806
6492.83 0.249915
6493.26 0.189354
6493.69 0.148554
6494.54 0.0985359
6495.40 0.0702633
6496.25 0.0527476
6497.11 0.0411543
6498.82 0.0272516
6500.53 0.0195560
6502.24 0.0148599
6503.95 0.0117889
6507.37 0.00815925
6510.79 0.00619006
6517.63 0.00427209
6524.47 0.00345304
6531.31 0.00309464
6538.15 0.00303203
6541.57 0.00332787
6543.28 0.00455477
6544.13 0.00936510
6544.56 0.0279085
6544.77 0.0973938
6544.88 0.340948
6544.93 1.07545
6544.96 2.88828
6544.97 5.81784
6544.99 15.4892
6545.00 30.9755
6545.01 15.4892
6545.02 7.56165
6545.03 4.33453
6545.05 1.89539
6545.09 0.643738
6545.16 0.193191
6545.31 0.0548766
6545.60 0.0164704
6546.18 0.00640175
6547.36 0.00383875
6549.70 0.00322756
6554.38 0.00318487
6563.75 0.00354577
6582.50 0.00529104
6591.87 0.00711955
6601.24 0.0104873
6605.92 0.0133474
6610.61 0.0178058
6615.29 0.0260371
6617.64 0.0368820
6618.81 0.0626522
6619.39 0.151269
6619.69 0.472672
6619.76 0.777253
6619.83 1.55557
6619.87 2.51890
6619.91 4.67751
6619.93 7.13462
6619.94 11.7056
6619.96 21.9835
6619.97 32.1473
6619.98 48.8585
6619.99 79.6324
6620.00 97.6818
6620.01 76.6581
6620.02 48.8585
6620.03 32.1475
6620.04 21.9839
6620.06 11.7061
6620.08 7.13521
6620.09 4.87212
6620.13 2.59600
6620.16 1.63104
6620.23 0.817162
6620.31 0.497999
6620.59 0.162729
6621.15 0.0729236
6622.29 0.0540136
6623.42 0.0557266
6624.55 0.0617884
6625.69 0.0705602
6626.82 0.0821659
6627.95 0.0973726
6628.52 0.106714
6629.08 0.117521
6629.65 0.130122
6630.22 0.144868
6631.35 0.183091
6632.48 0.238592
6633.62 0.323049
6634.18 0.382755
6634.75 0.459807
6635.32 0.561576
6635.88 0.698420
6636.45 0.887295
6637.01 1.15269
6637.58 1.53172
6638.15 2.07011
6639.07 3.31071
6640.00 4.13693
6640.93 3.30807
6641.86 2.06781
6642.80 1.26039
6643.75 0.814073
6644.69 0.559113
6645.64 0.404285
6646.59 0.304532
6647.53 0.237136
6649.43 0.154982
6651.32 0.108979
6653.21 0.0807885
6657.00 0.0495366
6660.78 0.0335615
6664.57 0.0243297
6668.35 0.0185240
6672.14 0.0146401
6679.71 0.00993542
6687.28 0.00731024
6702.41 0.00466099
6717.55 0.00345970
6732.69 0.00290470
6747.83 0.00303017
6755.40 0.00477767
6759.19 0.0120053
6761.08 0.0404802
6762.03 0.150627
6762.26 0.261356
6762.50 0.562694
6762.62 0.965376
6762.74 2.01238
6762.80 3.32028
6762.86 6.46085
6762.89 10.0711
6762.91 17.2946
6762.93 24.3524
6762.94 36.3542
6762.96 58.3014
6762.97 96.3685
6762.99 156.465
6763.00 192.738
6763.01 151.897
6763.03 96.3683
6763.04 66.9713
6763.05 47.8242
6763.06 35.3217
6763.07 27.6327
6763.09 17.2947
6763.11 11.9558
6763.14 6.54793
6763.18 4.10842
6763.26 2.04306
6763.34 1.21726
6763.50 0.574089
6763.65 0.333332
6763.96 0.153763
6764.27 0.0889060
6765.52 0.0245060
6768.02 0.00806448
6773.00 0.00431387
6777.99 0.00601745
6780.49 0.0157783
6781.73 0.0546877
6782.36 0.204842
6782.51 0.354678
6782.67 0.761891
6782.75 1.29633
6782.82 2.67772
6782.86 4.37778
6782.90 8.36990
6782.92 12.8839
6782.94 21.4333
6782.95 29.5774
6782.96 41.1844
6782.97 62.6815
6782.98 95.3006
6782.99 155.370
6783.00 190.601
6783.01 149.564
6783.02 95.3005
6783.03 59.9544
6783.04 41.1845
6783.05 28.5820
6783.06 21.4334
6783.08 12.8840
6783.10 8.53565
6783.14 4.50537
6783.17 2.80181
6783.25 1.37021
6783.32 0.809607
6783.47 0.377320
6783.62 0.218675
6784.22 0.0584256
6785.43 0.0165697
6787.83 0.00584405
6792.64 0.00307556
6802.26 0.00233817
6821.50 0.00220600
6840.74 0.00238872
6850.36 0.00280251
6855.17 0.00412314
6857.58 0.00916052
6858.78 0.0288928
6859.38 0.105181
6859.68 0.392021
6859.83 1.39652
6859.87 2.32405
6859.91 4.49903
6859.93 7.01942
6859.95 12.3438
6859.96 17.8412
6859.97 26.3588
6859.97 41.7511
6859.98 74.3152
6859.99 119.634
6860.00 148.629
6860.01 119.634
6860.02 74.3152
6860.02 46.7209
6860.03 30.4718
6860.05 15.2850
6860.06 9.00384
6860.08 5.89177
6860.11 3.06671
6860.14 1.89728
6860.21 0.912831
6860.27 0.538934
6860.52 0.145315
6861.03 0.0393648
6862.05 0.0119034
6864.08 0.00492994
6868.14 0.00322880
6876.26 0.00293827
6892.50 0.00322247
6908.75 0.00376483
6916.87 0.00418763
6920.93 0.00469538
6922.96 0.00603152
6923.97 0.0109337
6924.48 0.0298278
6924.73 0.101226
6924.86 0.356624
6924.92 1.15979
6924.96 3.27380
6924.97 7.25266
6924.98 12.2002
6924.99 21.1067
6925.00 42.2089
6925.01 21.1067
6925.02 9.92531
6925.03 5.48634
6925.05 2.23310
6925.10 0.736056
6925.18 0.215210
6925.35 0.0610976
6925.68 0.0191988
6926.36 0.00831418
6927.70 0.00559918
6930.38 0.00505946
6935.76 0.00524942
6946.50 0.00611749
6957.24 0.00741756
6962.61 0.00863599
6965.30 0.0109257
6966.64 0.0185173
6967.31 0.0472791
6967.65 0.156111
6967.82 0.547682
6967.90 1.81682
6967.94 5.19648
6967.96 11.7245
6967.97 19.5181
6967.98 35.5219
6967.99 56.8298
6968.00 71.0351
6968.01 56.8298
6968.02 35.5219
6968.03 18.4684
6968.04 11.1982
6968.06 5.19654
6968.10 1.89021
6968.18 0.578211
6968.34 0.165905
6968.66 0.0502380
6969.31 0.0197029
6970.61 0.0120633
6973.20 0.0105949
6978.38 0.0113137
6988.75 0.0144936
6993.93 0.0167528
6996.52 0.0181025
6999.11 0.0196321
7001.70 0.0213739
7004.29 0.0233685
7006.88 0.0256663
7009.47 0.0283315
7012.07 0.0314471
7014.66 0.0351166
7017.25 0.0394797
7019.84 0.0447208
7022.43 0.0510888
7025.02 0.0589260
7027.61 0.0687123
7030.20 0.0811358
7032.79 0.0972069
7035.38 0.118450
7037.98 0.147230
7040.57 0.187333
7043.16 0.244980
7045.75 0.330563
7048.34 0.461084
7050.93 0.660511
7054.47 1.05588
7058.00 1.31876
7061.54 1.05456
7065.07 0.659293
7067.25 0.486354
7069.43 0.365140
7073.80 0.220765
7078.16 0.145331
7082.52 0.102334
7086.89 0.0759988
7091.25 0.0592948
7095.61 0.0511357
7096.71 0.0526674
7097.80 0.0616118
7098.89 0.118552
7099.43 0.342095
7099.57 0.564980
7099.71 1.15886
7099.77 1.92306
7099.84 3.84020
7099.88 6.11309
7099.91 11.1776
7099.93 16.3812
7099.94 26.0152
7099.96 46.1361
7099.97 65.9061
7099.98 92.8018
7099.99 151.030
7100.00 185.568
7100.01 145.870
7100.02 92.8016
7100.03 63.2339
7100.04 46.1360
7100.06 26.8161
7100.07 17.2164
7100.09 11.9005
7100.12 6.61130
7100.15 4.19004
7100.22 2.09816
7100.28 1.27166
7100.41 0.618783
7100.54 0.375022
7101.05 0.124215
7102.08 0.0568136
7103.11 0.0428805
7104.14 0.0371221
7108.26 0.0282421
7116.50 0.0207432
7124.74 0.0167789
7128.86 0.0170953
7130.92 0.0240874
7131.95 0.0539610
7132.47 0.170036
7132.73 0.602415
7132.79 1.02309
7132.86 2.09654
7132.89 3.41374
7132.92 6.49560
7132.94 9.85027
7132.95 16.5205
7132.97 32.2373
7132.98 48.5962
7132.98 76.8385
7132.99 125.807
7133.00 153.665
7133.01 120.027
7133.02 76.8385
7133.03 48.5963
7133.03 32.2374
7133.05 17.1381
7133.06 10.4417
7133.08 6.98081
7133.11 3.72809
7133.14 2.30997
7133.20 1.12629
7133.26 0.672200
7133.50 0.189712
7133.99 0.0586158
7134.95 0.0242299
7136.89 0.0150129
7140.76 0.0119065
7148.51 0.00991374
7163.99 0.00796852
7179.48 0.00741985
7183.35 0.00778261
7187.23 0.00914958
7191.10 0.0170529
7193.03 0.0484119
7193.52 0.0803438
7194.00 0.169358
7194.24 0.290068
7194.49 0.618255
7194.61 1.04926
7194.73 2.16476
7194.79 3.55679
7194.85 6.78316
7194.88 10.4664
7194.91 17.6888
7194.92 24.2938
7194.94 35.0246
7194.95 53.4752
7194.97 87.5532
7194.99 141.000
7195.00 175.103
7195.02 140.999
7195.03 87.5529
7195.04 62.3824
7195.05 44.8242
7195.06 33.2520
7195.07 25.4313
7195.10 16.0594
7195.12 10.9715
7195.14 7.93992
7195.16 6.00019
7195.21 3.76222
7195.29 1.87065
7195.38 1.11544
7195.56 0.527870
7195.73 0.308935
7196.08 0.144807
7196.44 0.0853594
7197.84 0.0264778
7200.65 0.0113820
7206.27 0.00760838
7217.51 0.00699877
7228.75 0.00774565
7234.37 0.00910663
7237.18 0.0127343
7238.58 0.0258978
7239.28 0.0765009
7239.63 0.268052
7239.81 0.961405
7239.85 1.60940
7239.90 3.22998
7239.92 5.14279
7239.94 9.37424
7239.95 13.6802
7239.96 21.5465
7239.97 37.5613
7239.98 68.3663
7239.99 109.381
7240.00 136.724
7240.01 109.381
7240.02 68.3663
7240.02 42.0749
7240.03 28.7672
7240.05 14.7639
7240.06 8.80914
7240.08 5.95999
7240.11 3.11126
7240.13 1.93055
7240.25 0.562088
7240.49 0.157467
7240.95 0.0474387
7241.89 0.0188681
7243.76 0.0118847
7247.51 0.0108439
7255.01 0.0126541
7262.50 0.0162694
7270.00 0.0227438
7277.49 0.0356632
7279.37 0.0409057
7281.24 0.0475206
7283.12 0.0560287
7284.05 0.0612251
7284.99 0.0672142
7285.93 0.0741799
7286.86 0.0823356
7287.80 0.0919648
7288.74 0.103440
7289.67 0.117257
7290.61 0.134084
7291.55 0.154842
7292.49 0.180820
7293.42 0.213856
7294.36 0.256635
7295.30 0.313154
7296.23 0.389490
7297.17 0.495019
7298.11 0.644202
7299.04 0.858442
7299.98 1.16422
7301.49 1.86012
7303.00 2.32367
7304.51 1.85935
7306.02 1.16371
7307.00 0.846878
7307.98 0.629005
7309.93 0.375020
7311.89 0.245380
7313.84 0.172536
7315.80 0.128189
7317.75 0.0994472
7321.66 0.0661029
7325.57 0.0486522
7329.48 0.0388763
7337.30 0.0308612
7345.12 0.0330458
7349.03 0.0390058
7352.94 0.0513610
7356.85 0.0779485
7358.80 0.103186
7360.76 0.145936
7361.73 0.179266
7362.22 0.200665
7362.71 0.226266
7363.20 0.257355
7363.69 0.295500
7364.18 0.342950
7364.67 0.402762
7365.15 0.479812
7365.64 0.580897
7366.13 0.716570
7366.62 0.902921
7367.11 1.16717
7367.60 1.55090
7368.09 2.12279
7368.57 2.97038
7369.29 4.74718
7370.00 5.93066
7370.36 5.58106
7370.71 4.74314
7371.43 2.96677
7371.95 2.07229
7372.47 1.48662
7372.99 1.10241
7373.51 0.843920
7374.56 0.534425
7375.60 0.366629
7376.64 0.266617
7377.69 0.202693
7379.77 0.128883
7381.86 0.0896173
7383.95 0.0663221
7388.12 0.0411974
7392.29 0.0286251
7396.47 0.0214226
7404.81 0.0138678
7413.16 0.0101672
7421.50 0.00807821
7438.20 0.00595871
7454.89 0.00504477
7471.58 0.00472179
7488.27 0.00497372
7496.62 0.00617422
7500.79 0.0106134
7502.88 0.0277591
7503.92 0.0933917
7504.18 0.158694
7504.44 0.335514
7504.57 0.567825
7504.70 1.15958
7504.77 1.87945
7504.83 3.54322
7504.87 5.36541
7504.90 8.81483
7504.92 12.0878
7504.93 16.9739
7504.95 24.9725
7504.96 38.8108
7504.98 62.4349
7505.00 77.6183
7505.02 62.4346
7505.04 38.8106
7505.06 23.1453
7505.08 14.8666
7505.10 9.98789
7505.11 7.22116
7505.15 4.18401
7505.19 2.71188
7505.27 1.39778
7505.35 0.849395
7505.50 0.409828
7505.66 0.241549
7505.97 0.114199
7506.28 0.0675861
7507.53 0.0210796
7510.03 0.00912396
7515.02 0.00625013
7525.00 0.00603265
7534.98 0.00722736
7539.97 0.0106036
7542.47 0.0227660
7543.72 0.0691616
7544.03 0.115560
7544.34 0.242265
7544.50 0.409664
7544.65 0.846908
7544.73 1.39239
7544.81 2.69951
7544.85 4.16384
7544.89 7.18489
7544.91 10.1215
7544.93 14.7898
7544.94 23.0247
7544.96 38.6071
7544.98 62.1060
7545.00 77.2088
7545.02 62.1057
7545.04 38.6069
7545.06 23.0247
7545.08 14.4759
7545.10 9.75724
7545.12 6.96170
7545.16 4.01380
7545.20 2.59447
7545.28 1.33392
7545.36 0.810066
7545.52 0.391357
7545.68 0.232090
7546.00 0.110791
7546.31 0.0665958
7547.59 0.0225147
7550.15 0.0113524
7555.25 0.00908495
7565.47 0.0103048
7570.58 0.0119961
7575.69 0.0156951
7578.24 0.0201154
7579.52 0.0242881
7580.79 0.0316820
7582.07 0.0470950
7582.71 0.0622026
7583.35 0.0893055
7583.99 0.145957
7584.62 0.297830
7584.94 0.494299
7585.10 0.679192
7585.26 0.991651
7585.42 1.59086
7585.50 2.11757
7585.58 2.93970
7585.66 4.36160
7585.70 5.47920
7585.74 7.06409
7585.78 9.39411
7585.82 12.9550
7585.86 18.5886
7585.90 27.4266
7585.95 43.7864
7586.00 54.8396
7586.05 43.7857
7586.10 27.4260
7586.14 19.1279
7586.17 13.6409
7586.21 10.0646
7586.25 7.72131
7586.32 4.87407
7586.39 3.33156
7586.47 2.41347
7586.54 1.82636
7586.68 1.14927
7586.83 0.788097
7586.98 0.576050
7587.27 0.348333
7587.56 0.234992
7587.85 0.170970
7588.15 0.131103
7588.44 0.104788
7589.02 0.0731725
7589.61 0.0557105
7590.78 0.0382139
7591.95 0.0301978
7593.12 0.0259991
7595.46 0.0222728
7600.14 0.0210445
7604.82 0.0224742
7614.18 0.0290189
7618.86 0.0341847
7621.20 0.0373991
7623.54 0.0411393
7625.88 0.0455184
7628.22 0.0506777
7630.56 0.0568039
7632.89 0.0641410
7634.06 0.0683659
7635.23 0.0730272
7637.57 0.0839119
7639.91 0.0974230
7642.25 0.114440
7644.59 0.136262
7646.93 0.164781
7649.27 0.202880
7651.61 0.255007
7653.95 0.328294
7656.29 0.433974
7658.63 0.589557
7660.97 0.817799
7664.49 1.30718
7668.00 1.63247
7669.76 1.53602
7671.52 1.30560
7675.03 0.816254
7677.22 0.600771
7679.40 0.450085
7683.77 0.271109
7688.14 0.177831
7692.51 0.124675
7696.88 0.0919678
7701.25 0.0706715
7705.62 0.0567848
7707.80 0.0545772
7708.89 0.0658115
7709.44 0.117927
7709.71 0.317302
7709.85 1.02691
7709.92 3.22462
7709.95 8.67388
7709.97 18.2439
7709.98 30.3105
7709.99 51.9728
7709.99 84.8099
7710.00 103.901
7710.01 84.8098
7710.01 51.9728
7710.03 26.8621
7710.04 14.9734
7710.06 6.56291
7710.10 2.25621
7710.19 0.693663
7710.36 0.220281
7710.70 0.0894261
7711.39 0.0539868
7712.76 0.0427686
7715.51 0.0362333
7721.01 0.0289154
7732.01 0.0200147
7743.01 0.0147416
7754.00 0.0113466
7775.99 0.00739045
7786.99 0.00621492
7792.49 0.00588846
7795.24 0.00632377
7796.61 0.00882264
7797.30 0.0189602
7797.64 0.0580744
7797.82 0.202247
7797.90 0.691327
7797.95 2.10653
7797.97 5.08068
7797.98 9.66958
7797.99 20.3865
7798.00 40.7520
7798.01 20.3707
7798.02 9.05618
7798.04 4.59417
7798.06 1.84369
7798.11 0.604191
7798.20 0.175462
7798.38 0.0508466
7798.75 0.0169668
7799.50 0.00812257
7800.98 0.00577912
7803.95 0.00501669
7809.88 0.00451688
7821.76 0.00388624
7845.50 0.00303010
7869.24 0.00248980
7881.12 0.00236926
7887.05 0.00262191
7890.02 0.00393470
7891.50 0.00927126
7892.25 0.0302494
7892.62 0.110807
7892.80 0.405430
7892.89 1.40619
7892.94 4.23068
7892.96 10.2588
7892.98 19.5536
7892.99 40.9506
7892.99 65.5197
7893.00 81.8992
7893.01 65.5198
7893.01 40.9506
7893.02 25.2012
7893.03 16.3815
7893.04 8.19180
7893.07 3.15198
7893.13 1.00084
7893.24 0.286875
7893.46 0.0782071
7893.90 0.0217189
7894.79 0.00705779
7896.57 0.00330691
7900.13 0.00232839
7907.25 0.00203136
7921.49 0.00193912
7928.61 0.00202296
7935.73 0.00238613
7942.85 0.00453151
7946.41 0.0130916
7948.19 0.0466445
7948.64 0.0807392
7949.08 0.175634
7949.30 0.304515
7949.53 0.652317
7949.64 1.10646
7949.75 2.27162
7949.80 3.71108
7949.86 6.98981
7949.89 10.5867
7949.91 17.7060
7949.93 24.1110
7949.94 34.3292
7949.96 51.4319
7949.97 79.2346
7949.99 127.606
7950.00 158.470
7950.02 127.605
7950.03 79.2343
7950.04 51.4318
7950.06 34.3293
7950.07 24.1111
7950.09 18.0773
7950.11 10.7622
7950.14 7.18189
7950.20 3.78582
7950.25 2.34412
7950.36 1.14359
7950.47 0.674751
7950.69 0.315236
7950.90 0.182275
7951.34 0.0837549
7951.78 0.0484273
7953.52 0.0136137
7957.01 0.00481326
7964.00 0.00304602
7970.98 0.00539173
7974.47 0.0163735
7976.22 0.0596675
7976.66 0.103609
7977.09 0.225041
7977.31 0.388198
7977.53 0.825488
7977.64 1.38934
7977.75 2.80878
7977.80 4.52128
7977.83 5.98999
7977.86 8.29183
7977.88 12.3650
7977.91 19.7613
7977.92 26.3043
7977.94 35.4244
7977.95 50.6689
7977.96 74.3934
7977.98 117.848
7978.00 148.577
7978.02 117.847
7978.04 74.1823
7978.06 42.1635
7978.08 26.3044
7978.10 17.6529
7978.12 12.5611
7978.14 9.35415
7978.16 7.21878
7978.20 4.65642
7978.24 3.24372
7978.28 2.38603
7978.36 1.44397
7978.52 0.691596
7978.68 0.404345
7979.00 0.187314
7979.32 0.107965
7979.96 0.0496193
7980.60 0.0287881
7983.16 0.00831863
7988.28 0.00306936
7998.53 0.00167751
8008.78 0.00137364
8019.03 0.00124030
8060.01 0.00102936
8141.99 0.000904789
8223.97 0.000930871
8305.95 0.00110999
8387.93 0.00157621
8428.92 0.00204771
8469.90 0.00288478
8510.89 0.00457072
8531.39 0.00614102
8551.88 0.00880022
8557.01 0.00975583
8562.13 0.0108847
8567.25 0.0122313
8569.82 0.0130042
8572.38 0.0138552
8574.94 0.0147957
8577.50 0.0158384
8580.06 0.0169986
8582.62 0.0182939
8587.75 0.0213841
8592.87 0.0253437
8598.00 0.0305281
8603.12 0.0374843
8608.24 0.0470911
8613.37 0.0608097
8618.49 0.0811826
8623.61 0.112741
8628.74 0.163614
8633.86 0.246533
8639.93 0.393435
8646.00 0.491015
8649.04 0.462078
8652.07 0.392968
8658.14 0.246345
8665.16 0.142109
8672.18 0.0888287
8679.20 0.0602761
8686.23 0.0438262
8693.25 0.0337814
8700.27 0.0274377
8714.31 0.0211030
8728.35 0.0206128
8735.37 0.0229408
8742.40 0.0283910
8749.42 0.0404167
8752.93 0.0517007
8756.44 0.0703502
8758.19 0.0844842
8759.95 0.103882
8760.83 0.116389
8761.70 0.131397
8762.58 0.149635
8763.46 0.171997
8764.34 0.199821
8765.22 0.234872
8766.09 0.279672
8766.97 0.337718
8767.85 0.414214
8768.73 0.516042
8769.60 0.652710
8770.48 0.834073
8771.36 1.06611
8772.24 1.33127
8774.00 1.66240
8774.88 1.56459
8775.76 1.33036
8777.52 0.832952
8779.61 0.472522
8781.70 0.290852
8783.79 0.193986
8785.87 0.137928
8787.96 0.103000
8790.05 0.0799352
8794.23 0.0524449
8798.40 0.0373566
8802.58 0.0282026
8810.93 0.0181109
8819.29 0.0129370
8827.64 0.00991766
8844.35 0.00669141
8861.06 0.00509707
8877.76 0.00422425
8911.18 0.00354324
8944.59 0.00387645
8961.30 0.00458172
8978.00 0.00603430
8994.71 0.00920976
9003.06 0.0122943
9011.42 0.0176661
9019.77 0.0282034
9023.95 0.0377102
9026.04 0.0444415
9028.12 0.0531910
9029.17 0.0585856
9030.21 0.0648430
9031.26 0.0721606
9032.30 0.0807862
9033.35 0.0910424
9034.39 0.103354
9035.43 0.118289
9036.48 0.136615
9037.52 0.159411
9038.57 0.188101
9039.61 0.224772
9040.65 0.272361
9041.70 0.335045
9042.74 0.418655
9043.79 0.530862
9044.83 0.680110
9046.92 1.08749
9049.00 1.35877
9050.04 1.27859
9051.09 1.08682
9053.17 0.679457
9054.48 0.498866
9055.78 0.373078
9058.40 0.224161
9061.01 0.146874
9063.62 0.102935
9066.23 0.0759073
9068.85 0.0582236
9074.07 0.0373731
9079.30 0.0260661
9084.52 0.0192770
9094.97 0.0118911
9105.43 0.00817758
9115.88 0.00605268
9136.78 0.00384315
9157.68 0.00278689
9178.58 0.00221751
9220.39 0.00173521
9262.19 0.00177050
9283.09 0.00201798
9303.99 0.00256989
9324.90 0.00383219
9335.35 0.00509996
9345.80 0.00738523
9351.02 0.00927848
9356.25 0.0121151
9361.48 0.0166397
9366.70 0.0244988
9371.93 0.0399706
9374.54 0.0540237
9375.85 0.0640277
9377.15 0.0770971
9378.46 0.0946185
9379.11 0.105682
9379.76 0.118781
9380.42 0.134438
9381.07 0.153344
9381.72 0.176436
9382.38 0.204996
9383.03 0.240876
9383.68 0.286507
9384.34 0.345595
9384.99 0.423474
9385.64 0.527971
9386.30 0.670437
9386.95 0.866480
9387.60 1.13413
9388.80 1.81411
9390.00 2.26653
9390.60 2.13300
9391.20 1.81291
9392.40 1.13308
9393.21 0.813328
9394.02 0.596575
9394.82 0.449936
9395.63 0.348755
9397.25 0.224497
9398.86 0.155403
9400.48 0.113564
9402.09 0.0864834
9405.32 0.0548890
9408.55 0.0379376
9411.78 0.0278306
9418.24 0.0169158
9424.70 0.0114711
9431.16 0.00837714
9437.62 0.00645707
9444.08 0.00518853
9457.00 0.00368337
9469.92 0.00288123
9495.76 0.00220105
9521.60 0.00219306
9534.53 0.00245042
9547.45 0.00302765
9560.37 0.00432712
9566.83 0.00561754
9573.29 0.00793568
9579.75 0.0127604
9582.98 0.0174368
9586.21 0.0257203
9587.82 0.0325069
9589.44 0.0425964
9591.05 0.0585408
9592.67 0.0859198
9594.28 0.138897
9595.09 0.186201
9595.49 0.219474
9595.90 0.262355
9596.30 0.319161
9596.70 0.396265
9596.91 0.445500
9597.11 0.504252
9597.31 0.575038
9597.51 0.660749
9597.71 0.766757
9597.92 0.898875
9598.12 1.06565
9598.32 1.27891
9598.52 1.55499
9598.72 1.91589
9598.93 2.38937
9599.13 3.00116
9599.56 4.79885
9600.00 5.99634
9600.22 5.64242
9600.44 4.79393
9600.88 2.99726
9601.16 2.16695
9601.45 1.60073
9602.02 0.945003
9602.60 0.612128
9603.17 0.425546
9603.75 0.311799
9604.32 0.238055
9605.47 0.151702
9606.62 0.105190
9607.77 0.0774406
9610.06 0.0474450
9612.36 0.0325157
9614.66 0.0240797
9619.25 0.0155363
9623.85 0.0117238
9628.44 0.00996242
9637.63 0.00954137
9646.81 0.0125912
9651.41 0.0162953
9656.00 0.0231718
9660.60 0.0373345
9662.89 0.0506054
9665.19 0.0730273
9666.34 0.0904998
9667.49 0.115173
9668.06 0.131532
9668.64 0.151598
9669.21 0.176601
9669.78 0.208257
9670.36 0.249152
9670.93 0.302904
9671.51 0.375354
9672.08 0.475645
9672.65 0.618600
9673.23 0.828553
9673.80 1.14442
9674.38 1.61966
9674.78 2.07256
9675.19 2.59003
9676.00 3.23645
9676.41 3.04518
9676.81 2.58816
9677.63 1.61805
9678.20 1.14322
9678.77 0.828076
9679.35 0.618161
9679.92 0.475433
9681.07 0.302712
9682.21 0.208147
9683.36 0.151383
9684.51 0.114921
9686.80 0.0726261
9689.09 0.0500616
9691.38 0.0366505
9695.97 0.0221951
9700.56 0.0149830
9705.14 0.0108711
9709.73 0.00830439
9714.31 0.00659367
9723.49 0.00452298
9732.66 0.00336281
9751.00 0.00217678
9769.35 0.00162104
9787.69 0.00133157
9824.38 0.00112883
9861.07 0.00127859
9879.41 0.00154728
9897.76 0.00209626
9906.93 0.00257647
9916.10 0.00331900
9925.27 0.00454164
9934.45 0.00674886
9939.03 0.00858250
9943.62 0.0113392
9948.20 0.0157555
9952.79 0.0234792
9957.38 0.0388410
9961.96 0.0764128
9963.11 0.0944385
9964.25 0.119572
9964.83 0.136052
9965.40 0.156083
9965.97 0.180780
9966.55 0.211664
9967.12 0.250981
9967.69 0.301754
9968.27 0.368732
9968.84 0.459022
9969.41 0.583792
9969.99 0.759387
9970.56 1.01064
9971.13 1.36827
9972.07 2.18939
9973.00 2.73575
9973.47 2.57450
9973.93 2.18792
9974.87 1.36776
9975.50 0.978953
9976.13 0.716614
9976.77 0.539571
9977.40 0.417525
9978.67 0.268020
9979.93 0.185163
9981.20 0.135032
9982.47 0.102650
9985.00 0.0648929
9985.00 0.236176
10000.0 0.235982
12500.0 0.208900
15000.0 0.189312
17000.0 0.177148
20000.0 0.162898
25000.0 0.146137
30000.0 0.134813
35000.0 0.126780
40000.0 0.120860
50000.0 0.112713
60000.0 0.107237
70000.0 0.103101
80000.0 0.0997040
90000.0 0.0967629
100000 0.0941362
125000 0.0884482
150000 0.0839574
170000 0.0808080
200000 0.0770808
250000 0.0724255
300000 0.0544687
300000 0.0516447
303757 0.0485847
303757 0.0485843
315000 0.0394270
400000 0.0401580
500000 0.0379752
600000 0.0376843
693000 0.0381908
693000 0.0381908
700000 0.0382289
757329 0.0373170
757330 0.0373170
800000 0.0366383
900000 0.0361928
923052 0.0360384
923052 0.0360384
976615 0.0356796
976615 0.0356796
1.00000E+06 0.0355230
1.00601E+06 0.0349875
1.00602E+06 0.0349870
1.03010E+06 0.0328410
1.03010E+06 0.0328408
1.10000E+06 0.0266120
1.17888E+06 0.0254843
1.17889E+06 0.0254842
1.20000E+06 0.0251823
1.25061E+06 0.0238319
1.25061E+06 0.0238319
1.25733E+06 0.0236527
1.25733E+06 0.0236526
1.28842E+06 0.0228232
1.28842E+06 0.0228231
1.30000E+06 0.0225141
1.40000E+06 0.0217954
1.50000E+06 0.0217099
1.52182E+06 0.0213532
1.52182E+06 0.0213531
1.52594E+06 0.0212858
1.52594E+06 0.0212858
1.53184E+06 0.0211894
1.53184E+06 0.0211893
1.60000E+06 0.0200748
1.61091E+06 0.0200168
1.61091E+06 0.0200168
1.65622E+06 0.0197758
1.65622E+06 0.0197758
1.65642E+06 0.0197747
1.70000E+06 0.0195429
1.80000E+06 0.0183594
1.90000E+06 0.0178479
2.00000E+06 0.0165757
2.50000E+06 0.0126215
3.00000E+06 0.00984511
3.50000E+06 0.00723864
4.00000E+06 0.00520278
4.17830E+06 0.00471774
5.00000E+06 0.00248242
6.00000E+06 0.00115454
6.34095E+06 0.000959553
7.00000E+06 0.000582643
7.30000E+06 0.000494708
7.38301E+06 0.000475807
7.38301E+06 0.000475807
7.50000E+06 0.000449167
8.00000E+06 0.000384153
9.00000E+06 0.000353556
9.29898E+06 0.000380309
9.29898E+06 0.000380309
1.00000E+07 0.000443036
1.10000E+07 0.000623777
1.20000E+07 0.000843210
1.27101E+07 0.000929050
1.30000E+07 0.000964096
1.40000E+07 0.000945372
1.45000E+07 0.000885838
1.50000E+07 0.000808400
1.60000E+07 0.000633875
1.61212E+07 0.000614849
1.61212E+07 0.000614848
1.70000E+07 0.000476883
1.80000E+07 0.000346472
1.90000E+07 0.000253405
2.00000E+07 0.000190281