Nd-143(n,g) ENDF/B-VII.1
Energy(eV) XS(b)
1.00000E-05 16481.3
1.25000E-05 14741.3
1.50000E-05 13456.9
1.77828E-05 12359.2
2.00000E-05 11654.0
2.75000E-05 9938.54
3.16228E-05 9268.05
3.50000E-05 8809.56
4.25000E-05 7994.52
5.00000E-05 7370.57
5.62341E-05 6950.01
7.50000E-05 6018.00
0.000100000 5211.70
0.000125000 4661.45
0.000150000 4255.27
0.000177828 3908.13
0.000200000 3685.11
0.000275000 3142.60
0.000316228 2930.56
0.000350000 2785.56
0.000425000 2527.79
0.000500000 2330.46
0.000562341 2197.44
0.000750000 1902.66
0.00100000 1647.63
0.00125000 1473.57
0.00150000 1345.08
0.00177828 1235.25
0.00200000 1164.69
0.00275000 993.024
0.00316228 925.915
0.00350000 880.020
0.00425000 798.422
0.00500000 735.940
0.00562341 693.816
0.00750000 600.433
0.0100000 519.593
0.0125000 464.384
0.0150000 423.599
0.0177828 388.716
0.0200000 366.289
0.0253000 325.145
0.0316228 290.270
0.0376500 265.536
0.0500000 229.558
0.0562341 216.052
0.0750000 186.021
0.100000 159.889
0.125000 141.940
0.150000 128.608
0.177828 117.142
0.200000 109.734
0.237500 99.5891
0.275000 91.5364
0.316228 84.3397
0.350000 79.3853
0.425000 70.5016
0.500000 63.6254
0.562341 58.9496
0.750000 48.4593
1.00000 39.2416
1.50000 28.2001
1.77828 24.2078
2.00000 21.6660
2.75000 15.6407
3.16228 13.3870
3.50000 11.8948
4.25000 9.36861
5.00000 7.57209
5.62341 6.44328
7.50000 4.22537
9.99999 2.67698
10.0000 2.67698
10.0000 2.67697
10.0001 2.67695
10.0001 2.67694
10.0001 2.67691
10.0003 2.67686
10.0005 2.67674
10.0011 2.67651
10.0021 2.67606
10.0042 2.67515
10.0083 2.67334
10.0165 2.66972
10.0331 2.66250
10.0661 2.64816
10.1322 2.61981
10.2644 2.56443
10.5288 2.45876
11.0577 2.26593
12.1153 1.94217
12.1153 1.94216
12.1154 1.94214
12.1155 1.94212
12.1156 1.94208
12.1159 1.94199
12.1166 1.94182
12.1178 1.94148
12.1203 1.94080
12.1253 1.93943
12.1353 1.93671
12.1554 1.93129
12.1954 1.92051
12.2755 1.89922
12.4357 1.85769
12.7560 1.77861
13.3967 1.63492
14.6780 1.39562
14.6780 1.39562
14.6781 1.39561
14.6782 1.39559
14.6783 1.39557
14.6786 1.39551
14.6793 1.39541
14.6805 1.39520
14.6831 1.39479
14.6881 1.39395
14.6981 1.39230
14.7183 1.38899
14.7585 1.38240
14.8390 1.36937
15.0000 1.34387
15.3479 1.29122
15.6957 1.24167
16.3914 1.15102
17.7828 0.998164
17.7828 0.998162
17.7829 0.998156
17.7830 0.998149
17.7831 0.998135
17.7834 0.998108
17.7839 0.998055
17.7850 0.997950
17.7872 0.997737
17.7915 0.997313
17.8001 0.996465
17.8175 0.994773
17.8521 0.991403
17.9214 0.984716
18.0600 0.971558
18.3371 0.946071
18.8914 0.898221
20.0000 0.813590
21.5443 0.716003
21.5443 0.716002
21.5444 0.715998
21.5445 0.715994
21.5446 0.715986
21.5449 0.715970
21.5454 0.715938
21.5465 0.715875
21.5488 0.715749
21.5532 0.715497
21.5621 0.714994
21.5799 0.713989
21.6155 0.711987
21.6867 0.708011
21.8291 0.700174
22.1140 0.684946
22.6836 0.656180
23.8230 0.604740
26.1016 0.521876
26.1016 0.521876
26.1017 0.521874
26.1017 0.521873
26.1018 0.521870
26.1020 0.521865
26.1023 0.521854
26.1030 0.521833
26.1044 0.521790
26.1071 0.521704
26.1125 0.521533
26.1235 0.521190
26.1453 0.520507
26.1890 0.519146
26.2764 0.516446
26.4512 0.511132
26.8008 0.500846
27.5000 0.481565
29.5614 0.433593
31.6228 0.396797
31.6228 0.396796
31.6229 0.396795
31.6229 0.396795
31.6230 0.396793
31.6232 0.396790
31.6236 0.396783
31.6245 0.396771
31.6261 0.396745
31.6294 0.396694
31.6360 0.396592
31.6492 0.396389
31.6756 0.395983
31.7284 0.395176
31.8339 0.393579
32.0450 0.390458
32.4671 0.384498
33.3114 0.373675
35.0000 0.356242
38.3119 0.338208
38.3119 0.338208
38.3120 0.338208
38.3120 0.338208
38.3122 0.338208
38.3124 0.338207
38.3129 0.338206
38.3139 0.338204
38.3159 0.338200
38.3198 0.338192
38.3277 0.338176
38.3436 0.338146
38.3752 0.338085
38.4385 0.337972
38.5652 0.337772
38.8184 0.337485
39.3249 0.337376
40.3379 0.339178
42.3639 0.352780
46.4159 0.456487
46.4159 0.456488
46.4160 0.456490
46.4160 0.456493
46.4161 0.456498
46.4164 0.456509
46.4168 0.456531
46.4177 0.456574
46.4194 0.456660
46.4229 0.456832
46.4299 0.457177
46.4439 0.457870
46.4719 0.459267
46.5279 0.462106
46.6399 0.467967
46.8639 0.480470
47.3119 0.508995
48.2080 0.584333
50.0000 0.870896
51.3185 1.37413
51.9778 1.87598
52.6371 2.78918
52.9667 3.55652
53.2963 4.72497
53.6260 6.63227
53.9556 10.0642
54.1204 12.9171
54.2852 17.2160
54.4500 24.1335
54.6148 36.3202
54.6973 46.2369
54.7797 60.8689
54.8621 83.7416
54.9445 122.379
55.0269 195.238
55.0681 258.477
55.1093 357.439
55.1505 523.982
55.1917 831.978
55.2123 1090.23
55.2329 1474.37
55.2535 2061.61
55.2741 2961.45
55.3021 4739.12
55.3300 5923.46
55.3580 4735.47
55.3859 2957.48
55.4124 1863.02
55.4389 1232.14
55.4654 860.097
55.4919 629.009
55.5184 477.699
55.5449 374.112
55.5980 246.228
55.6510 173.762
55.7040 128.975
55.8100 78.9609
55.9160 53.2119
56.0221 38.2658
56.1281 28.8349
56.2341 22.5087
56.2341 22.5077
56.2342 22.5052
56.2342 22.5028
56.2343 22.4983
56.2345 22.4894
56.2348 22.4717
56.2356 22.4357
56.2370 22.3645
56.2399 22.2232
56.2457 21.9442
56.2574 21.4016
56.2806 20.3758
56.3271 18.5342
56.4200 15.5310
56.6058 11.3701
56.9776 6.86777
57.3493 4.61424
57.7210 3.32843
58.0927 2.52657
58.4644 1.99326
59.2079 1.35049
59.9513 0.992821
60.6948 0.773639
62.1817 0.530203
63.6685 0.405272
65.1554 0.332887
68.1292 0.257101
68.1292 0.257101
68.1293 0.257100
68.1294 0.257098
68.1295 0.257096
68.1298 0.257091
68.1304 0.257081
68.1316 0.257062
68.1339 0.257023
68.1386 0.256945
68.1479 0.256789
68.1666 0.256478
68.2039 0.255860
68.2787 0.254641
68.4281 0.252269
68.7270 0.247775
69.3247 0.239684
70.5202 0.226482
72.9111 0.208545
77.6930 0.192014
82.5404 0.189449
82.5404 0.189449
82.5405 0.189449
82.5406 0.189450
82.5407 0.189450
82.5410 0.189450
82.5415 0.189450
82.5426 0.189451
82.5447 0.189452
82.5489 0.189454
82.5575 0.189458
82.5745 0.189467
82.6086 0.189484
82.6768 0.189521
82.8132 0.189599
83.0860 0.189777
83.6316 0.190215
84.7229 0.191413
86.9053 0.195066
91.2702 0.207481
95.6350 0.227771
99.9999 0.258966
100.000 0.258967
100.000 0.258968
100.001 0.258971
100.001 0.258974
100.001 0.258979
100.003 0.258991
100.005 0.259014
100.011 0.259059
100.021 0.259150
100.042 0.259333
100.083 0.259698
100.165 0.260434
100.331 0.261925
100.661 0.264982
101.322 0.271415
102.644 0.285696
105.288 0.321316
107.932 0.370279
110.577 0.440657
113.221 0.548425
115.865 0.729241
118.509 1.07764
119.831 1.39407
121.153 1.92191
121.153 1.92202
121.154 1.92244
121.155 1.92281
121.156 1.92360
121.159 1.92513
121.165 1.92824
121.177 1.93450
121.200 1.94706
121.247 1.97262
121.341 2.02547
121.529 2.13876
121.905 2.40022
122.658 3.11699
123.410 4.26654
124.162 6.28956
124.538 7.93819
124.914 10.3761
125.291 14.2032
125.667 20.7151
126.043 33.1418
126.231 44.0737
126.419 61.4196
126.607 91.2313
126.795 148.144
126.889 197.538
126.983 273.380
127.077 394.268
127.171 588.668
127.286 940.328
127.400 1173.47
127.515 938.351
127.629 586.739
127.751 350.594
127.873 223.136
127.995 151.737
128.117 108.981
128.239 81.7342
128.361 63.4425
128.605 41.3287
128.849 29.0474
129.093 21.5650
129.581 13.3387
130.069 9.18629
130.557 6.83411
131.045 5.40699
131.533 4.51836
132.508 3.74009
132.996 3.78905
133.484 4.27256
133.972 5.66890
134.216 7.15593
134.460 9.88297
134.704 15.5605
134.826 20.9783
134.948 30.3237
135.009 37.7685
135.070 48.5150
135.131 64.8167
135.192 91.1976
135.253 137.778
135.284 175.528
135.314 230.658
135.345 314.898
135.375 450.457
135.406 680.139
135.436 1075.86
135.468 1712.28
135.500 2132.93
135.533 1700.97
135.565 1058.56
135.587 757.103
135.609 554.674
135.631 418.086
135.653 323.906
135.697 208.541
135.740 144.489
135.784 105.736
135.828 80.6654
135.916 51.4250
136.003 35.7235
136.091 26.3713
136.266 16.2593
136.441 11.1989
136.617 8.31164
136.967 5.30419
137.317 3.84516
137.668 3.02548
138.369 2.18198
139.070 1.77953
139.771 1.56140
141.173 1.36710
143.976 1.37501
146.780 1.70276
146.780 1.70280
146.781 1.70294
146.782 1.70307
146.783 1.70332
146.786 1.70383
146.792 1.70487
146.803 1.70693
146.825 1.71107
146.871 1.71945
146.961 1.73654
147.142 1.77219
147.505 1.84959
148.229 2.03222
149.678 2.54674
151.126 3.38462
152.575 4.86022
154.024 7.81100
154.748 10.5378
155.473 15.1062
156.197 23.6236
156.559 30.9326
156.921 42.2421
157.284 60.9806
157.646 94.8557
157.827 122.616
158.008 163.020
158.189 223.154
158.370 312.522
158.635 500.901
158.900 626.176
159.165 498.853
159.430 310.564
159.718 183.489
160.005 115.974
160.293 78.5660
160.580 56.3370
160.867 42.2410
161.155 32.8162
161.730 21.4718
162.305 15.2079
162.880 11.4128
163.455 8.95402
164.030 7.28037
165.179 5.24101
166.329 4.13390
167.479 3.51724
168.629 3.20027
169.204 3.12551
169.779 3.09945
170.354 3.12044
170.929 3.18958
171.504 3.31092
172.079 3.49205
173.229 4.09053
173.804 4.55797
174.378 5.19633
174.953 6.08669
175.528 7.37111
176.103 9.31771
176.678 12.4809
177.253 18.1710
177.541 22.9198
177.828 30.1109
177.828 30.1171
177.829 30.1389
177.829 30.1576
177.831 30.1983
177.833 30.2798
177.838 30.4407
177.849 30.7667
177.869 31.4358
177.910 32.8458
177.991 35.9867
178.155 43.8895
178.481 70.6918
178.644 94.4738
178.808 131.921
178.971 193.669
179.134 297.210
179.317 473.184
179.500 590.119
179.683 472.428
179.866 296.897
180.054 182.631
180.241 119.806
180.429 84.1644
180.617 62.7141
180.992 40.0192
181.367 29.4474
181.742 24.1779
182.118 21.7025
182.868 21.6539
183.619 27.1610
183.994 32.7985
184.369 41.6522
184.744 55.8716
185.120 79.7345
185.495 122.055
185.870 199.264
186.235 317.708
186.600 396.177
186.965 315.831
187.330 197.105
187.726 116.837
188.122 74.1155
188.518 50.3878
188.914 36.2534
189.310 27.2663
189.706 21.2389
190.498 13.9415
191.289 9.87328
192.081 7.37841
193.665 4.60106
195.249 3.16613
196.833 2.32602
200.000 1.42633
203.861 0.908024
207.722 0.637805
211.582 0.478431
215.443 0.376390
215.443 0.376385
215.444 0.376373
215.444 0.376360
215.445 0.376336
215.448 0.376287
215.452 0.376188
215.461 0.375993
215.480 0.375601
215.516 0.374820
215.590 0.373267
215.736 0.370193
216.029 0.364179
216.614 0.352656
217.785 0.331458
220.127 0.295346
224.810 0.241721
234.177 0.178821
243.544 0.147611
252.911 0.134585
261.016 0.134918
261.016 0.134919
261.017 0.134919
261.018 0.134920
261.019 0.134921
261.022 0.134923
261.027 0.134927
261.038 0.134935
261.060 0.134951
261.104 0.134983
261.191 0.135048
261.366 0.135183
261.716 0.135470
262.416 0.136113
263.817 0.137684
266.617 0.142065
272.218 0.156967
277.818 0.184119
280.619 0.205158
282.019 0.218458
283.419 0.234174
284.119 0.243119
284.819 0.252906
285.519 0.263643
286.220 0.275458
286.920 0.288499
287.620 0.302943
288.320 0.319004
289.020 0.336935
290.420 0.379716
291.820 0.434709
293.221 0.507247
294.621 0.606008
296.021 0.745978
297.421 0.954810
298.821 1.28844
300.221 1.87456
300.921 2.35240
301.622 3.06063
302.322 4.17693
303.022 6.08970
303.372 7.60526
303.722 9.78478
304.072 13.0797
304.422 18.3875
304.772 27.7106
304.947 35.2254
305.122 46.1476
305.297 62.7346
305.472 89.2121
305.647 133.610
305.822 209.539
306.011 334.846
306.200 418.078
306.389 334.348
306.578 209.063
306.729 141.493
306.880 98.9400
307.030 71.9511
307.181 54.2416
307.483 33.6423
307.784 22.7789
308.086 16.4249
308.387 12.4151
308.991 7.85217
309.594 5.46825
310.197 4.07848
311.403 2.62792
312.609 1.95732
313.816 1.63387
315.022 1.50663
316.228 1.52593
316.228 1.52594
316.229 1.52598
316.229 1.52602
316.230 1.52609
316.232 1.52623
316.236 1.52651
316.243 1.52708
316.258 1.52824
316.288 1.53063
316.348 1.53570
316.468 1.54694
316.708 1.57412
317.188 1.64873
318.147 1.89795
319.106 2.34670
320.066 3.16480
321.025 4.79374
321.505 6.26457
321.984 8.65189
322.464 12.8805
322.704 16.3173
322.944 21.3474
323.184 29.0647
323.423 41.5438
323.663 62.8524
323.903 100.137
324.152 159.816
324.400 199.454
324.649 159.524
324.897 99.8697
325.084 69.2389
325.270 49.4174
325.457 36.5480
325.643 27.9486
326.017 17.7630
326.390 12.3019
326.763 9.07984
327.136 7.04027
327.882 4.73275
328.629 3.56544
329.375 2.94036
330.121 2.62292
330.868 2.51691
331.614 2.59489
332.360 2.88182
333.107 3.47280
333.853 4.60871
334.226 5.54992
334.599 6.93306
334.972 9.06265
335.345 12.5560
335.719 18.8268
335.905 23.9862
336.092 31.6254
336.278 43.5301
336.465 63.2048
336.652 97.8163
336.838 160.684
337.019 256.611
337.200 320.419
337.381 256.273
337.562 160.358
337.755 95.9691
337.948 61.2750
338.141 41.8628
338.334 30.2524
338.527 22.8543
338.720 17.8937
339.107 11.9008
339.493 8.58398
339.879 6.57495
340.651 4.40031
341.423 3.35603
342.196 2.83272
343.740 2.58997
345.285 3.19216
346.057 3.97466
346.829 5.41015
347.215 6.57015
347.601 8.24303
347.987 10.7595
348.374 14.7630
348.760 21.6327
349.146 34.6821
349.339 45.9214
349.532 63.0611
349.725 90.1356
349.918 133.159
350.159 212.558
350.400 265.250
350.642 212.004
350.883 132.496
351.135 80.0219
351.387 51.3788
351.639 35.1770
351.890 25.4121
352.142 19.1546
352.394 14.9381
352.898 9.81356
353.402 6.95240
353.905 5.19938
354.913 3.25493
355.920 2.25723
356.927 1.67751
358.942 1.06331
360.957 0.760941
362.972 0.590538
367.001 0.419464
371.031 0.348717
375.060 0.328070
379.090 0.345676
383.119 0.409927
383.119 0.409932
383.120 0.409946
383.120 0.409958
383.121 0.409984
383.124 0.410037
383.128 0.410140
383.136 0.410347
383.154 0.410760
383.188 0.411595
383.257 0.413281
383.395 0.416724
383.671 0.423908
384.223 0.439541
385.326 0.476593
387.533 0.581943
389.741 0.755265
390.844 0.885528
391.948 1.06345
393.051 1.31521
394.155 1.68806
395.258 2.27516
396.362 3.28109
396.914 4.07959
397.465 5.23221
398.017 6.98503
398.569 9.83916
399.121 14.9444
399.397 19.1445
399.673 25.3772
399.948 35.1174
400.224 51.3037
400.500 80.0238
400.776 132.813
401.038 212.042
401.300 264.700
401.562 211.798
401.824 132.680
402.007 94.3617
402.190 68.7933
402.373 51.7474
402.556 40.1235
402.922 26.0937
403.288 18.4805
403.654 14.0217
404.020 11.2929
404.752 8.67213
405.484 8.53097
405.850 9.48300
406.216 11.5881
406.582 15.9146
406.765 19.6913
406.948 25.4806
407.131 34.8123
407.314 50.8577
407.497 80.5678
407.589 104.691
407.680 138.186
407.840 219.738
408.000 273.943
408.160 219.380
408.320 137.681
408.465 89.0362
408.610 60.2620
408.755 42.9178
408.899 31.9597
409.189 19.6634
409.479 13.3758
409.768 9.75726
410.058 7.48763
410.637 4.90111
411.216 3.52896
411.795 2.70706
412.954 1.80082
414.112 1.33013
415.271 1.05118
417.587 0.750303
419.904 0.605896
422.221 0.536660
426.855 0.528813
429.171 0.583171
431.488 0.690559
433.805 0.883975
434.963 1.03409
436.122 1.24157
437.280 1.53658
438.439 1.97265
439.597 2.65190
440.755 3.78856
441.335 4.66543
441.914 5.89359
442.493 7.68385
443.072 10.4268
443.651 14.9024
444.231 22.8086
444.520 29.1371
444.810 38.1458
445.099 51.1905
445.389 69.9981
445.845 111.865
446.300 139.626
446.756 111.574
447.211 69.7144
447.741 39.8376
448.270 24.5808
448.800 16.3759
449.330 11.5979
449.859 8.61146
450.389 6.63492
451.448 4.27715
452.507 2.98460
453.567 2.20283
455.685 1.34666
457.804 0.913300
459.922 0.664019
462.041 0.507478
464.159 0.402695
464.159 0.402687
464.160 0.402662
464.160 0.402641
464.161 0.402596
464.164 0.402506
464.168 0.402326
464.177 0.401967
464.194 0.401253
464.229 0.399832
464.299 0.397014
464.439 0.391475
464.719 0.380767
465.279 0.360737
466.399 0.325517
468.639 0.270110
473.119 0.197649
477.600 0.153975
482.080 0.126104
491.040 0.0972975
495.520 0.0939571
500.000 0.106046
501.687 0.124132
502.531 0.142239
503.374 0.174975
504.218 0.243923
504.640 0.311741
505.062 0.434039
505.483 0.690726
505.694 0.941409
505.905 1.38832
506.011 1.75664
506.116 2.30617
506.222 3.18036
506.327 4.69141
506.432 7.65127
506.485 10.3212
506.538 14.6777
506.591 22.4682
506.617 28.8797
506.643 38.3302
506.670 53.0872
506.696 77.3367
506.722 120.059
506.749 197.172
506.774 315.489
506.800 394.390
506.826 315.468
506.851 197.148
506.867 144.997
506.883 108.748
506.915 65.5048
506.947 42.9606
506.979 30.1333
507.011 22.2008
507.043 17.0176
507.106 10.8834
507.170 7.55286
507.234 5.55142
507.361 3.37405
507.489 2.27938
507.616 1.65428
507.743 1.26411
507.871 1.00454
508.126 0.691766
508.381 0.518230
508.890 0.343468
509.400 0.263013
509.910 0.220891
510.929 0.184480
512.968 0.181806
515.006 0.228061
516.026 0.274451
517.045 0.348324
518.064 0.471905
519.083 0.697754
519.593 0.887204
520.103 1.17453
520.613 1.64029
521.122 2.46861
521.377 3.14906
521.632 4.16144
521.887 5.76239
522.014 6.93674
522.141 8.51200
522.269 10.6945
522.396 13.8328
522.524 18.5751
522.651 26.2110
522.779 39.5982
522.842 50.3714
522.906 65.9998
522.970 89.6718
523.033 127.323
523.097 190.147
523.161 296.957
523.230 475.246
523.300 593.831
523.370 474.839
523.439 296.822
523.502 191.319
523.565 128.749
523.627 90.9990
523.690 67.1772
523.815 40.4312
523.941 26.8185
524.066 19.0253
524.191 14.1802
524.442 8.73325
524.693 5.91260
524.944 4.26870
525.194 3.22847
525.445 2.52914
525.946 1.67689
526.448 1.19726
526.949 0.900953
527.451 0.705202
528.453 0.470811
529.456 0.341171
530.459 0.262041
531.462 0.210251
533.467 0.148990
535.473 0.115873
539.484 0.0851581
543.495 0.0779867
545.501 0.0824499
547.507 0.0963917
549.512 0.132027
550.515 0.169508
551.518 0.239194
552.019 0.298395
552.521 0.389124
553.022 0.538117
553.523 0.807910
553.774 1.03335
554.025 1.37460
554.275 1.92684
554.526 2.90747
554.652 3.71192
554.777 4.90663
554.902 6.79418
554.965 8.17672
555.028 10.0254
555.090 12.5833
555.153 16.2557
555.216 21.7884
555.278 30.6414
555.310 37.2227
555.341 46.0823
555.372 58.4515
555.404 76.2255
555.435 103.012
555.466 145.004
555.498 213.957
555.529 328.914
555.565 526.690
555.600 658.092
555.636 526.040
555.671 328.853
555.697 229.219
555.723 164.090
555.749 121.425
555.775 92.8005
555.828 58.5189
555.880 39.9514
555.932 28.9024
555.984 21.8380
556.088 13.6923
556.192 9.36705
556.297 6.80942
556.401 5.17312
556.505 4.06415
556.713 2.70103
556.922 1.92807
557.130 1.44788
557.339 1.12935
557.756 0.746330
558.172 0.533672
558.589 0.403426
559.006 0.317930
559.840 0.216118
560.674 0.160075
562.341 0.103574
562.341 0.103570
562.342 0.103559
562.342 0.103550
562.343 0.103532
562.345 0.103495
562.348 0.103421
562.355 0.103274
562.368 0.102980
562.395 0.102397
562.449 0.101252
562.557 0.0990416
562.773 0.0949137
563.205 0.0876844
564.068 0.0763982
565.795 0.0619349
569.249 0.0495843
570.976 0.0495465
572.703 0.0585370
573.566 0.0740982
573.998 0.0902788
574.430 0.120198
574.862 0.184189
575.078 0.247383
575.293 0.360927
575.401 0.455196
575.509 0.596729
575.617 0.823437
575.725 1.22003
575.833 2.01052
575.887 2.73785
575.941 3.94657
575.995 6.17913
576.022 8.07195
576.049 10.9505
576.076 15.6424
576.103 23.8819
576.130 39.7223
576.143 53.0760
576.157 72.0212
576.178 115.285
576.200 143.933
576.222 115.067
576.243 72.0153
576.263 46.0294
576.283 30.8389
576.303 21.7314
576.323 16.0033
576.362 9.61216
576.402 6.37023
576.442 4.51700
576.481 3.36939
576.560 2.08169
576.640 1.41507
576.719 1.02745
576.798 0.782263
576.877 0.617461
577.036 0.416549
577.194 0.303557
577.353 0.233689
577.511 0.187537
577.828 0.132173
578.145 0.101479
578.779 0.0702689
579.413 0.0553998
580.046 0.0470839
581.314 0.0384178
583.850 0.0314795
586.385 0.0285101
596.526 0.0245341
606.668 0.0242366
616.809 0.0265004
626.951 0.0333675
632.021 0.0407349
637.092 0.0544373
642.163 0.0838742
644.698 0.113148
647.234 0.166333
648.501 0.210984
649.769 0.278945
651.037 0.389823
652.304 0.589190
652.938 0.754837
653.572 1.00425
653.889 1.17929
654.206 1.40522
654.523 1.70396
654.840 2.11044
655.157 2.68349
655.474 3.52730
655.791 4.84311
656.107 7.05814
656.266 8.78072
656.424 11.2112
656.583 14.7949
656.741 20.3654
656.900 29.6587
657.058 46.6021
657.137 60.6300
657.217 81.1925
657.296 112.098
657.375 158.554
657.488 253.873
657.600 317.463
657.713 253.772
657.825 158.455
657.917 106.250
658.008 73.7344
658.100 53.2995
658.192 39.9949
658.375 24.6044
658.558 16.5399
658.742 11.8389
658.925 8.87850
659.292 5.51211
659.658 3.74885
660.025 2.71398
660.392 2.05596
660.758 1.61215
661.492 1.06926
662.225 0.762815
662.959 0.573128
663.692 0.447718
665.159 0.297531
666.625 0.214611
668.092 0.164194
669.559 0.131403
672.492 0.0931508
675.425 0.0731550
681.292 0.0565566
681.292 0.0565563
681.293 0.0565557
681.293 0.0565552
681.294 0.0565542
681.295 0.0565523
681.299 0.0565482
681.305 0.0565402
681.318 0.0565242
681.345 0.0564923
681.397 0.0564296
681.501 0.0563076
681.711 0.0560774
682.129 0.0556712
682.966 0.0550698
684.640 0.0546843
687.987 0.0572812
691.335 0.0656194
694.682 0.0840937
698.030 0.126293
699.703 0.168909
701.377 0.246462
702.214 0.311408
703.051 0.409836
703.888 0.569308
704.725 0.852855
705.143 1.08572
705.562 1.43223
705.980 1.98023
706.398 2.92157
706.608 3.66863
706.817 4.74337
707.026 6.36784
707.235 8.98461
707.444 13.5751
707.549 17.2717
707.654 22.6375
707.758 30.7721
707.863 43.7258
707.967 65.3758
708.072 102.263
708.186 163.682
708.300 204.634
708.414 163.619
708.528 102.202
708.663 57.9226
708.797 35.5265
708.932 23.5676
709.066 16.6368
709.201 12.3198
709.335 9.46881
709.604 6.07715
709.873 4.22174
710.142 3.10160
710.680 1.87794
711.218 1.26048
711.756 0.906645
712.294 0.685325
712.832 0.537815
713.907 0.359661
714.983 0.260373
716.059 0.199513
717.135 0.159598
719.287 0.112325
721.439 0.0867093
725.742 0.0621179
730.046 0.0523641
734.349 0.0492111
742.956 0.0545270
751.563 0.0775370
755.867 0.102474
760.170 0.148469
762.322 0.187102
764.474 0.245651
766.625 0.340414
767.701 0.411443
768.777 0.508576
769.853 0.646360
770.929 0.851013
772.005 1.17382
773.081 1.72624
773.619 2.16290
774.156 2.78910
774.694 3.73153
775.232 5.23997
775.770 7.86274
776.039 9.95561
776.308 12.9656
776.577 17.4773
776.846 24.5466
777.115 36.1175
777.384 55.3153
777.692 88.4901
778.000 110.570
778.308 88.4026
778.616 55.2307
778.809 40.5671
779.001 30.3374
779.386 18.2219
779.771 11.9251
780.156 8.34273
780.541 6.13868
780.926 4.69665
781.696 2.99576
782.466 2.07384
783.235 1.52052
784.775 0.919472
786.315 0.618133
787.855 0.446393
789.395 0.339705
790.934 0.269311
794.014 0.186877
797.094 0.148079
798.633 0.143352
800.173 0.161554
800.943 0.198200
801.328 0.237220
801.713 0.309888
802.098 0.465504
802.291 0.618770
802.483 0.892839
802.675 1.45719
802.772 1.99515
802.868 2.92511
802.964 4.74652
803.012 6.38863
803.060 9.06650
803.109 13.8504
803.133 17.7844
803.157 23.5750
803.181 32.6074
803.193 39.0421
803.205 47.4152
803.217 58.5862
803.229 73.4390
803.241 93.4622
803.253 120.221
803.265 153.861
803.276 192.310
803.300 240.371
803.312 226.232
803.324 192.302
803.347 120.212
803.362 88.4154
803.377 66.1999
803.406 39.9006
803.435 26.1855
803.465 18.3607
803.494 13.5260
803.523 10.3705
803.582 6.64315
803.641 4.61662
803.699 3.40118
803.816 2.07833
803.934 1.41273
804.051 1.03229
804.285 0.635911
804.520 0.444335
804.754 0.337260
805.223 0.227744
805.692 0.175408
806.161 0.146184
807.099 0.116072
808.975 0.0934906
810.851 0.0865302
812.728 0.0872186
814.604 0.0990381
815.542 0.116969
816.011 0.134774
816.480 0.166919
816.949 0.234497
817.183 0.300721
817.418 0.419414
817.652 0.665592
817.769 0.902748
817.887 1.31817
818.004 2.14923
818.062 2.91639
818.121 4.19998
818.180 6.58994
818.209 8.62935
818.238 11.7700
818.268 16.9329
818.282 20.8459
818.297 26.1547
818.312 33.6491
818.326 44.3545
818.341 60.1617
818.356 83.1149
818.367 106.547
818.378 133.082
818.400 166.206
818.411 156.301
818.422 132.839
818.445 83.1101
818.458 61.4724
818.472 46.2506
818.499 28.0327
818.526 18.4655
818.553 12.9822
818.581 9.59304
818.608 7.36718
818.662 4.73634
818.716 3.30201
818.771 2.43919
818.880 1.50026
818.988 1.02756
819.097 0.757474
819.315 0.476518
819.532 0.341343
819.750 0.266371
820.184 0.191058
820.619 0.156582
821.054 0.138696
821.924 0.123528
823.664 0.122183
825.404 0.136269
827.154 0.162642
828.905 0.205903
830.655 0.278438
831.530 0.333684
832.406 0.409933
833.281 0.519078
833.718 0.592143
834.156 0.682803
834.594 0.797154
835.031 0.944175
835.469 1.13753
835.906 1.39884
836.344 1.76389
836.782 2.29544
837.219 3.11146
837.657 4.45488
837.876 5.47652
838.094 6.88942
838.313 8.91612
838.532 11.9562
838.751 16.7736
838.970 24.9320
839.188 39.7968
839.298 51.7110
839.407 68.0813
839.604 108.899
839.800 136.078
839.997 108.836
840.193 68.0205
840.386 42.1997
840.579 27.6032
840.772 19.1232
840.965 13.9114
841.158 10.5272
841.351 8.22322
841.737 5.39674
842.123 3.80493
842.509 2.82496
843.281 1.73517
844.053 1.17687
844.825 0.854634
845.597 0.653133
846.369 0.520245
847.913 0.369251
849.457 0.320056
850.229 0.349135
850.615 0.396147
851.001 0.493459
851.387 0.712246
851.580 0.930994
851.773 1.32359
851.966 2.12918
852.063 2.89157
852.159 4.19940
852.256 6.72122
852.304 8.96391
852.352 12.5523
852.401 18.8169
852.449 31.0195
852.473 41.8897
852.497 58.9207
852.521 86.8930
852.545 133.537
852.573 213.742
852.600 266.954
852.627 213.419
852.655 133.524
852.684 79.8378
852.713 50.9224
852.742 34.6887
852.771 24.9499
852.800 18.7176
852.829 14.5454
852.887 9.49097
852.945 6.67495
853.003 4.95836
853.119 3.06049
853.235 2.09279
853.351 1.53389
853.583 0.946419
853.816 0.659128
854.048 0.496897
854.512 0.328392
854.977 0.245658
855.441 0.197917
856.370 0.145782
858.227 0.0999921
860.084 0.0780227
863.799 0.0551691
867.514 0.0429299
874.943 0.0300668
882.373 0.0236098
897.232 0.0177314
912.091 0.0157918
926.950 0.0161601
941.808 0.0196079
949.238 0.0239634
956.667 0.0335627
960.382 0.0439322
962.240 0.0527940
964.097 0.0671671
965.954 0.0944392
966.883 0.119568
967.812 0.163167
968.740 0.252174
969.205 0.338216
969.669 0.491578
969.901 0.618549
970.133 0.809591
970.366 1.11691
970.598 1.65876
970.714 2.10075
970.830 2.75449
970.946 3.78010
971.062 5.52008
971.178 8.83019
971.236 11.7311
971.294 16.3053
971.352 24.1168
971.410 38.8324
971.439 51.4222
971.468 70.5195
971.497 100.452
971.526 147.657
971.563 236.242
971.600 295.309
971.637 236.228
971.674 147.642
971.699 106.038
971.723 77.8148
971.748 58.7088
971.773 45.5492
971.822 29.3435
971.872 20.3219
971.921 14.8547
971.971 11.3142
972.070 7.18140
972.169 4.96138
972.268 3.63909
972.466 2.21096
972.664 1.49851
972.862 1.09403
973.060 0.843005
973.258 0.677262
973.654 0.480145
974.050 0.373720
974.843 0.274370
975.635 0.239646
976.427 0.235010
978.011 0.284505
978.408 0.309849
978.804 0.342130
979.200 0.383086
979.596 0.435261
979.992 0.502403
980.388 0.590152
980.784 0.707244
981.180 0.867743
981.576 1.09542
981.972 1.43298
982.369 1.96334
982.567 2.34991
982.765 2.86500
982.963 3.57279
983.161 4.58043
983.359 6.08331
983.557 8.45679
983.755 12.5066
983.854 15.6750
983.953 20.1502
984.052 26.6960
984.151 36.6347
984.250 52.2308
984.349 76.8601
984.475 122.958
984.600 153.637
984.726 122.881
984.851 76.8233
984.970 48.5525
985.088 32.1951
985.206 22.5208
985.325 16.5015
985.561 9.84609
985.798 6.50041
986.035 4.60247
986.271 3.42821
986.745 2.11598
987.218 1.44017
987.692 1.04796
988.165 0.800747
988.638 0.635263
989.585 0.435181
990.532 0.324494
992.426 0.216457
994.319 0.173849
996.213 0.163148
998.106 0.177400
1000.00 0.225144
1001.86 0.340781
1002.79 0.458180
1003.72 0.669243
1004.19 0.843745
1004.65 1.10342
1005.12 1.51442
1005.58 2.22039
1006.05 3.58918
1006.28 4.81018
1006.51 6.76619
1006.75 10.2070
1006.98 16.9499
1007.10 23.0401
1007.21 32.6329
1007.33 48.5771
1007.44 75.5548
1007.57 120.869
1007.70 151.066
1007.83 120.832
1007.96 75.5193
1008.11 42.8270
1008.26 26.2824
1008.41 17.4453
1008.56 12.3228
1008.71 9.13180
1008.86 7.02430
1009.16 4.52224
1009.47 3.14834
1009.77 2.32130
1010.37 1.41562
1010.97 0.958294
1011.58 0.697049
1012.18 0.534072
1012.78 0.425960
1013.99 0.297028
1015.20 0.228022
1017.61 0.169394
1020.02 0.170846
1021.23 0.197075
1022.43 0.256622
1023.64 0.394058
1024.24 0.532490
1024.85 0.782424
1025.15 0.990018
1025.30 1.12898
1025.45 1.30013
1025.60 1.51725
1025.75 1.79633
1025.90 2.16323
1026.05 2.65499
1026.20 3.34524
1026.36 4.34892
1026.51 5.88675
1026.66 8.38946
1026.73 10.3106
1026.81 12.9238
1026.88 16.7073
1026.96 22.2757
1027.03 31.1513
1027.11 45.8144
1027.18 71.9827
1027.26 120.461
1027.33 193.341
1027.40 241.040
1027.47 192.216
1027.54 120.430
1027.60 82.6854
1027.65 58.8324
1027.70 43.1081
1027.76 32.8268
1027.86 20.5399
1027.97 13.9574
1028.08 10.0683
1028.18 7.59406
1028.40 4.75457
1028.61 3.25454
1028.83 2.36894
1029.04 1.80340
1029.25 1.42209
1029.68 0.951488
1030.11 0.684663
1030.54 0.518871
1030.96 0.409012
1031.82 0.276271
1032.67 0.202275
1034.39 0.126447
1036.10 0.0900541
1037.81 0.0696302
1041.23 0.0484808
1044.65 0.0382446
1048.07 0.0326178
1054.92 0.0277149
1061.76 0.0279259
1068.61 0.0355333
1072.03 0.0476415
1073.74 0.0599330
1075.45 0.0824564
1077.16 0.130514
1078.02 0.178184
1078.87 0.264404
1079.30 0.336609
1079.73 0.446111
1080.16 0.623831
1080.58 0.939834
1080.80 1.20053
1081.01 1.58972
1081.22 2.20784
1081.44 3.27613
1081.65 5.36270
1081.76 7.24250
1081.87 10.3033
1081.97 15.7587
1082.03 20.2727
1082.08 26.8042
1082.13 37.1099
1082.19 53.6722
1082.24 82.2753
1082.29 133.039
1082.35 213.466
1082.40 265.683
1082.45 211.860
1082.51 133.018
1082.55 90.5590
1082.59 64.1096
1082.63 46.7142
1082.67 35.4728
1082.76 22.0807
1082.84 15.0159
1082.92 10.7965
1083.00 8.14817
1083.17 5.08990
1083.33 3.47628
1083.50 2.52445
1083.66 1.91708
1083.83 1.50624
1084.16 1.00244
1084.49 0.717184
1084.82 0.540257
1085.15 0.423055
1085.81 0.282387
1086.47 0.204462
1087.13 0.156888
1087.79 0.125768
1089.11 0.0889922
1090.43 0.0690645
1093.07 0.0497721
1095.71 0.0417589
1098.35 0.0385759
1103.63 0.0398665
1108.91 0.0510761
1111.55 0.0636905
1114.19 0.0872057
1116.83 0.137463
1118.15 0.187003
1118.81 0.224441
1119.47 0.276029
1119.80 0.309466
1120.13 0.349901
1120.46 0.399431
1120.79 0.461001
1121.12 0.538848
1121.45 0.639253
1121.78 0.771834
1122.11 0.951932
1122.44 1.20521
1122.77 1.57724
1123.10 2.15520
1123.43 3.12296
1123.60 3.87130
1123.76 4.92254
1123.93 6.46143
1124.09 8.83356
1124.26 12.7383
1124.42 19.7269
1124.50 25.4357
1124.59 33.5622
1124.67 45.6541
1124.75 63.1623
1124.88 101.229
1125.00 126.334
1125.13 100.877
1125.25 63.1359
1125.33 46.3430
1125.41 34.6378
1125.56 20.8491
1125.72 13.6668
1125.87 9.57200
1126.03 7.04996
1126.18 5.39772
1126.49 3.44704
1126.80 2.38586
1127.11 1.75086
1127.73 1.06003
1128.35 0.712491
1128.97 0.514208
1129.59 0.390412
1130.21 0.308023
1131.45 0.208652
1132.69 0.153467
1135.17 0.0976830
1137.66 0.0717771
1140.14 0.0579830
1145.10 0.0454588
1150.06 0.0418868
1155.02 0.0444323
1157.50 0.0500184
1159.98 0.0660122
1161.23 0.0878127
1161.85 0.109328
1162.47 0.148305
1163.09 0.230906
1163.40 0.312147
1163.71 0.458297
1163.86 0.579773
1164.02 0.762800
1164.17 1.05721
1164.33 1.57561
1164.40 2.00038
1164.48 2.61855
1164.56 3.59673
1164.64 5.22499
1164.71 8.32894
1164.75 11.0253
1164.79 15.1127
1164.81 18.2201
1164.83 22.1211
1164.85 27.6875
1164.87 35.0501
1164.89 46.1920
1164.91 61.8741
1164.93 85.4684
1164.95 120.992
1164.97 194.149
1165.00 243.166
1165.01 227.705
1165.03 194.143
1165.05 120.985
1165.08 79.6482
1165.10 55.3532
1165.12 40.0791
1165.14 30.1136
1165.19 18.5784
1165.23 12.5166
1165.28 8.91630
1165.32 6.70550
1165.41 4.18413
1165.50 2.84858
1165.59 2.07387
1165.67 1.57556
1165.76 1.24322
1165.94 0.834063
1166.12 0.603067
1166.29 0.460089
1166.47 0.365528
1166.82 0.252243
1167.18 0.189629
1167.89 0.126654
1168.59 0.0973293
1169.30 0.0815557
1170.72 0.0664955
1173.55 0.0579113
1176.38 0.0578248
1182.04 0.0665335
1187.70 0.0854411
1193.36 0.124103
1196.20 0.160410
1199.03 0.223196
1201.86 0.348165
1203.27 0.464389
1204.69 0.661318
1206.10 1.03678
1206.81 1.36709
1207.52 1.89119
1208.23 2.79451
1208.94 4.52708
1209.29 6.03586
1209.64 8.36547
1210.00 12.1018
1210.35 18.1333
1210.78 28.9557
1211.20 36.1523
1211.63 28.9317
1212.05 18.1120
1212.42 11.8115
1212.80 8.03730
1213.17 5.73024
1213.54 4.26549
1213.92 3.28696
1214.29 2.60976
1215.04 1.76235
1215.78 1.27564
1216.53 0.973124
1217.28 0.772755
1218.02 0.634108
1218.77 0.534363
1219.52 0.460725
1221.01 0.362106
1222.50 0.302242
1224.00 0.264637
1226.98 0.226525
1229.97 0.216346
1235.94 0.246189
1238.93 0.285285
1241.91 0.346956
1244.90 0.443789
1247.89 0.601910
1250.87 0.880084
1253.86 1.42848
1255.35 1.92090
1256.84 2.70712
1258.34 4.02884
1259.83 6.30109
1261.42 9.99366
1263.00 12.4653
1264.59 10.0956
1266.17 6.56837
1267.12 5.12456
1268.07 4.18431
1269.02 3.65376
1269.97 3.49605
1270.91 3.78760
1271.39 4.18684
1271.86 4.85842
1272.34 5.96729
1272.81 7.81305
1273.05 9.17732
1273.29 10.9725
1273.52 13.3359
1273.76 16.4113
1274.28 25.5644
1274.80 31.6399
1275.06 29.7879
1275.32 25.4065
1275.84 16.1192
1276.32 10.5051
1276.80 7.21158
1277.28 5.23167
1277.76 3.97959
1278.72 2.56587
1279.67 1.83229
1280.63 1.40231
1281.59 1.12750
1283.51 0.807541
1285.42 0.636350
1287.34 0.538426
1291.17 0.461489
1295.00 0.506803
1296.92 0.593760
1298.84 0.763868
1299.79 0.904196
1300.27 0.996041
1300.75 1.10746
1301.23 1.24394
1301.71 1.41306
1302.19 1.62542
1302.67 1.89627
1303.15 2.24798
1303.63 2.71438
1304.11 3.34801
1304.58 4.23305
1305.06 5.50810
1305.54 7.40519
1306.02 10.3047
1306.50 14.7441
1307.15 23.4985
1307.80 29.3110
1308.45 23.4629
1309.10 14.7036
1309.58 10.2355
1310.07 7.32726
1310.55 5.42931
1311.03 4.15557
1312.00 2.63887
1312.96 1.82024
1313.93 1.33282
1314.89 1.02123
1316.83 0.660581
1318.76 0.467727
1320.69 0.352451
1324.55 0.226413
1328.41 0.161810
1332.28 0.123821
1340.00 0.0824329
1340.00 0.0824256
1340.01 0.0824035
1340.01 0.0823815
1340.02 0.0823412
1340.05 0.0822569
1340.09 0.0820889
1340.18 0.0817585
1340.37 0.0811050
1340.73 0.0798237
1341.46 0.0773758
1342.92 0.0728849
1345.84 0.0652574
1351.67 0.0539425
1363.34 0.0405081
1375.00 0.0336393
1386.67 0.0308287
1398.34 0.0321813
1404.17 0.0354629
1410.01 0.0424365
1415.84 0.0580756
1418.76 0.0736693
1421.67 0.101746
1424.59 0.160228
1426.05 0.216821
1427.51 0.316593
1428.24 0.398067
1428.97 0.518427
1429.70 0.707243
1430.42 1.02797
1430.79 1.28000
1431.15 1.63797
1431.52 2.17319
1431.88 3.01680
1432.25 4.46037
1432.61 7.18100
1432.79 9.52707
1432.98 13.0749
1433.16 18.6446
1433.34 27.4414
1433.57 43.8096
1433.80 54.6814
1434.03 43.7923
1434.26 27.4248
1434.48 17.3869
1434.69 11.5563
1434.91 8.09837
1435.12 5.94135
1435.56 3.55407
1435.99 2.35450
1436.42 1.67160
1436.85 1.24904
1437.71 0.777315
1438.58 0.534244
1439.44 0.393576
1441.17 0.246148
1442.90 0.175654
1444.62 0.137820
1448.08 0.105204
1451.53 0.102446
1454.98 0.130876
1456.71 0.173449
1457.58 0.214215
1458.44 0.285384
1459.30 0.430092
1459.73 0.568531
1460.17 0.811515
1460.38 1.01045
1460.60 1.30614
1460.71 1.51136
1460.81 1.77406
1460.92 2.11798
1461.03 2.58047
1461.14 3.22296
1461.25 4.15219
1461.35 5.56658
1461.46 7.86812
1461.52 9.59889
1461.57 11.9679
1461.62 15.3212
1461.68 20.2636
1461.73 27.9094
1461.79 40.4234
1461.84 62.1254
1461.89 99.8461
1461.95 159.269
1462.00 198.716
1462.05 159.258
1462.11 99.8385
1462.15 71.3767
1462.18 52.1790
1462.22 39.2555
1462.26 30.3666
1462.33 19.5121
1462.40 13.5688
1462.48 9.92247
1462.55 7.59669
1462.70 4.86379
1462.85 3.39281
1462.99 2.52520
1463.29 1.59264
1463.58 1.13191
1463.88 0.876714
1464.46 0.628506
1465.05 0.532721
1465.64 0.507310
1466.82 0.584168
1467.41 0.686776
1468.00 0.852673
1468.59 1.12167
1469.18 1.58005
1469.47 1.93660
1469.76 2.43532
1470.06 3.16543
1470.35 4.27993
1470.65 6.10237
1470.94 9.30198
1471.09 11.8539
1471.24 15.4747
1471.38 20.6985
1471.53 28.2053
1471.77 45.2412
1472.00 56.6516
1472.24 45.2210
1472.47 28.1834
1472.62 20.4248
1472.78 15.1080
1473.08 8.95484
1473.39 5.81149
1473.69 4.05168
1474.00 2.97484
1474.30 2.27656
1474.91 1.45679
1475.52 1.01353
1476.14 0.748105
1477.36 0.460160
1478.58 0.315414
1479.80 0.232657
1482.24 0.146473
1484.68 0.105042
1487.13 0.0823855
1492.01 0.0615440
1496.90 0.0574698
1499.34 0.0612809
1501.78 0.0719437
1504.23 0.0981561
1505.45 0.125249
1506.67 0.174990
1507.28 0.216903
1507.89 0.280668
1508.50 0.384429
1509.11 0.569557
1509.42 0.722811
1509.72 0.951245
1510.03 1.31457
1510.33 1.94377
1510.49 2.44882
1510.64 3.18237
1510.79 4.30469
1510.94 6.12785
1511.10 9.42131
1511.17 12.1183
1511.25 16.1172
1511.33 22.4587
1511.40 32.8658
1511.48 51.2617
1511.55 84.9201
1511.63 135.974
1511.70 170.054
1511.77 135.959
1511.85 84.9056
1511.89 62.6100
1511.94 46.9823
1512.03 28.3597
1512.12 18.6231
1512.21 13.1066
1512.30 9.65687
1512.39 7.39577
1512.56 4.73567
1512.74 3.28133
1512.92 2.41169
1513.28 1.46162
1513.64 0.983888
1514.00 0.710616
1514.36 0.539920
1514.72 0.426518
1515.44 0.289242
1516.15 0.212875
1517.59 0.135296
1519.02 0.0988696
1520.46 0.0791303
1523.33 0.0601467
1529.07 0.0500403
1534.81 0.0534815
1540.55 0.0685308
1543.42 0.0841185
1546.29 0.111826
1549.16 0.168463
1550.60 0.222706
1551.31 0.263159
1552.03 0.318288
1552.75 0.396579
1553.47 0.512974
1553.83 0.594002
1554.18 0.697908
1554.54 0.834242
1554.90 1.01750
1555.26 1.27360
1555.62 1.64576
1555.98 2.21593
1556.34 3.14903
1556.70 4.83794
1556.88 6.24408
1557.05 8.33492
1557.23 11.6532
1557.41 17.2072
1557.59 27.2203
1557.77 46.0199
1557.94 73.6931
1558.10 91.9898
1558.27 73.4966
1558.43 46.0040
1558.62 26.1822
1558.81 16.1534
1559.01 10.7472
1559.20 7.62223
1559.39 5.66186
1559.58 4.37253
1559.97 2.83211
1560.35 1.98960
1560.74 1.48132
1561.51 0.928079
1562.28 0.650798
1563.05 0.494297
1564.59 0.337959
1566.13 0.271849
1567.67 0.246258
1570.75 0.261867
1572.29 0.299310
1573.82 0.363794
1575.36 0.471519
1576.90 0.658196
1577.67 0.804711
1578.44 1.01196
1579.21 1.31708
1579.98 1.78912
1580.75 2.57129
1581.52 3.97866
1581.91 5.12861
1582.29 6.79552
1582.68 9.26298
1583.06 12.8971
1583.63 20.6217
1584.20 25.7669
1584.77 20.6019
1585.34 12.8769
1585.87 8.18659
1586.40 5.46044
1586.93 3.83862
1587.46 2.82436
1588.52 1.69808
1589.58 1.13031
1590.64 0.807098
1591.70 0.606969
1593.82 0.382846
1595.95 0.267333
1598.07 0.200389
1602.31 0.130524
1606.55 0.0977315
1610.79 0.0810595
1619.28 0.0706576
1627.76 0.0806230
1632.00 0.0954705
1636.24 0.123015
1640.49 0.178265
1642.61 0.229253
1643.67 0.266290
1644.73 0.315756
1645.26 0.347146
1645.79 0.384419
1646.32 0.429302
1646.85 0.484116
1647.38 0.552297
1647.91 0.638398
1648.44 0.749760
1648.97 0.897657
1649.50 1.10091
1650.03 1.39038
1650.56 1.82426
1651.09 2.51761
1651.62 3.72418
1651.89 4.68985
1652.15 6.08478
1652.42 8.18737
1652.68 11.5121
1652.95 17.0199
1653.21 26.3091
1653.51 42.0605
1653.80 52.5906
1654.10 42.0579
1654.39 26.3229
1654.59 18.9951
1654.78 14.0417
1655.18 8.34259
1655.57 5.48203
1655.96 3.89519
1656.36 2.94047
1656.75 2.32972
1657.53 1.63931
1658.32 1.29924
1659.10 1.13298
1660.68 1.08214
1662.25 1.32013
1663.03 1.57922
1663.82 1.99050
1664.60 2.65449
1665.39 3.76771
1666.18 5.73816
1666.96 9.30948
1667.73 14.8121
1668.50 18.4717
1669.27 14.7772
1670.04 9.25721
1670.88 5.48675
1671.72 3.48353
1672.56 2.37215
1673.40 1.71035
1674.24 1.28943
1675.08 1.00754
1676.76 0.666375
1678.44 0.476245
1680.12 0.359887
1683.48 0.230889
1686.84 0.165104
1690.20 0.127700
1696.93 0.0918548
1703.65 0.0838027
1707.01 0.0895202
1710.37 0.106390
1713.73 0.147856
1715.41 0.190065
1717.09 0.266035
1718.77 0.421887
1719.61 0.568992
1720.45 0.820707
1721.29 1.30430
1721.71 1.73223
1722.13 2.41574
1722.55 3.59991
1722.76 4.54149
1722.97 5.89164
1723.18 7.90560
1723.39 11.0435
1723.60 16.1367
1723.81 24.5077
1724.06 39.1712
1724.30 48.9342
1724.55 39.1576
1724.79 24.4945
1725.07 14.1920
1725.35 8.84350
1725.62 5.93331
1725.90 4.22991
1726.18 3.15486
1726.46 2.44053
1727.01 1.58650
1727.57 1.11585
1728.12 0.831182
1729.23 0.519210
1730.34 0.361603
1731.45 0.271697
1733.68 0.179397
1735.90 0.137239
1738.12 0.116920
1742.56 0.108892
1747.00 0.135856
1749.22 0.170547
1751.45 0.235822
1753.67 0.371268
1754.78 0.498661
1755.89 0.714230
1756.44 0.882798
1757.00 1.12108
1757.55 1.47332
1758.11 2.02331
1758.67 2.94729
1758.94 3.65878
1759.22 4.64428
1759.50 6.06194
1759.78 8.15127
1760.05 11.3354
1760.33 16.1620
1760.72 25.9280
1761.10 32.4683
1761.49 25.9133
1761.87 16.1474
1762.21 10.4657
1762.55 7.07814
1762.89 5.02392
1763.23 3.72382
1763.92 2.25580
1764.60 1.50602
1765.28 1.07526
1765.96 0.807067
1767.32 0.504914
1768.68 0.347885
1770.05 0.256162
1772.77 0.158840
1775.50 0.110953
1778.22 0.0839405
1783.67 0.0562666
1789.12 0.0433797
1794.57 0.0367918
1805.48 0.0325788
1816.38 0.0367623
1821.83 0.0433610
1827.28 0.0562911
1832.73 0.0840500
1835.45 0.111058
1838.18 0.158667
1839.54 0.197410
1840.91 0.254565
1842.27 0.343901
1843.63 0.494711
1844.31 0.612578
1844.99 0.779390
1845.67 1.02642
1846.36 1.41331
1847.04 2.06613
1847.72 3.27452
1848.06 4.29157
1848.40 5.80291
1848.74 8.12658
1849.08 11.6890
1849.54 18.7306
1850.00 23.4373
1850.46 18.7190
1850.92 11.6781
1851.39 7.14008
1851.85 4.62386
1852.32 3.18404
1852.78 2.30855
1853.25 1.74445
1853.72 1.36262
1854.65 0.896949
1855.58 0.636280
1856.51 0.476522
1858.38 0.299846
1860.24 0.209933
1862.10 0.158470
1865.83 0.105879
1869.56 0.0823806
1873.29 0.0717721
1880.74 0.0707190
1888.20 0.0936822
1891.92 0.120974
1895.65 0.171876
1899.38 0.278425
1901.24 0.380339
1903.11 0.556599
1904.04 0.697321
1904.97 0.900946
1905.90 1.21087
1906.83 1.71486
1907.77 2.61138
1908.23 3.34357
1908.70 4.42117
1909.16 6.08522
1909.63 8.80303
1910.10 13.5068
1910.56 21.8595
1911.03 35.0368
1911.50 43.8430
1911.97 35.0154
1912.44 21.8387
1912.84 14.3764
1913.24 9.84556
1913.64 7.04427
1914.04 5.24931
1914.84 3.20161
1915.64 2.14246
1916.45 1.53070
1917.25 1.14752
1918.85 0.714457
1920.45 0.488729
1922.05 0.356791
1923.65 0.273073
1925.25 0.216773
1928.46 0.148161
1931.66 0.109762
1938.07 0.0713149
1944.47 0.0551308
1950.88 0.0514177
1954.08 0.0562513
1955.68 0.0627309
1957.29 0.0755302
1958.89 0.103824
1959.69 0.132175
1960.49 0.183587
1961.29 0.291916
1961.69 0.397836
1962.09 0.585781
1962.29 0.740994
1962.49 0.971063
1962.69 1.33496
1962.89 1.96016
1962.99 2.45611
1963.09 3.16995
1963.19 4.24908
1963.29 5.98768
1963.39 9.03848
1963.44 11.4959
1963.49 15.0641
1963.54 20.4759
1963.59 29.0998
1963.64 43.5297
1963.69 68.1637
1963.75 109.730
1963.80 136.887
1963.86 108.916
1963.91 68.1575
1963.95 49.1675
1963.98 36.5166
1964.05 21.7332
1964.12 14.0722
1964.19 9.82366
1964.26 7.19180
1964.33 5.50296
1964.47 3.50432
1964.61 2.42618
1964.76 1.78101
1965.04 1.08178
1965.32 0.731637
1965.60 0.531888
1965.88 0.407362
1966.17 0.324572
1966.73 0.224862
1967.29 0.169468
1968.42 0.113499
1969.55 0.0874891
1970.68 0.0736220
1972.93 0.0609500
1977.44 0.0568774
1981.96 0.0650012
1986.47 0.0859041
1988.72 0.104760
1990.98 0.134142
1992.11 0.155216
1993.23 0.182837
1994.36 0.219945
1995.49 0.271289
1996.62 0.345218
1997.75 0.456877
1998.87 0.636578
1999.44 0.770320
2000.00 0.951364
2000.90 1.40762
2001.35 1.76738
2001.80 2.27918
2002.25 3.03476
2002.70 4.19617
2003.15 6.04842
2003.60 9.03134
2004.15 14.4720
2004.70 18.1087
2005.25 14.4619
2005.80 9.02159
2006.44 5.14576
2007.08 3.17600
2007.72 2.11712
2008.36 1.50223
2009.00 1.11766
2009.64 0.863625
2010.92 0.560689
2012.20 0.394625
2013.48 0.294355
2016.05 0.184733
2018.61 0.129523
2021.17 0.0980235
2026.29 0.0656506
2031.41 0.0506905
2036.53 0.0431487
2046.78 0.0381895
2057.02 0.0410668
2067.27 0.0533645
2072.39 0.0680925
2074.95 0.0812104
2077.51 0.103266
2080.07 0.146856
2081.35 0.188132
2082.63 0.260638
2083.92 0.408980
2084.56 0.550658
2085.20 0.798041
2085.84 1.29200
2086.16 1.74707
2086.48 2.50779
2086.80 3.91957
2086.96 5.12461
2087.12 6.97877
2087.28 10.0232
2087.44 15.4521
2087.60 26.1374
2087.68 35.3543
2087.76 48.7966
2087.88 77.9536
2088.00 97.3549
2088.12 77.9436
2088.24 48.7875
2088.32 36.3353
2088.39 27.6012
2088.53 16.9187
2088.68 11.2296
2088.82 7.93866
2088.97 5.89169
2089.11 4.54134
2089.40 2.94034
2089.69 2.06235
2089.98 1.53314
2090.27 1.19049
2090.56 0.957032
2091.14 0.667035
2091.72 0.502134
2092.88 0.332500
2094.04 0.253469
2095.20 0.212234
2097.52 0.177882
2102.15 0.180773
2106.79 0.231369
2109.11 0.276408
2111.42 0.341531
2113.74 0.437718
2116.06 0.585562
2118.38 0.826008
2120.70 1.24698
2121.85 1.58060
2123.01 2.05100
2124.17 2.72426
2125.33 3.68163
2127.22 5.87349
2129.10 7.32679
2130.99 5.86086
2132.87 3.67026
2134.11 2.66228
2135.34 1.97228
2137.81 1.17318
2140.28 0.768294
2142.75 0.542589
2145.22 0.406786
2147.69 0.320618
2152.63 0.228109
2157.57 0.199082
2160.04 0.207353
2162.51 0.240943
2164.98 0.328602
2166.22 0.418265
2167.45 0.577479
2168.69 0.893458
2169.30 1.18044
2169.61 1.38424
2169.92 1.64867
2170.23 2.00230
2170.54 2.48736
2170.85 3.17562
2171.16 4.18887
2171.47 5.76598
2171.77 8.35995
2171.93 10.3051
2172.08 12.8919
2172.24 16.3740
2172.39 21.0199
2172.70 33.6169
2173.00 41.9743
2173.15 39.4806
2173.31 33.5598
2173.61 21.0057
2173.81 15.2585
2174.01 11.3085
2174.40 6.72245
2174.80 4.37642
2175.19 3.06040
2175.59 2.25511
2175.98 1.73223
2176.77 1.11753
2177.56 0.785511
2178.36 0.586432
2179.94 0.369804
2181.52 0.260474
2183.10 0.197483
2186.27 0.131050
2189.43 0.0984021
2192.59 0.0801406
2198.92 0.0632741
2205.25 0.0620144
2208.41 0.0682239
2211.58 0.0833862
2214.74 0.119357
2216.32 0.155971
2217.90 0.222345
2219.49 0.360181
2220.28 0.492169
2221.07 0.721497
2221.46 0.905617
2221.86 1.17257
2222.06 1.35428
2222.26 1.58246
2222.45 1.87425
2222.65 2.25311
2222.85 2.76252
2223.05 3.46491
2223.24 4.46850
2223.44 5.95666
2223.64 8.30652
2223.84 12.2166
2223.94 15.1991
2224.03 19.2509
2224.13 24.8029
2224.23 32.2602
2224.42 51.6685
2224.60 64.5145
2224.79 51.5461
2224.97 32.2498
2225.10 22.6872
2225.23 16.3661
2225.37 12.1845
2225.50 9.34794
2225.76 5.93358
2226.02 4.07626
2226.29 2.96058
2226.55 2.24724
2227.08 1.41971
2227.61 0.979011
2228.13 0.717460
2229.19 0.436030
2230.24 0.295848
2231.30 0.216203
2233.40 0.133596
2235.51 0.0937366
2237.62 0.0714646
2241.84 0.0486644
2246.05 0.0378327
2250.27 0.0319748
2258.70 0.0269890
2267.14 0.0275076
2271.35 0.0303304
2275.57 0.0366212
2279.79 0.0511269
2281.90 0.0658464
2284.00 0.0927174
2285.06 0.115294
2286.11 0.149546
2287.17 0.205163
2288.22 0.304367
2288.75 0.386062
2289.27 0.507999
2289.80 0.701593
2290.07 0.844449
2290.33 1.03600
2290.59 1.30331
2290.72 1.47793
2290.86 1.68859
2290.99 1.95007
2291.12 2.27736
2291.25 2.69426
2291.38 3.23150
2291.51 3.95130
2291.65 4.93668
2291.78 6.33173
2291.91 8.36918
2292.04 11.5401
2292.17 16.7296
2292.31 25.7326
2292.37 32.6303
2292.44 41.6350
2292.57 66.5444
2292.70 83.1214
2292.83 66.5354
2292.96 41.6261
2293.07 27.8041
2293.18 19.2963
2293.29 13.9507
2293.40 10.4677
2293.61 6.44430
2293.83 4.33522
2294.05 3.10213
2294.26 2.32955
2294.69 1.45086
2295.13 0.989823
2295.56 0.719923
2295.99 0.547919
2296.42 0.432160
2297.29 0.290418
2298.15 0.210402
2299.02 0.160888
2299.88 0.128185
2301.61 0.0890005
2303.34 0.0674123
2306.80 0.0459111
2310.26 0.0362869
2313.72 0.0316131
2320.64 0.0292328
2327.56 0.0335826
2331.02 0.0395882
2334.48 0.0511699
2337.94 0.0761399
2339.67 0.100733
2341.40 0.144723
2343.13 0.235523
2343.99 0.322352
2344.86 0.473126
2345.72 0.770800
2346.15 1.04229
2346.59 1.48858
2347.02 2.30038
2347.23 2.97565
2347.45 3.98946
2347.67 5.59800
2347.88 8.32696
2348.10 13.3124
2348.31 22.8405
2348.51 36.5510
2348.70 45.6956
2348.89 36.5438
2349.09 22.8335
2349.24 15.3689
2349.40 10.6993
2349.55 7.75399
2349.71 5.82939
2350.02 3.59977
2350.33 2.43066
2350.65 1.74572
2350.96 1.31491
2351.58 0.823399
2352.20 0.565415
2352.83 0.414197
2354.07 0.253123
2355.32 0.173781
2356.57 0.129130
2359.06 0.0835061
2361.55 0.0621606
2364.04 0.0507894
2369.03 0.0405432
2379.00 0.0379836
2388.97 0.0463659
2398.95 0.0681948
2403.93 0.0893491
2408.92 0.125364
2413.90 0.193479
2416.40 0.252727
2418.89 0.345762
2421.38 0.503217
2423.88 0.797603
2425.12 1.04756
2426.37 1.42361
2427.61 2.00754
2428.86 2.91864
2430.48 4.65582
2432.10 5.81060
2433.72 4.65149
2435.34 2.91833
2437.15 1.71584
2438.96 1.08838
2440.78 0.747295
2442.59 0.549188
2444.40 0.427925
2446.21 0.351659
2449.84 0.278093
2453.46 0.280316
2455.27 0.316205
2457.08 0.394348
2457.99 0.461026
2458.90 0.559223
2459.80 0.708735
2460.25 0.813508
2460.71 0.947925
2461.16 1.12359
2461.61 1.35819
2462.07 1.67957
2462.52 2.13301
2462.97 2.79455
2463.43 3.79476
2463.88 5.35490
2464.33 7.79401
2464.92 12.4376
2465.50 15.5329
2465.79 14.6142
2466.09 12.4264
2466.67 7.77934
2467.17 5.14580
2467.67 3.54184
2468.16 2.54858
2468.66 1.91070
2469.66 1.18156
2470.65 0.803414
2471.64 0.583860
2472.64 0.445817
2474.63 0.288354
2476.62 0.205161
2478.61 0.155662
2482.58 0.101633
2486.56 0.0738846
2490.54 0.0575010
2498.50 0.0395900
2506.45 0.0303794
2514.41 0.0250349
2530.32 0.0197321
2546.23 0.0181269
2562.14 0.0191446
2578.06 0.0238365
2586.01 0.0296774
2589.99 0.0380726
2591.98 0.0598695
2592.48 0.0805352
2592.97 0.137015
2593.22 0.213248
2593.47 0.418763
2593.60 0.690484
2593.72 1.38709
2593.78 2.24190
2593.81 3.00663
2593.84 4.24264
2593.87 6.42200
2593.91 10.7606
2593.92 14.8503
2593.94 21.0138
2593.95 32.1896
2593.97 50.9929
2593.98 82.2368
2594.00 102.093
2594.02 82.2368
2594.03 50.9932
2594.05 31.2888
2594.07 20.0072
2594.08 13.6432
2594.10 9.99485
2594.13 5.88775
2594.17 3.86014
2594.20 2.72250
2594.23 2.02373
2594.30 1.24796
2594.43 0.618130
2594.56 0.377972
2594.83 0.194927
2595.09 0.128182
2595.62 0.0793072
2596.15 0.0623574
2598.27 0.0485092
2602.50 0.0537924
2606.74 0.0692483
2608.85 0.0880293
2609.91 0.129582
2610.18 0.167135
2610.44 0.266899
2610.58 0.399061
2610.71 0.742886
2610.77 1.17392
2610.84 2.21625
2610.87 3.39814
2610.91 5.87830
2610.92 8.35259
2610.94 12.3398
2610.96 20.2308
2610.97 35.6396
2610.99 57.2457
2611.00 71.2613
2611.01 57.2460
2611.03 35.6402
2611.04 24.6069
2611.05 17.3318
2611.06 12.6743
2611.07 9.82982
2611.09 6.23046
2611.11 4.28201
2611.16 2.35277
2611.20 1.51183
2611.28 0.793582
2611.37 0.510735
2611.54 0.289512
2611.71 0.207548
2612.04 0.147984
2612.38 0.128273
2613.74 0.118179
2616.44 0.145524
2619.15 0.196974
2621.85 0.287377
2623.21 0.359820
2624.56 0.464772
2625.91 0.624880
2627.27 0.886092
2627.94 1.08316
2628.62 1.35354
2629.30 1.73745
2629.97 2.30457
2630.65 3.18786
2631.33 4.64241
2632.00 7.19798
2632.68 11.8195
2633.34 18.9010
2634.00 23.6159
2634.66 18.8892
2635.32 11.8081
2635.87 7.84599
2636.42 5.40698
2636.98 3.88942
2637.53 2.90813
2638.63 1.78323
2639.74 1.19795
2640.84 0.858663
2641.94 0.645658
2644.15 0.404375
2646.36 0.278577
2648.57 0.205040
2652.98 0.127286
2657.40 0.0895543
2661.81 0.0688386
2670.65 0.0493028
2679.48 0.0430423
2688.31 0.0448458
2697.14 0.0587505
2701.55 0.0802977
2703.76 0.110624
2704.87 0.173071
2705.14 0.226523
2705.42 0.366375
2705.56 0.548397
2705.69 1.02278
2705.76 1.61690
2705.83 3.05338
2705.87 4.71480
2705.90 8.09867
2705.92 11.3155
2705.94 16.7673
2705.95 26.7296
2705.97 47.2629
2705.99 75.6612
2706.00 94.4325
2706.02 75.6618
2706.03 47.2643
2706.05 27.5433
2706.06 17.1994
2706.08 11.5633
2706.10 8.40584
2706.13 4.85434
2706.16 3.20002
2706.23 1.70353
2706.30 1.08960
2706.43 0.593871
2706.56 0.405973
2706.83 0.267953
2707.10 0.222198
2707.63 0.199942
2708.16 0.206626
2709.23 0.255631
2710.29 0.354425
2711.36 0.554585
2711.89 0.738522
2712.42 1.04269
2712.95 1.60006
2713.22 2.06768
2713.49 2.77563
2713.75 3.91751
2714.02 5.88247
2714.28 9.56350
2714.55 16.8424
2714.78 26.9049
2715.00 33.6062
2715.23 26.9000
2715.45 16.8383
2715.61 11.7864
2715.78 8.47184
2715.94 6.29383
2716.11 4.83181
2716.43 3.07351
2716.76 2.11871
2717.09 1.54970
2717.41 1.18564
2718.07 0.765881
2718.72 0.543297
2719.38 0.412287
2720.68 0.273107
2721.99 0.205830
2723.30 0.169546
2725.92 0.137103
2731.15 0.132032
2736.39 0.164761
2739.00 0.195976
2741.62 0.242260
2744.24 0.312192
2746.85 0.422441
2749.47 0.607730
2750.78 0.750216
2752.09 0.947712
2753.40 1.23002
2754.70 1.64524
2756.01 2.27138
2757.32 3.21575
2759.16 5.13471
2761.00 6.40950
2762.84 5.12560
2764.68 3.20662
2766.76 1.86309
2768.84 1.16483
2770.92 0.784249
2773.00 0.560833
2775.08 0.420380
2777.16 0.327159
2781.32 0.215888
2785.49 0.155474
2789.65 0.120352
2793.81 0.102270
2795.89 0.109140
2796.93 0.159742
2797.19 0.212270
2797.45 0.356105
2797.58 0.545511
2797.71 1.03640
2797.77 1.64237
2797.84 3.07200
2797.87 4.67674
2797.90 7.80887
2797.92 10.8808
2797.94 15.6261
2797.95 23.7480
2797.97 38.0021
2797.98 61.4861
2798.00 75.9208
2798.02 60.0155
2798.03 38.0022
2798.05 25.8522
2798.06 18.6309
2798.07 13.5575
2798.08 10.4370
2798.11 6.56133
2798.13 4.48366
2798.18 2.47412
2798.23 1.57704
2798.33 0.823167
2798.43 0.525501
2798.63 0.291529
2798.83 0.204539
2799.23 0.139381
2799.63 0.115806
2801.22 0.0934738
2802.82 0.0935843
2804.41 0.103406
2806.01 0.130190
2806.81 0.158114
2807.60 0.208849
2808.40 0.314057
2808.80 0.414292
2809.20 0.586757
2809.60 0.922995
2809.80 1.22360
2809.90 1.43671
2809.99 1.70989
2810.09 2.07554
2810.19 2.57414
2810.29 3.27645
2810.39 4.29236
2810.49 5.86226
2810.59 8.36685
2810.64 10.2209
2810.69 12.6670
2810.74 15.9092
2810.79 20.0699
2810.90 32.1781
2811.00 40.1627
2811.05 37.7291
2811.11 32.0521
2811.21 20.0672
2811.29 13.5437
2811.38 9.45461
2811.46 6.87069
2811.54 5.19620
2811.71 3.23431
2811.88 2.19904
2812.05 1.59335
2812.21 1.21063
2812.55 0.774398
2812.88 0.545084
2813.22 0.411019
2813.88 0.268838
2814.55 0.199932
2815.22 0.162807
2816.56 0.131754
2817.89 0.135028
2818.56 0.152096
2819.23 0.189672
2819.90 0.275278
2820.23 0.360744
2820.57 0.513848
2820.90 0.827260
2821.07 1.12324
2821.24 1.62995
2821.40 2.60414
2821.49 3.47319
2821.57 4.84556
2821.61 5.87135
2821.65 7.25554
2821.70 9.17952
2821.74 11.8692
2821.78 15.9759
2821.80 18.8139
2821.82 22.4018
2821.84 26.9851
2821.86 32.8841
2821.88 40.4888
2821.90 49.6759
2821.93 64.0239
2821.95 79.7278
2822.00 99.1981
2822.03 93.0328
2822.05 79.0714
2822.10 49.6726
2822.14 31.6386
2822.19 21.1060
2822.23 14.8305
2822.28 10.9722
2822.37 6.57240
2822.46 4.37182
2822.55 3.10355
2822.63 2.32546
2822.81 1.44732
2822.99 0.993555
2823.17 0.729375
2823.53 0.450429
2823.89 0.313140
2824.24 0.235730
2824.96 0.156029
2825.68 0.117647
2826.39 0.0962058
2827.82 0.0741553
2830.68 0.0578155
2833.54 0.0524723
2839.27 0.0518392
2844.99 0.0588066
2850.71 0.0752386
2856.44 0.111695
2859.30 0.147722
2862.16 0.215136
2863.59 0.278410
2865.02 0.403630
2865.74 0.537708
2866.10 0.655176
2866.45 0.849892
2866.81 1.22608
2866.99 1.56925
2867.17 2.13962
2867.35 3.21516
2867.44 4.15575
2867.53 5.61644
2867.62 8.11918
2867.66 10.0714
2867.71 12.7480
2867.75 16.7180
2867.79 22.5433
2867.84 31.7617
2867.88 45.7507
2867.94 73.1551
2868.00 90.9987
2868.06 72.6682
2868.12 45.7695
2868.18 28.4671
2868.23 18.7284
2868.29 13.0950
2868.35 9.69202
2868.46 5.91689
2868.58 4.06634
2868.70 3.02134
2868.81 2.38942
2869.04 1.69886
2869.27 1.35960
2869.50 1.17953
2869.96 1.03340
2870.89 1.07441
2871.81 1.33606
2872.73 1.83242
2873.66 2.73609
2874.12 3.46049
2874.58 4.48322
2875.04 5.94961
2875.50 8.03917
2876.25 12.8269
2877.00 16.0113
2877.75 12.8135
2878.50 8.02055
2879.05 5.61262
2879.59 4.03287
2880.14 2.99480
2880.69 2.29547
2881.78 1.45660
2882.87 1.00185
2883.97 0.730720
2885.06 0.557484
2887.25 0.357883
2889.44 0.252651
2891.62 0.191366
2896.00 0.129930
2900.37 0.110389
2902.56 0.113696
2904.74 0.130675
2906.93 0.176412
2908.03 0.223662
2909.12 0.307944
2910.21 0.476488
2910.76 0.630447
2911.31 0.883225
2911.58 1.07578
2911.85 1.34048
2912.13 1.72029
2912.40 2.28515
2912.67 3.17735
2912.95 4.66738
2913.08 5.80468
2913.22 7.33869
2913.36 9.45700
2913.49 12.3161
2913.75 19.6821
2914.00 24.5905
2914.25 19.6771
2914.51 12.3104
2914.71 8.30096
2914.92 5.78977
2915.12 4.20434
2915.33 3.16758
2915.74 1.96554
2916.15 1.33313
2916.56 0.963749
2916.97 0.730529
2917.79 0.464866
2918.61 0.324989
2919.43 0.242525
2921.07 0.154066
2922.71 0.109824
2924.35 0.0844064
2927.62 0.0574362
2930.90 0.0438850
2934.18 0.0359576
2940.74 0.0273394
2953.86 0.0207123
2960.41 0.0202839
2963.69 0.0233841
2965.33 0.0367058
2966.15 0.0882294
2966.36 0.139535
2966.56 0.278550
2966.67 0.461614
2966.77 0.927452
2966.82 1.49445
2966.87 2.80612
2966.90 4.25263
2966.92 6.97264
2966.93 9.48555
2966.95 13.4937
2966.96 20.2032
2966.97 31.3046
2966.99 50.3181
2967.00 62.6519
2967.01 50.3182
2967.03 31.3048
2967.04 18.3217
2967.06 11.7152
2967.07 7.99674
2967.09 5.75987
2967.12 3.36522
2967.15 2.19542
2967.21 1.13376
2967.27 0.698017
2967.39 0.344471
2967.51 0.209840
2967.75 0.106863
2967.99 0.0693210
2968.96 0.0317484
2970.89 0.0221047
2974.75 0.0200530
2982.47 0.0217871
2986.33 0.0246171
2990.19 0.0316923
2992.13 0.0407318
2993.09 0.0494505
2994.06 0.0650555
2995.02 0.0978161
2995.50 0.129959
2995.99 0.187548
2996.47 0.307648
2996.71 0.423490
2996.95 0.627309
2997.19 1.03949
2997.31 1.42385
2997.43 2.06662
2997.56 3.28586
2997.62 4.33275
2997.68 5.96328
2997.74 8.74738
2997.77 10.8594
2997.80 13.7909
2997.83 17.9844
2997.86 24.1727
2997.89 33.5425
2997.92 48.1004
2997.96 76.7359
2998.00 96.1996
2998.04 76.7339
2998.08 48.0984
2998.11 33.9267
2998.14 24.4243
2998.17 18.1523
2998.20 13.9064
2998.26 8.80722
2998.32 6.03211
2998.38 4.37566
2998.44 3.31435
2998.56 2.08820
2998.68 1.43642
2998.80 1.05013
2999.04 0.636329
2999.28 0.429714
2999.52 0.312916
2999.76 0.240049
3000.00 0.191948
3000.63 0.122437
3001.25 0.0892312
3001.87 0.0709343
3002.50 0.0598989
3003.75 0.0480944
3004.99 0.0426092
3007.49 0.0388947
3009.99 0.0392128
3014.98 0.0454602
3019.97 0.0584629
3024.97 0.0828137
3029.96 0.133526
3032.46 0.182292
3033.71 0.218642
3034.96 0.268294
3036.20 0.339468
3037.45 0.450137
3038.70 0.674670
3039.01 0.800587
3039.32 1.06267
3039.48 1.35953
3039.64 2.06170
3039.71 2.87482
3039.75 3.57648
3039.79 4.67334
3039.83 6.52124
3039.87 9.95635
3039.89 12.9460
3039.91 17.1994
3039.93 24.1211
3039.95 34.7136
3039.97 54.8124
3040.00 68.6376
3040.03 54.8251
3040.05 34.7397
3040.07 24.5931
3040.09 18.0934
3040.12 10.7970
3040.16 7.20759
3040.20 5.23772
3040.23 4.03176
3040.27 3.28400
3040.34 2.42329
3040.49 1.71237
3040.63 1.45810
3040.92 1.33111
3041.21 1.37054
3041.79 1.63491
3042.37 2.08763
3042.95 2.79295
3043.53 3.91529
3044.11 5.76994
3044.69 8.87041
3045.35 14.1897
3046.00 17.7401
3046.66 14.1813
3047.31 8.86121
3047.72 6.52430
3048.12 4.89186
3048.94 2.95474
3049.75 1.94668
3050.57 1.37281
3051.38 1.02016
3052.19 0.789918
3053.82 0.520472
3055.45 0.377403
3057.08 0.295481
3060.33 0.221742
3063.59 0.221476
3065.22 0.252422
3066.84 0.321768
3068.47 0.474521
3069.28 0.619859
3070.10 0.864761
3070.91 1.32063
3071.32 1.70869
3071.73 2.30296
3072.13 3.27116
3072.54 4.97638
3072.74 6.34083
3072.95 8.26746
3073.15 11.0439
3073.35 15.0263
3073.68 24.0097
3074.00 29.9952
3074.32 24.0018
3074.65 15.0169
3074.99 8.98727
3075.34 5.73948
3075.68 3.91290
3076.03 2.82128
3076.37 2.12290
3076.72 1.65493
3077.40 1.08769
3078.09 0.771331
3078.78 0.578112
3080.16 0.363878
3081.54 0.254006
3082.91 0.190224
3085.67 0.122600
3088.42 0.0892915
3091.18 0.0706232
3096.68 0.0527427
3102.19 0.0485894
3104.95 0.0514032
3107.70 0.0599387
3110.46 0.0813284
3111.83 0.103427
3113.21 0.143763
3114.59 0.228222
3115.28 0.309695
3115.97 0.452103
3116.66 0.735957
3117.00 0.996423
3117.17 1.18341
3117.34 1.42944
3117.52 1.76416
3117.69 2.22898
3117.86 2.90360
3118.03 3.93145
3118.20 5.59580
3118.38 8.50331
3118.46 10.8052
3118.55 14.0492
3118.63 18.6898
3118.72 25.2925
3118.86 40.4141
3119.00 50.4770
3119.14 40.4097
3119.28 25.2882
3119.41 16.2108
3119.54 10.8657
3119.66 7.66016
3119.79 5.65653
3120.05 3.40637
3120.30 2.26320
3120.56 1.61033
3120.81 1.20453
3121.32 0.748985
3121.83 0.512925
3122.34 0.375741
3123.36 0.230593
3124.38 0.159441
3125.40 0.119463
3127.44 0.0785278
3129.48 0.0591742
3131.52 0.0486798
3135.61 0.0387686
3143.77 0.0348209
3151.93 0.0403409
3160.09 0.0571709
3164.17 0.0743558
3168.26 0.104827
3172.34 0.165917
3174.38 0.222416
3176.42 0.317153
3177.44 0.390721
3178.46 0.494389
3179.48 0.647079
3180.50 0.884676
3181.52 1.28209
3182.54 2.00985
3183.05 2.61483
3183.56 3.50766
3184.07 4.85964
3184.58 6.90989
3185.29 11.0524
3186.00 13.8203
3186.71 11.0542
3187.42 6.92035
3188.06 4.46734
3188.71 3.02585
3189.35 2.16349
3189.99 1.62518
3191.28 1.04248
3192.57 0.785958
3193.85 0.721875
3194.50 0.769456
3195.14 0.909472
3195.78 1.24227
3196.10 1.56478
3196.42 2.10652
3196.75 3.10504
3196.91 3.94177
3197.07 5.19112
3197.23 7.18457
3197.39 10.5640
3197.55 16.7227
3197.63 21.6212
3197.71 28.3423
3197.86 45.2335
3198.00 56.4991
3198.15 45.2198
3198.29 28.3198
3198.43 17.9421
3198.56 11.9448
3198.70 8.40026
3198.84 6.20662
3199.11 3.76073
3199.38 2.53314
3199.66 1.83180
3199.93 1.39760
3200.48 0.907915
3201.02 0.651245
3201.57 0.499600
3202.66 0.334275
3203.76 0.249194
3204.85 0.198684
3207.04 0.143030
3209.22 0.114423
3211.41 0.0984874
3215.78 0.0871387
3220.15 0.0982468
3222.34 0.116794
3224.53 0.153567
3226.71 0.231772
3227.80 0.306085
3228.90 0.432697
3229.44 0.532038
3229.99 0.672908
3230.54 0.882397
3231.08 1.21062
3231.63 1.76580
3231.90 2.19517
3232.18 2.79562
3232.45 3.66650
3232.72 4.96314
3233.00 6.95519
3233.27 10.0245
3233.64 16.0287
3234.00 20.0139
3234.37 16.0063
3234.73 10.0194
3235.09 6.26607
3235.44 4.13034
3235.79 2.87730
3236.15 2.10551
3236.85 1.25763
3237.56 0.834805
3238.27 0.595510
3238.97 0.448021
3240.38 0.283367
3241.80 0.198633
3243.21 0.149529
3246.04 0.0979417
3248.86 0.0731373
3251.69 0.0597816
3257.34 0.0483156
3263.00 0.0473034
3268.65 0.0549426
3271.47 0.0637715
3274.30 0.0800462
3275.71 0.0950909
3277.13 0.125613
3277.83 0.160110
3278.54 0.246348
3278.89 0.358120
3279.25 0.654468
3279.42 1.04064
3279.51 1.40336
3279.60 2.02513
3279.69 3.24497
3279.73 4.32432
3279.78 6.06317
3279.82 9.11469
3279.86 15.1440
3279.89 20.5622
3279.91 29.2032
3279.93 43.6817
3279.95 69.1835
3279.98 110.101
3280.00 138.129
3280.02 110.100
3280.05 69.1843
3280.08 39.6782
3280.10 24.7503
3280.13 16.3998
3280.16 11.7120
3280.19 8.66980
3280.21 6.72873
3280.27 4.39338
3280.32 3.08431
3280.38 2.30587
3280.48 1.44319
3280.59 1.00733
3280.70 0.757684
3280.92 0.498602
3281.36 0.307898
3281.79 0.243716
3282.66 0.209670
3283.54 0.214296
3285.28 0.268200
3287.02 0.379443
3288.77 0.600898
3289.64 0.798659
3290.51 1.11589
3291.38 1.66784
3291.82 2.10834
3292.26 2.74208
3292.69 3.69142
3293.13 5.17891
3293.56 7.61122
3294.00 11.6451
3294.50 18.6220
3295.00 23.2697
3295.50 18.6147
3296.00 11.6378
3296.41 7.82260
3296.81 5.44011
3297.22 3.93969
3297.62 2.96044
3298.44 1.82740
3299.25 1.23309
3300.06 0.886003
3300.87 0.667403
3302.49 0.418451
3304.12 0.287923
3305.74 0.211328
3308.99 0.129771
3312.23 0.0897229
3315.48 0.0675399
3318.73 0.0559190
3320.35 0.0597830
3321.16 0.0916354
3321.57 0.216350
3321.67 0.337253
3321.77 0.645958
3321.82 1.02822
3321.87 1.89806
3321.90 2.88011
3321.92 4.75030
3321.95 9.04749
3321.96 13.6254
3321.97 20.7958
3321.99 33.2074
3322.00 41.5647
3322.01 33.2074
3322.03 20.7958
3322.04 14.5790
3322.05 10.2030
3322.07 5.73150
3322.09 3.53801
3322.11 2.42750
3322.16 1.32941
3322.20 0.843184
3322.29 0.437030
3322.37 0.276331
3322.71 0.105547
3323.40 0.0573777
3324.77 0.0427119
3327.52 0.0357597
3333.01 0.0302256
3344.00 0.0278384
3354.98 0.0347441
3360.48 0.0456743
3363.22 0.0600304
3364.60 0.0909825
3365.28 0.192076
3365.45 0.289468
3365.63 0.545534
3365.71 0.873566
3365.80 1.68885
3365.84 2.64486
3365.88 4.74324
3365.91 6.92674
3365.93 10.7035
3365.95 18.2042
3365.96 25.1265
3365.97 35.2972
3365.98 55.8361
3366.00 70.4835
3366.02 55.8362
3366.03 35.2976
3366.04 25.9104
3366.05 19.8182
3366.07 12.3238
3366.09 8.26373
3366.10 5.88517
3366.14 3.35483
3366.18 2.18857
3366.25 1.14540
3366.32 0.720204
3366.47 0.377106
3366.61 0.248077
3366.90 0.151415
3367.20 0.117280
3368.36 0.0893859
3370.68 0.101494
3373.01 0.133519
3375.34 0.190760
3377.66 0.301686
3378.83 0.400010
3379.99 0.557106
3381.15 0.829234
3381.73 1.04577
3382.31 1.35561
3382.90 1.81837
3383.48 2.53766
3384.06 3.70614
3384.64 5.62115
3385.32 8.98426
3386.00 11.2231
3386.68 8.97968
3387.36 5.61673
3388.01 3.53419
3388.66 2.33827
3389.31 1.63322
3389.95 1.19646
3391.25 0.715070
3392.55 0.473917
3393.85 0.337445
3395.14 0.253179
3397.74 0.159290
3400.33 0.111229
3402.92 0.0836474
3408.11 0.0557729
3413.30 0.0449301
3418.49 0.0463563
3421.08 0.0561839
3422.38 0.0673141
3423.68 0.0883789
3424.97 0.133835
3425.62 0.178845
3426.27 0.259587
3426.92 0.427154
3427.24 0.587730
3427.57 0.867798
3427.89 1.42264
3428.05 1.93020
3428.21 2.77040
3428.30 3.41283
3428.38 4.30576
3428.46 5.59497
3428.54 7.54559
3428.62 10.6739
3428.70 16.0634
3428.74 20.3343
3428.78 26.1347
3428.82 34.5223
3428.86 45.9888
3428.93 73.6371
3429.00 92.0975
3429.07 73.6340
3429.14 45.9856
3429.20 30.6827
3429.25 21.3429
3429.31 15.4598
3429.36 11.6183
3429.48 7.16994
3429.59 4.83232
3429.70 3.45874
3429.81 2.60153
3430.04 1.62511
3430.26 1.11122
3430.49 0.810875
3430.71 0.618970
3430.93 0.490059
3431.38 0.331963
3431.83 0.242693
3432.73 0.150927
3433.63 0.107257
3434.53 0.0832504
3436.32 0.0595298
3438.12 0.0492357
3439.91 0.0446543
3443.51 0.0439763
3447.10 0.0519916
3450.69 0.0752104
3452.49 0.102126
3453.38 0.125643
3454.28 0.164173
3455.18 0.237408
3455.63 0.304326
3456.08 0.418510
3456.53 0.643785
3456.75 0.853236
3456.98 1.20716
3457.20 1.88791
3457.31 2.48827
3457.43 3.44910
3457.54 5.14137
3457.65 8.42771
3457.71 11.3485
3457.76 15.9538
3457.82 23.5506
3457.87 36.2921
3457.94 58.0642
3458.00 72.6176
3458.06 58.0675
3458.13 36.3008
3458.18 24.6386
3458.23 17.4037
3458.27 12.7710
3458.32 9.70726
3458.42 6.11480
3458.52 4.20538
3458.62 3.08430
3458.72 2.37532
3458.91 1.56955
3459.11 1.15198
3459.30 0.912794
3459.70 0.675975
3460.09 0.584805
3460.48 0.563653
3461.26 0.649359
3461.66 0.754637
3462.05 0.916830
3462.44 1.16519
3462.83 1.55642
3463.23 2.20871
3463.62 3.37693
3463.81 4.32333
3464.01 5.68407
3464.21 7.67753
3464.40 10.5884
3464.70 16.9168
3465.00 21.1354
3465.30 16.9093
3465.60 10.5769
3465.85 7.00215
3466.10 4.81421
3466.36 3.45923
3466.61 2.58882
3467.12 1.58947
3467.62 1.07165
3468.13 0.771048
3468.63 0.582679
3469.64 0.368806
3470.65 0.257024
3471.66 0.191487
3473.69 0.121930
3475.71 0.0880408
3477.73 0.0694736
3481.77 0.0524379
3485.81 0.0482835
3489.86 0.0533235
3491.88 0.0611089
3493.90 0.0783551
3494.91 0.0977347
3495.92 0.145029
3496.43 0.205279
3496.93 0.364639
3497.19 0.573341
3497.31 0.771352
3497.44 1.11456
3497.57 1.79699
3497.63 2.41416
3497.69 3.42963
3497.75 5.26903
3497.79 6.82932
3497.82 9.09605
3497.85 12.8089
3497.88 18.9018
3497.91 30.4022
3497.94 52.5420
3497.97 84.0719
3498.00 104.989
3498.03 84.0713
3498.06 52.5425
3498.08 33.5364
3498.11 22.7086
3498.13 15.9340
3498.16 11.8330
3498.21 7.13838
3498.26 4.78924
3498.31 3.41489
3498.36 2.57572
3498.46 1.62031
3498.56 1.12542
3498.66 0.837199
3498.87 0.533062
3499.27 0.303136
3499.67 0.221749
3500.48 0.170174
3501.29 0.162823
3502.91 0.191137
3504.52 0.262358
3505.33 0.321569
3506.14 0.407141
3506.95 0.536043
3507.76 0.740725
3508.57 1.09207
3508.97 1.36785
3509.38 1.75862
3509.78 2.33241
3510.18 3.20791
3510.59 4.59037
3510.99 6.78937
3511.50 10.8576
3512.00 13.5601
3512.51 10.8447
3513.01 6.78476
3513.51 4.19674
3514.01 2.74211
3514.51 1.89818
3515.01 1.38180
3515.51 1.04639
3516.01 0.818777
3517.00 0.539717
3518.00 0.382489
3519.00 0.285722
3521.00 0.178103
3523.00 0.122833
3524.99 0.0908201
3528.99 0.0571818
3532.98 0.0410255
3536.98 0.0326590
3540.97 0.0309832
3542.97 0.0435231
3543.97 0.0979841
3544.22 0.152965
3544.47 0.301873
3544.59 0.497945
3544.72 1.00526
3544.78 1.63759
3544.84 3.10156
3544.87 4.69626
3544.91 7.87097
3544.92 10.8636
3544.94 15.3737
3544.95 23.5515
3544.97 37.3106
3544.98 60.1726
3545.00 74.7018
3545.02 60.1726
3545.03 37.3106
3545.04 26.4418
3545.06 18.8861
3545.08 10.8637
3545.10 6.80569
3545.13 4.69627
3545.17 2.57696
3545.22 1.63744
3545.31 0.827142
3545.41 0.502215
3545.59 0.248598
3545.78 0.153456
3546.52 0.0564015
3548.01 0.0304698
3550.99 0.0236031
3556.95 0.0254026
3559.92 0.0321732
3561.41 0.0394602
3562.90 0.0530483
3564.39 0.0822050
3565.14 0.111062
3565.88 0.162925
3566.62 0.270921
3567.00 0.374868
3567.37 0.557064
3567.74 0.922292
3567.93 1.25880
3568.11 1.82138
3568.30 2.86496
3568.39 3.75506
3568.49 5.12347
3568.58 7.36752
3568.67 11.3618
3568.72 14.6247
3568.76 19.2027
3568.81 26.0383
3568.86 35.7790
3568.93 57.4789
3569.00 71.7098
3569.07 57.1545
3569.14 35.7765
3569.20 23.5606
3569.27 16.1231
3569.33 11.5365
3569.39 8.62954
3569.51 5.25400
3569.63 3.52065
3569.75 2.51000
3569.87 1.88188
3570.11 1.16972
3570.36 0.796617
3570.60 0.579061
3570.84 0.440353
3571.08 0.347263
3571.57 0.233255
3572.05 0.168936
3572.54 0.129137
3573.02 0.102815
3573.99 0.0712672
3574.96 0.0538114
3576.90 0.0362017
3578.84 0.0279953
3580.78 0.0235848
3584.66 0.0194642
3592.42 0.0178890
3600.18 0.0202793
3607.94 0.0274919
3611.82 0.0349316
3615.70 0.0483555
3619.58 0.0761145
3621.52 0.102704
3623.46 0.149086
3624.43 0.186481
3625.40 0.241192
3626.37 0.325780
3627.34 0.466530
3627.83 0.574733
3628.31 0.725922
3628.80 0.945742
3629.28 1.28152
3629.77 1.82729
3630.25 2.78617
3630.50 3.55157
3630.74 4.63150
3630.98 6.19302
3631.22 8.42182
3631.61 13.4707
3632.00 16.8367
3632.39 13.4674
3632.78 8.41914
3633.01 6.22971
3633.25 4.69473
3633.72 2.85098
3634.20 1.88169
3634.67 1.32589
3635.14 0.982336
3635.61 0.756802
3636.56 0.490522
3637.51 0.346217
3638.45 0.260399
3640.34 0.170482
3642.23 0.134045
3644.12 0.138577
3645.07 0.172513
3645.54 0.211146
3646.02 0.283835
3646.49 0.439040
3646.73 0.590379
3646.96 0.855409
3647.20 1.38772
3647.32 1.87679
3647.43 2.69226
3647.55 4.19824
3647.61 5.47656
3647.67 7.43202
3647.73 10.6165
3647.76 13.0456
3647.79 16.2269
3647.82 20.7973
3647.85 27.0730
3647.88 36.4607
3647.91 49.8969
3647.95 79.5713
3648.00 99.7561
3648.02 93.5654
3648.05 79.5689
3648.09 49.8940
3648.14 30.7064
3648.19 19.9180
3648.23 13.7231
3648.28 10.0117
3648.33 7.55399
3648.37 5.89001
3648.47 3.87587
3648.56 2.73252
3648.65 2.03762
3648.84 1.26067
3649.03 0.862486
3649.22 0.631801
3649.59 0.388665
3649.96 0.269658
3650.34 0.202475
3651.09 0.132888
3651.83 0.0990259
3652.58 0.0797573
3654.08 0.0593362
3657.07 0.0429556
3660.06 0.0365637
3666.04 0.0329666
3672.03 0.0351995
3678.01 0.0426074
3683.99 0.0584898
3686.99 0.0726346
3689.98 0.0953485
3692.97 0.139612
3693.72 0.161588
3694.47 0.203043
3694.84 0.248037
3695.21 0.357922
3695.40 0.496815
3695.59 0.855106
3695.68 1.30668
3695.77 2.39043
3695.82 3.63955
3695.87 6.21106
3695.89 8.80862
3695.91 13.1120
3695.94 21.0810
3695.96 36.6946
3695.98 58.5775
3696.00 73.2804
3696.02 58.5785
3696.04 36.6970
3696.06 23.0958
3696.08 15.3268
3696.10 10.5686
3696.12 7.79565
3696.16 4.67592
3696.19 3.15865
3696.27 1.74867
3696.35 1.15010
3696.50 0.666894
3696.66 0.483337
3696.96 0.350916
3697.27 0.310601
3697.89 0.300681
3698.51 0.322051
3699.12 0.359049
3699.74 0.409808
3700.36 0.476919
3700.97 0.565484
3701.59 0.684802
3702.20 0.849399
3702.82 1.08541
3703.44 1.43811
3704.05 1.99717
3704.67 2.94220
3704.98 3.66862
3705.29 4.66608
3705.59 6.05056
3705.90 7.95854
3706.45 12.6789
3707.00 15.8265
3707.55 12.6938
3708.10 7.99375
3708.70 4.76408
3709.31 3.07104
3709.91 2.14939
3710.52 1.61732
3711.73 1.10296
3712.94 0.941896
3714.15 1.00415
3715.36 1.35129
3715.97 1.72381
3716.57 2.35953
3717.18 3.48351
3717.78 5.50237
3718.39 8.68293
3719.00 10.7974
3719.61 8.65294
3720.22 5.44527
3720.78 3.52706
3721.33 2.39291
3721.89 1.70942
3722.44 1.27782
3723.55 0.791446
3724.66 0.541237
3725.77 0.396148
3726.88 0.304627
3729.09 0.199502
3731.31 0.143512
3733.53 0.110894
3735.75 0.0959707
3736.86 0.115438
3737.41 0.215611
3737.55 0.315617
3737.69 0.576410
3737.76 0.908434
3737.83 1.69759
3737.87 2.60098
3737.90 4.41598
3737.92 6.24464
3737.93 9.17559
3737.95 14.4417
3737.97 24.8707
3737.98 39.4054
3738.00 49.6934
3738.02 39.4053
3738.03 24.8704
3738.05 15.3068
3738.06 10.1415
3738.09 5.11530
3738.12 3.04019
3738.16 2.01277
3738.22 1.08040
3738.28 0.685843
3738.40 0.366245
3738.53 0.242604
3739.02 0.112269
3740.02 0.0736054
3742.00 0.0588652
3743.98 0.0608859
3744.97 0.0952110
3745.47 0.231178
3745.59 0.361881
3745.72 0.698112
3745.78 1.10897
3745.84 2.06376
3745.87 3.09420
3745.90 5.11990
3745.94 9.79336
3745.95 14.3429
3745.97 22.1244
3745.98 35.6187
3746.00 44.2073
3746.02 35.6186
3746.03 22.1243
3746.05 15.5645
3746.06 11.3439
3746.08 6.58070
3746.11 4.15312
3746.13 2.88148
3746.18 1.59903
3746.23 1.02769
3746.33 0.530751
3746.42 0.333712
3746.62 0.178699
3746.81 0.120579
3747.59 0.0600416
3749.15 0.0418485
3752.26 0.0338127
3758.49 0.0286614
3764.72 0.0313826
3767.84 0.0471865
3768.62 0.0621252
3769.39 0.102236
3769.78 0.155881
3770.17 0.300410
3770.37 0.490473
3770.56 0.979764
3770.66 1.59140
3770.76 3.02511
3770.81 4.62498
3770.85 7.78417
3770.88 10.8198
3770.90 15.5981
3770.93 23.8133
3770.95 38.3135
3770.98 61.7823
3771.00 76.5972
3771.03 60.7819
3771.05 38.3135
3771.07 25.2110
3771.09 17.2424
3771.11 12.3341
3771.13 9.18437
3771.18 5.60084
3771.22 3.74948
3771.30 2.01211
3771.39 1.25630
3771.55 0.632946
3771.72 0.390105
3772.06 0.203260
3772.39 0.134944
3773.06 0.0866462
3773.73 0.0724398
3775.07 0.0720585
3776.41 0.0913199
3777.75 0.139743
3778.43 0.188340
3779.10 0.274770
3779.77 0.450298
3780.10 0.614199
3780.44 0.891702
3780.60 1.10934
3780.77 1.41628
3780.94 1.87424
3781.11 2.58834
3781.27 3.80101
3781.36 4.74170
3781.44 6.04061
3781.53 7.93786
3781.61 10.7758
3781.69 15.1439
3781.78 21.7878
3781.89 34.8503
3782.00 43.5574
3782.11 34.8477
3782.22 21.7851
3782.34 13.3569
3782.45 8.69195
3782.56 5.98365
3782.67 4.34570
3782.79 3.27782
3782.90 2.56000
3783.12 1.67801
3783.35 1.18306
3783.57 0.879024
3784.02 0.541437
3784.47 0.368511
3784.92 0.268400
3785.37 0.205325
3785.82 0.163043
3786.72 0.111638
3787.62 0.0827489
3789.42 0.0530917
3791.22 0.0389116
3793.02 0.0310268
3796.62 0.0230104
3803.82 0.0173032
3811.02 0.0158912
3818.22 0.0167110
3825.42 0.0213306
3829.02 0.0280928
3830.82 0.0348209
3832.62 0.0470112
3834.42 0.0727230
3836.22 0.143211
3837.12 0.237036
3837.57 0.327292
3838.02 0.485326
3838.47 0.800476
3838.70 1.09088
3838.92 1.57549
3839.15 2.47199
3839.26 3.23856
3839.37 4.40308
3839.49 6.32236
3839.60 9.68624
3839.66 12.3764
3839.71 16.2031
3839.77 21.7403
3839.82 29.7208
3839.91 47.7215
3840.00 59.5699
3840.09 47.5032
3840.18 29.7185
3840.27 18.2287
3840.35 11.8782
3840.44 8.17766
3840.53 5.94300
3840.62 4.48143
3840.71 3.50083
3840.89 2.29354
3841.06 1.61571
3841.24 1.19920
3841.59 0.736651
3841.95 0.499742
3842.30 0.362651
3842.66 0.276342
3843.01 0.218681
3843.72 0.148497
3844.42 0.109263
3845.84 0.0692840
3847.25 0.0505101
3848.67 0.0403761
3851.50 0.0307513
3857.16 0.0260443
3862.82 0.0286991
3868.48 0.0385703
3871.31 0.0489653
3874.14 0.0678481
3876.97 0.107143
3878.39 0.144939
3879.10 0.173040
3879.80 0.211123
3880.51 0.264708
3881.22 0.343226
3881.57 0.397094
3881.93 0.465260
3882.28 0.553236
3882.63 0.669064
3882.99 0.826723
3883.34 1.04807
3883.69 1.37189
3884.05 1.86886
3884.40 2.68763
3884.76 4.15013
3884.93 5.33385
3885.11 7.03632
3885.29 9.53238
3885.46 13.1563
3885.73 21.0457
3886.00 26.3062
3886.27 21.0424
3886.54 13.1534
3886.75 8.97307
3886.96 6.32464
3887.17 4.62725
3887.38 3.50424
3887.79 2.18683
3888.21 1.48606
3888.63 1.07405
3889.05 0.812927
3889.88 0.514697
3890.72 0.358384
3891.56 0.267221
3893.23 0.173421
3894.90 0.135825
3896.57 0.139814
3897.41 0.173400
3897.83 0.211708
3898.24 0.283981
3898.66 0.437929
3898.87 0.587444
3899.08 0.849998
3899.29 1.37360
3899.39 1.85809
3899.50 2.65659
3899.60 4.14188
3899.65 5.38781
3899.71 7.28416
3899.76 10.4274
3899.79 12.7323
3899.81 15.8402
3899.84 20.1280
3899.86 26.1750
3899.89 34.8371
3899.92 47.5274
3899.96 76.1575
3900.00 95.0048
3900.02 89.4679
3900.04 76.1556
3900.08 47.5250
3900.12 32.5482
3900.15 22.8825
3900.18 16.7049
3900.22 12.6276
3900.28 7.85712
3900.35 5.32590
3900.41 3.83979
3900.48 2.89844
3900.61 1.82254
3900.74 1.25627
3900.88 0.922657
3901.14 0.565906
3901.40 0.389157
3901.67 0.288765
3902.20 0.184626
3902.72 0.133924
3903.25 0.105290
3904.31 0.0752129
3905.36 0.0601808
3906.42 0.0513892
3908.53 0.0418962
3910.64 0.0375249
3912.75 0.0369342
3914.86 0.0486035
3915.91 0.100553
3916.18 0.153011
3916.44 0.296045
3916.57 0.484230
3916.70 0.972171
3916.77 1.57503
3916.84 2.99905
3916.87 4.56636
3916.90 7.72525
3916.92 10.7334
3916.93 15.3385
3916.95 23.1267
3916.97 36.7061
3916.98 58.6554
3917.00 73.4089
3917.02 58.6553
3917.03 36.7061
3917.05 21.3233
3917.07 13.0389
3917.09 8.63027
3917.11 6.08401
3917.15 3.46053
3917.19 2.24586
3917.27 1.15053
3917.35 0.706558
3917.51 0.351363
3917.67 0.216534
3917.99 0.115008
3918.31 0.0779424
3919.58 0.0408402
3922.12 0.0310410
3927.20 0.0292220
3937.38 0.0348754
3942.46 0.0430224
3945.00 0.0505653
3947.55 0.0635743
3950.09 0.0899092
3951.36 0.115148
3952.63 0.159762
3953.90 0.251137
3954.54 0.338211
3955.17 0.489091
3955.49 0.610301
3955.81 0.786785
3956.13 1.05781
3956.45 1.50251
3956.60 1.84172
3956.76 2.31112
3956.92 2.98499
3957.08 3.99689
3957.24 5.60272
3957.40 8.32754
3957.56 13.3049
3957.64 17.2729
3957.72 22.7267
3957.86 36.3099
3958.00 45.3512
3958.14 36.3070
3958.28 22.7242
3958.39 15.9260
3958.49 11.4545
3958.59 8.50994
3958.70 6.52005
3958.90 4.13437
3959.11 2.83813
3959.31 2.06524
3959.52 1.57043
3959.93 1.00024
3960.34 0.696545
3960.75 0.517149
3961.58 0.324489
3962.40 0.229204
3963.22 0.175498
3964.87 0.120908
3966.52 0.0958171
3968.16 0.0829171
3971.45 0.0724955
3978.04 0.0739549
3984.62 0.0885752
3991.21 0.115879
3997.79 0.164883
4004.38 0.264017
4007.67 0.362036
4009.31 0.452631
4010.14 0.577322
4010.34 0.668777
4010.55 0.891604
4010.65 1.16507
4010.75 1.82841
4010.81 2.60180
4010.86 4.23075
4010.88 5.86802
4010.91 8.62730
4010.93 14.1490
4010.95 18.8467
4010.96 24.9973
4010.98 40.0677
4011.00 49.4801
4011.02 39.3062
4011.04 25.0029
4011.06 16.4684
4011.08 11.5631
4011.11 6.40706
4011.15 4.11074
4011.18 2.92416
4011.25 1.81221
4011.32 1.33095
4011.46 0.939951
4011.60 0.793538
4011.88 0.695698
4012.16 0.675675
4013.28 0.750118
4015.52 1.14335
4016.64 1.51021
4017.76 2.11745
4018.88 3.20423
4020.00 5.24891
4021.00 8.16939
4022.00 10.1340
4022.84 8.74042
4024.00 5.45489
4025.13 3.52294
4026.25 2.55627
4027.38 2.06774
4028.50 1.81339
4033.00 1.48328
4038.08 1.09661
4043.16 0.701745
4046.56 0.538008
4048.26 0.503262
4049.11 0.566955
4049.32 0.646496
4049.53 0.864090
4049.64 1.14258
4049.74 1.82541
4049.80 2.60909
4049.85 4.27680
4049.88 5.94165
4049.90 8.73170
4049.93 14.2481
4049.94 18.6924
4049.96 25.3115
4049.98 40.0201
4050.00 50.1933
4050.02 40.0190
4050.04 25.3097
4050.07 14.5345
4050.09 9.17175
4050.12 6.26943
4050.14 4.57095
4050.20 2.77496
4050.25 1.93948
4050.35 1.19452
4050.45 0.888782
4050.65 0.641618
4050.85 0.545654
4051.65 0.440065
4053.26 0.407711
4056.48 0.468939
4058.09 0.593695
4058.90 0.711997
4059.70 0.904026
4060.51 1.23509
4061.31 1.85804
4061.72 2.38637
4062.12 3.17545
4062.52 4.39310
4062.92 6.26688
4063.46 9.93378
4064.00 12.3686
4064.54 9.91515
4065.08 6.24754
4065.45 4.47494
4065.82 3.28994
4066.57 1.95073
4067.32 1.28580
4068.06 0.918229
4068.81 0.695305
4069.56 0.550683
4071.05 0.380145
4072.54 0.286538
4074.03 0.229097
4077.02 0.164017
4080.01 0.129226
4082.99 0.109173
4085.98 0.104404
4086.72 0.111613
4087.47 0.137241
4087.84 0.174572
4088.22 0.279211
4088.40 0.419820
4088.59 0.789253
4088.68 1.26199
4088.78 2.40581
4088.82 3.73359
4088.87 6.49005
4088.89 9.30077
4088.92 14.0079
4088.94 22.8699
4088.95 30.5860
4088.96 41.3192
4088.98 66.2352
4089.00 82.4882
4089.02 66.2349
4089.04 41.3190
4089.06 23.9665
4089.08 15.1592
4089.10 10.1057
4089.12 7.26867
4089.17 4.20487
4089.21 2.76218
4089.29 1.45756
4089.38 0.914302
4089.55 0.477745
4089.72 0.311863
4090.06 0.185501
4090.40 0.138805
4091.77 0.0901113
4094.49 0.0739830
4099.95 0.0698546
4102.68 0.0763890
4105.41 0.101001
4106.77 0.136634
4107.45 0.172057
4108.13 0.235843
4108.82 0.368266
4109.16 0.495560
4109.50 0.718083
4109.84 1.16049
4110.01 1.56822
4110.18 2.24201
4110.35 3.48881
4110.44 4.53695
4110.52 6.13148
4110.61 8.70815
4110.69 13.1966
4110.73 16.7899
4110.78 21.7239
4110.82 28.9347
4110.86 38.9310
4110.93 62.3771
4111.00 78.0566
4111.07 62.3749
4111.14 38.9288
4111.19 27.7632
4111.24 20.2604
4111.28 15.2228
4111.33 11.8243
4111.43 7.57904
4111.52 5.25451
4111.62 3.83588
4111.71 2.92930
4111.90 1.87094
4112.09 1.30040
4112.28 0.962181
4112.67 0.595825
4113.05 0.412717
4113.43 0.308902
4114.19 0.201558
4114.95 0.150271
4115.72 0.122197
4117.24 0.0948954
4120.29 0.0800179
4123.34 0.0849477
4126.39 0.107672
4127.91 0.131549
4129.44 0.173862
4130.96 0.258522
4131.73 0.336971
4132.49 0.469093
4133.25 0.719508
4133.63 0.938390
4134.01 1.28484
4134.20 1.53953
4134.39 1.87851
4134.58 2.34745
4134.77 3.01064
4134.97 3.99463
4135.16 5.49891
4135.35 7.91091
4135.54 11.7738
4135.77 18.7944
4136.00 23.4792
4136.23 18.7988
4136.46 11.7855
4136.71 7.04491
4136.96 4.51614
4137.21 3.10315
4137.46 2.26591
4137.71 1.73420
4137.96 1.38217
4138.46 0.965223
4138.96 0.745896
4139.46 0.627493
4140.45 0.553127
4141.45 0.640583
4141.95 0.765247
4142.45 0.987097
4142.95 1.39497
4143.44 2.21092
4143.69 2.94614
4143.94 4.10579
4144.19 6.02252
4144.44 9.23869
4144.72 14.7204
4145.00 18.3524
4145.28 14.6894
4145.56 9.22090
4145.77 6.36884
4145.99 4.53314
4146.20 3.34664
4146.41 2.55933
4146.84 1.62525
4147.26 1.12364
4147.69 0.826357
4148.11 0.636526
4148.96 0.417323
4149.81 0.300248
4150.66 0.230466
4152.36 0.154560
4154.06 0.116174
4155.76 0.0941356
4159.16 0.0714404
4165.96 0.0570595
4172.76 0.0578939
4179.57 0.0687411
4186.37 0.0941577
4189.77 0.117082
4193.17 0.153174
4196.57 0.215464
4198.27 0.273875
4199.12 0.354581
4199.54 0.563211
4199.65 0.752376
4199.76 1.22594
4199.81 1.79719
4199.86 3.10899
4199.89 4.54401
4199.92 7.22514
4199.94 13.5586
4199.96 19.6784
4199.97 30.6881
4199.99 48.9850
4200.00 61.0793
4200.02 48.9863
4200.03 30.6908
4200.05 17.4624
4200.07 11.0448
4200.08 7.38053
4200.10 5.36775
4200.14 3.20033
4200.17 2.17189
4200.24 1.26957
4200.31 0.903152
4200.45 0.610585
4200.59 0.504313
4201.15 0.416489
4202.26 0.455735
4204.49 0.663498
4205.61 0.832761
4206.73 1.07663
4207.84 1.47960
4208.40 1.98166
4208.54 2.31899
4208.68 3.08413
4208.75 3.97228
4208.82 5.97039
4208.85 8.07743
4208.89 12.1296
4208.91 15.7987
4208.92 21.1725
4208.94 29.7278
4208.96 44.1075
4208.98 69.0510
4209.00 86.3190
4209.02 69.0711
4209.04 44.1477
4209.07 25.7681
4209.09 16.4035
4209.12 11.4673
4209.14 8.63561
4209.19 5.74201
4209.24 4.41506
4209.30 3.59234
4209.36 3.14852
4209.48 2.73328
4209.71 2.51536
4210.18 2.62031
4211.12 3.17374
4213.00 3.93105
4214.88 3.14294
4216.76 1.96988
4218.60 1.23030
4220.45 0.812659
4222.29 0.570594
4224.13 0.422843
4227.82 0.265165
4231.51 0.194534
4235.19 0.171002
4237.04 0.176803
4238.88 0.201850
4240.72 0.266517
4241.65 0.330937
4242.57 0.441282
4243.49 0.648340
4243.95 0.824961
4244.41 1.09457
4244.64 1.28624
4244.87 1.53351
4245.10 1.86170
4245.33 2.30294
4245.56 2.91522
4245.79 3.77601
4246.02 5.00913
4246.25 6.76631
4246.44 8.64537
4246.63 10.7919
4247.00 13.4629
4247.19 12.6718
4247.37 10.7760
4247.75 6.75992
4248.09 4.33975
4248.43 2.91851
4248.78 2.06777
4249.12 1.53326
4249.81 0.937168
4250.49 0.634596
4251.18 0.461600
4251.86 0.353776
4253.23 0.232021
4254.61 0.168132
4255.98 0.130283
4258.72 0.0889644
4261.46 0.0676177
4264.21 0.0548867
4269.69 0.0407207
4280.67 0.0290719
4291.64 0.0258390
4302.61 0.0284552
4308.10 0.0331911
4313.59 0.0427666
4319.07 0.0634575
4321.82 0.0833688
4324.56 0.117747
4327.30 0.184358
4328.67 0.243777
4330.04 0.339382
4331.42 0.507215
4332.10 0.642465
4332.79 0.838684
4333.47 1.13711
4334.16 1.61391
4334.85 2.41483
4335.53 3.78556
4336.27 6.03399
4337.00 7.53504
4337.74 6.06111
4338.47 3.85125
4339.32 2.32380
4340.17 1.69678
4340.60 1.69393
4341.02 2.13921
4341.23 2.82943
4341.34 3.46760
4341.45 4.50350
4341.55 6.33106
4341.66 9.83101
4341.71 12.8791
4341.77 17.5758
4341.82 25.0810
4341.85 30.5470
4341.87 37.2407
4341.90 47.6883
4341.94 59.3234
4342.00 73.7933
4342.03 69.5332
4342.06 59.2934
4342.13 37.1822
4342.18 24.6446
4342.24 17.0352
4342.30 12.2690
4342.35 9.26885
4342.46 5.81767
4342.57 4.03054
4342.68 2.99385
4342.79 2.33990
4343.02 1.59199
4343.24 1.18890
4343.46 0.944426
4343.90 0.668518
4344.35 0.517615
4344.79 0.422569
4345.68 0.307937
4347.45 0.195203
4349.22 0.138935
4350.99 0.105530
4352.77 0.0837627
4356.31 0.0578151
4359.86 0.0434777
4363.41 0.0347812
4370.50 0.0255719
4377.59 0.0220249
4384.68 0.0231072
4388.23 0.0271421
4390.00 0.0314758
4391.77 0.0394510
4393.55 0.0563070
4394.43 0.0728496
4395.32 0.102504
4396.21 0.164357
4396.65 0.224239
4397.09 0.330084
4397.54 0.544596
4397.76 0.746461
4397.98 1.08869
4398.20 1.74530
4398.31 2.32364
4398.42 3.23242
4398.53 4.80554
4398.59 6.05979
4398.64 7.81280
4398.70 10.4504
4398.75 14.4337
4398.81 20.7624
4398.86 31.1191
4398.93 49.6424
4399.00 62.2105
4399.07 49.6408
4399.14 31.1176
4399.18 23.0806
4399.22 17.5103
4399.30 10.7441
4399.38 7.13292
4399.46 5.04031
4399.54 3.73684
4399.62 2.87597
4399.78 1.85148
4399.94 1.28859
4400.10 0.951327
4400.42 0.582729
4400.74 0.396382
4401.06 0.290097
4401.70 0.179633
4402.34 0.126685
4402.98 0.0977241
4404.26 0.0697023
4405.54 0.0585739
4406.82 0.0550350
4409.39 0.0613210
4411.95 0.0878395
4413.23 0.116231
4414.51 0.167854
4415.79 0.274204
4416.43 0.374991
4417.07 0.547538
4417.71 0.880504
4418.03 1.17552
4418.35 1.64787
4418.67 2.47249
4418.83 3.12912
4418.99 4.07404
4419.15 5.49014
4419.31 7.71033
4419.47 11.3438
4419.63 17.3753
4419.82 27.7795
4420.00 34.7088
4420.18 27.7767
4420.37 17.3725
4420.52 11.6064
4420.67 8.05015
4420.82 5.81801
4420.97 4.36483
4421.27 2.68752
4421.57 1.80897
4421.87 1.29610
4422.17 0.974379
4422.77 0.608635
4423.37 0.416937
4423.97 0.304714
4425.17 0.185488
4426.37 0.127522
4427.57 0.0973203
4428.17 0.0901969
4428.77 0.0931863
4429.37 0.148110
4429.67 0.367815
4429.75 0.572915
4429.82 1.07983
4429.86 1.67982
4429.90 2.94486
4429.93 6.56184
4429.95 11.2036
4429.97 21.0113
4429.99 33.7454
4430.00 42.0058
4430.01 33.7452
4430.03 21.0109
4430.04 12.7180
4430.06 8.11053
4430.09 4.06326
4430.12 2.40827
4430.15 1.59224
4430.20 0.845845
4430.26 0.537655
4430.50 0.189271
4430.96 0.0855765
4431.90 0.0529386
4433.76 0.0378985
4437.50 0.0277942
4441.23 0.0266836
4443.10 0.0386341
4444.04 0.0885065
4444.50 0.274193
4444.62 0.452586
4444.74 0.907186
4444.79 1.47474
4444.85 2.77985
4444.88 4.19163
4444.91 6.97822
4444.94 13.4700
4444.95 20.4598
4444.97 32.4620
4444.98 51.4112
4445.00 64.9422
4445.02 51.4112
4445.03 32.4621
4445.05 18.7330
4445.07 11.8673
4445.08 7.88310
4445.10 5.67000
4445.14 3.26292
4445.17 2.10982
4445.24 1.08948
4445.31 0.666694
4445.45 0.329406
4445.59 0.201364
4446.15 0.0683775
4447.27 0.0329317
4449.50 0.0246196
4451.73 0.0249210
4453.97 0.0283521
4456.20 0.0366058
4457.32 0.0447329
4458.43 0.0591707
4459.55 0.0890690
4460.11 0.118131
4460.67 0.169877
4461.23 0.277153
4461.78 0.561373
4462.06 0.924471
4462.20 1.26282
4462.34 1.82771
4462.48 2.89351
4462.55 3.81369
4462.62 5.22032
4462.69 7.59176
4462.76 11.9157
4462.80 15.4875
4462.83 20.7229
4462.87 28.5765
4462.90 39.9787
4462.95 63.9043
4463.00 79.8886
4463.05 63.9031
4463.10 39.9378
4463.16 23.0599
4463.21 14.3293
4463.27 9.59077
4463.33 6.81406
4463.39 5.07122
4463.44 3.91388
4463.56 2.53790
4463.67 1.77318
4463.78 1.31352
4464.01 0.806580
4464.24 0.550107
4464.46 0.403030
4464.92 0.250138
4465.37 0.176970
4465.83 0.137194
4466.73 0.0993657
4467.64 0.0852855
4468.55 0.0821504
4470.37 0.0963878
4471.28 0.114481
4472.19 0.144053
4473.09 0.193390
4474.00 0.281246
4474.91 0.457911
4475.37 0.620728
4475.82 0.892103
4476.27 1.39416
4476.50 1.81909
4476.73 2.46812
4476.96 3.52266
4477.18 5.37397
4477.30 6.85445
4477.41 8.93153
4477.52 11.9455
4477.64 16.2205
4477.82 25.9283
4478.00 32.3919
4478.18 25.9256
4478.36 16.2176
4478.53 10.4035
4478.70 6.97642
4478.86 4.91937
4479.03 3.62463
4479.36 2.17910
4479.69 1.44543
4480.02 1.02668
4480.36 0.766503
4481.02 0.474507
4481.68 0.323431
4482.35 0.235407
4483.01 0.179700
4483.68 0.142238
4485.00 0.0965520
4486.33 0.0708153
4488.99 0.0444013
4491.64 0.0318740
4494.30 0.0250671
4499.61 0.0187860
4504.92 0.0174087
4507.58 0.0183781
4510.24 0.0212662
4512.89 0.0284957
4514.22 0.0360166
4515.55 0.0498911
4516.88 0.0794656
4517.54 0.108600
4518.20 0.160872
4518.87 0.269099
4519.20 0.372932
4519.53 0.554106
4519.86 0.913287
4520.03 1.24211
4520.20 1.78691
4520.36 2.78372
4520.45 3.62180
4520.53 4.89142
4520.61 6.93098
4520.69 10.4529
4520.74 13.2488
4520.78 17.0548
4520.82 22.4104
4520.86 30.0284
4520.93 48.0847
4521.00 60.0265
4521.07 48.0831
4521.14 30.0267
4521.22 17.8427
4521.29 11.2847
4521.37 7.63937
4521.44 5.49054
4521.52 4.10432
4521.59 3.18683
4521.75 2.06907
4521.90 1.44548
4522.05 1.06825
4522.35 0.652027
4522.65 0.439579
4522.96 0.317584
4523.26 0.240732
4523.56 0.189535
4524.17 0.127387
4524.77 0.0926191
4525.38 0.0712317
4525.98 0.0571502
4527.19 0.0403605
4528.40 0.0311335
4530.82 0.0219384
4533.24 0.0177941
4535.66 0.0157370
4540.50 0.0144913
4545.34 0.0157917
4547.76 0.0177589
4550.18 0.0215802
4552.60 0.0298336
4553.81 0.0380031
4555.02 0.0527630
4556.23 0.0837854
4556.84 0.114120
4557.44 0.168277
4558.05 0.279769
4558.35 0.386402
4558.65 0.570836
4558.95 0.934778
4559.10 1.26408
4559.26 1.80416
4559.33 2.21655
4559.41 2.78629
4559.48 3.60243
4559.56 4.80444
4559.63 6.72249
4559.71 9.89706
4559.75 12.3447
4559.79 15.6829
4559.82 20.2775
4559.86 26.4360
4559.93 42.2495
4560.00 52.8753
4560.07 42.2480
4560.14 26.4346
4560.22 15.3781
4560.30 9.57253
4560.38 6.41247
4560.46 4.55739
4560.53 3.39164
4560.61 2.61688
4560.77 1.68913
4560.93 1.17878
4561.09 0.869442
4561.40 0.530974
4561.72 0.358958
4562.03 0.260447
4562.35 0.198539
4562.66 0.157374
4563.30 0.107547
4563.93 0.0797976
4565.19 0.0517350
4566.45 0.0387193
4567.71 0.0318155
4570.24 0.0255855
4575.29 0.0237796
4580.33 0.0280797
4585.38 0.0393166
4587.91 0.0501484
4590.43 0.0687458
4592.95 0.105241
4594.22 0.138947
4595.48 0.196338
4596.74 0.308017
4597.37 0.409545
4598.00 0.577892
4598.32 0.707557
4598.63 0.888522
4598.95 1.15358
4599.26 1.56006
4599.58 2.23058
4599.74 2.73768
4599.90 3.42663
4600.05 4.40017
4600.21 5.80519
4600.37 7.87425
4600.53 10.8907
4600.76 17.3906
4601.00 21.7265
4601.24 17.3945
4601.47 10.9008
4601.63 7.90457
4601.79 5.85629
4602.10 3.49581
4602.41 2.30051
4602.72 1.63354
4603.03 1.22953
4603.34 0.971227
4603.96 0.677796
4604.59 0.532715
4605.21 0.461922
4606.45 0.444421
4607.70 0.569579
4608.32 0.715439
4608.94 0.969999
4609.57 1.44494
4609.88 1.84326
4610.19 2.44196
4610.50 3.39026
4610.81 4.99140
4610.97 6.22137
4611.12 7.89146
4611.28 10.2107
4611.43 13.3649
4611.72 21.3622
4612.00 26.6655
4612.28 21.3249
4612.57 13.3535
4612.76 9.49709
4612.96 6.91537
4613.16 5.18816
4613.35 4.01081
4613.75 2.57135
4614.14 1.77992
4614.54 1.30194
4614.93 0.994319
4615.72 0.635556
4616.50 0.443056
4617.29 0.328014
4618.86 0.203069
4620.44 0.140070
4622.01 0.103808
4625.16 0.0656939
4628.31 0.0471141
4631.46 0.0367762
4637.75 0.0267471
4644.05 0.0232016
4650.34 0.0236151
4653.49 0.0258419
4656.64 0.0318279
4658.21 0.0393433
4659.00 0.0464722
4659.79 0.0590832
4660.57 0.0852655
4661.36 0.156560
4661.75 0.251812
4662.15 0.505229
4662.34 0.831544
4662.54 1.64332
4662.64 2.61413
4662.74 4.75097
4662.79 6.93392
4662.83 10.9487
4662.86 14.3784
4662.88 19.2483
4662.91 26.9608
4662.93 38.5095
4662.95 49.0208
4662.97 61.4124
4663.00 76.9837
4663.02 72.3941
4663.03 61.4118
4663.07 38.5088
4663.09 26.5831
4663.12 18.7634
4663.15 13.7365
4663.17 10.4042
4663.22 6.48836
4663.27 4.43226
4663.33 3.19267
4663.38 2.41938
4663.48 1.52136
4663.58 1.04706
4663.69 0.767138
4663.89 0.467610
4664.10 0.318921
4664.31 0.235323
4664.72 0.149325
4665.13 0.108407
4665.54 0.0860855
4666.37 0.0642157
4668.02 0.0506256
4669.67 0.0488550
4672.97 0.0569509
4676.26 0.0772379
4679.56 0.119589
4681.21 0.158475
4682.86 0.222401
4684.51 0.337779
4685.34 0.433275
4686.16 0.575429
4686.99 0.798967
4687.81 1.17284
4688.64 1.84178
4689.05 2.36822
4689.46 3.08255
4690.23 4.92159
4691.00 6.14476
4691.77 4.91957
4692.54 3.08064
4693.14 2.10596
4693.74 1.48498
4694.34 1.08724
4694.94 0.824621
4696.14 0.516198
4697.34 0.352410
4698.54 0.256096
4699.74 0.195146
4702.14 0.125592
4704.53 0.0891891
4706.93 0.0680187
4711.73 0.0463248
4716.53 0.0373940
4721.33 0.0361767
4723.72 0.0397174
4726.12 0.0517232
4727.32 0.0683270
4727.92 0.0846075
4728.52 0.113774
4729.12 0.174746
4729.72 0.338962
4730.02 0.553863
4730.32 1.10767
4730.47 1.78742
4730.55 2.39569
4730.62 3.37899
4730.70 5.11288
4730.73 6.53865
4730.77 8.56335
4730.81 11.7382
4730.85 16.7001
4730.88 25.0214
4730.92 39.3079
4730.96 62.8163
4731.00 78.5307
4731.04 62.8155
4731.08 39.2581
4731.12 25.6120
4731.15 17.5829
4731.18 12.6163
4731.22 9.41707
4731.29 5.76209
4731.35 3.86576
4731.42 2.75567
4731.49 2.07152
4731.63 1.29608
4731.76 0.889037
4731.90 0.652772
4732.17 0.401619
4732.44 0.277922
4732.72 0.208506
4733.26 0.138041
4733.81 0.105288
4734.35 0.0881187
4735.44 0.0732996
4737.62 0.0725051
4739.81 0.0916556
4741.99 0.139709
4743.08 0.187456
4744.17 0.271393
4745.26 0.438406
4745.80 0.591101
4746.35 0.843609
4746.62 1.03683
4746.89 1.30520
4747.17 1.69225
4747.44 2.27432
4747.71 3.20817
4747.98 4.80304
4748.12 6.05234
4748.26 7.77220
4748.39 10.1831
4748.53 13.5398
4748.77 21.6604
4749.00 27.0373
4749.24 21.6210
4749.47 13.5371
4749.73 8.04409
4749.98 5.10054
4750.23 3.46058
4750.49 2.48214
4750.74 1.86018
4751.00 1.44334
4751.50 0.940675
4752.01 0.661181
4752.52 0.490854
4753.53 0.303258
4754.55 0.207715
4755.56 0.152712
4757.59 0.0950951
4759.63 0.0671623
4761.66 0.0516198
4765.72 0.0360414
4769.78 0.0291767
4773.84 0.0263327
4777.90 0.0282000
4779.93 0.0416293
4780.95 0.0943457
4781.45 0.287925
4781.58 0.471371
4781.71 0.938296
4781.77 1.50835
4781.84 2.79071
4781.87 4.16941
4781.90 6.71666
4781.93 12.5143
4781.95 18.1844
4781.96 27.3350
4781.98 43.7392
4782.00 54.5870
4782.02 43.7391
4782.04 27.3350
4782.05 19.1102
4782.07 13.9988
4782.09 8.17641
4782.12 5.26474
4782.14 3.64702
4782.20 2.01391
4782.25 1.28379
4782.35 0.652639
4782.46 0.398771
4782.67 0.200262
4782.88 0.125726
4783.72 0.0498548
4785.40 0.0300028
4788.76 0.0255188
4795.47 0.0269242
4802.19 0.0316523
4808.91 0.0401115
4815.63 0.0555011
4822.35 0.0874927
4825.71 0.119256
4827.39 0.144232
4829.06 0.181163
4830.74 0.242697
4831.58 0.293092
4832.42 0.372176
4833.26 0.516547
4833.68 0.644237
4834.10 0.855489
4834.52 1.25327
4834.73 1.60391
4834.94 2.16694
4835.15 3.15665
4835.36 5.12926
4835.47 6.92329
4835.57 9.82308
4835.68 14.7721
4835.78 23.3205
4835.89 37.1432
4836.00 46.3713
4836.11 37.1552
4836.22 23.3464
4836.28 18.0224
4836.33 14.1554
4836.39 11.3127
4836.45 9.20655
4836.56 6.41478
4836.68 4.73605
4836.79 3.65705
4836.90 2.94073
4837.02 2.44021
4837.13 2.07885
4837.36 1.60650
4837.59 1.32869
4838.05 1.04615
4838.96 0.905451
4839.87 0.979788
4840.79 1.18484
4841.70 1.53641
4842.62 2.09997
4843.53 2.97961
4844.77 4.72236
4846.00 5.88294
4847.24 4.70971
4848.47 2.95527
4849.88 1.72113
4851.28 1.08205
4852.68 0.734683
4854.09 0.531455
4855.49 0.404184
4856.90 0.320228
4859.71 0.221406
4862.51 0.169606
4865.32 0.141368
4870.94 0.122234
4876.56 0.138464
4879.37 0.163191
4882.18 0.207108
4884.98 0.286205
4887.79 0.439185
4889.20 0.571178
4890.60 0.771705
4892.01 1.08606
4893.41 1.58118
4895.21 2.51368
4897.00 3.13389
4898.80 2.51014
4900.59 1.57662
4902.68 0.908758
4904.78 0.570420
4906.87 0.401496
4907.92 0.396667
4908.18 0.438879
4908.44 0.575040
4908.57 0.763282
4908.70 1.25591
4908.77 1.86813
4908.83 3.27176
4908.87 4.81040
4908.90 7.72371
4908.92 10.4878
4908.93 14.6133
4908.95 21.3637
4908.96 32.9435
4908.98 52.9254
4909.00 65.6908
4909.02 52.9239
4909.04 32.9406
4909.05 23.6620
4909.06 17.5565
4909.09 10.4812
4909.11 6.77570
4909.13 4.80001
4909.18 2.77720
4909.23 1.86347
4909.33 1.06431
4909.43 0.738658
4909.62 0.478828
4909.81 0.376966
4910.20 0.293302
4910.59 0.256077
4912.14 0.192954
4915.25 0.137015
4918.35 0.106192
4921.46 0.0875696
4924.57 0.0774028
4927.67 0.0777533
4929.22 0.0876821
4930.00 0.0995315
4930.78 0.122339
4931.55 0.171939
4931.94 0.220797
4932.33 0.307845
4932.72 0.485232
4933.11 0.936935
4933.30 1.48166
4933.40 1.96144
4933.49 2.72405
4933.59 4.03586
4933.69 6.54674
4933.74 8.75576
4933.79 12.0890
4933.83 17.5360
4933.88 26.3640
4933.94 42.0251
4934.00 52.6819
4934.03 49.4393
4934.06 42.0239
4934.12 26.3626
4934.18 15.6977
4934.24 10.0322
4934.30 6.84721
4934.37 4.93430
4934.43 3.69651
4934.49 2.87950
4934.62 1.88831
4934.74 1.33259
4934.86 0.996089
4935.11 0.622720
4935.36 0.432446
4935.61 0.322617
4936.11 0.207421
4936.61 0.151096
4937.10 0.119397
4938.10 0.0867150
4940.09 0.0619628
4942.08 0.0526757
4946.06 0.0459389
4950.04 0.0446231
4958.01 0.0503746
4961.99 0.0593822
4963.98 0.0728311
4964.97 0.108572
4965.47 0.232395
4965.72 0.657757
4965.78 1.03657
4965.85 1.93368
4965.88 2.92523
4965.91 4.93744
4965.94 9.86444
4965.95 15.4674
4965.97 25.7540
4965.99 41.2281
4966.00 51.4564
4966.02 41.2283
4966.03 25.7543
4966.04 17.4985
4966.05 12.5948
4966.08 7.19321
4966.10 4.49568
4966.12 3.10842
4966.17 1.72257
4966.21 1.10254
4966.30 0.580846
4966.39 0.373440
4966.75 0.153312
4967.47 0.0952614
4968.91 0.0860927
4971.79 0.100556
4974.66 0.128335
4977.54 0.174608
4978.98 0.209488
4980.42 0.257149
4981.86 0.324386
4983.30 0.422915
4984.73 0.574408
4986.17 0.820204
4987.61 1.24180
4988.33 1.56150
4989.05 1.98334
4990.53 3.16219
4992.00 3.94808
4993.48 3.16312
4994.95 1.98789
4996.08 1.37697
4997.20 0.986055
4998.33 0.735747
4999.46 0.572058
5001.71 0.397042
5002.84 0.401861
5003.12 0.450531
5003.40 0.601801
5003.54 0.809240
5003.68 1.35346
5003.75 2.03423
5003.82 3.61597
5003.86 5.34089
5003.89 8.77656
5003.91 12.0008
5003.93 16.8938
5003.95 25.6846
5003.96 40.0363
5003.98 64.5740
5004.00 79.7899
5004.02 63.1978
5004.04 40.0342
5004.05 29.1518
5004.06 21.6643
5004.09 12.9450
5004.11 8.49393
5004.13 6.07045
5004.18 3.50071
5004.23 2.33396
5004.32 1.31009
5004.42 0.892786
5004.61 0.561762
5004.80 0.434906
5005.18 0.335259
5005.55 0.295754
5007.07 0.250747
5008.59 0.253371
5010.11 0.289841
5011.62 0.385370
5012.38 0.478205
5013.14 0.632243
5013.90 0.907805
5014.66 1.45652
5015.04 1.95071
5015.41 2.73845
5015.79 4.05508
5016.17 6.29665
5016.59 10.0354
5017.00 12.5276
5017.41 10.0297
5017.83 6.28741
5018.25 3.84278
5018.68 2.49655
5019.10 1.72696
5019.53 1.26106
5019.95 0.960357
5020.38 0.757244
5021.22 0.508924
5022.07 0.369003
5022.92 0.282675
5024.62 0.185619
5026.32 0.134762
5028.01 0.104526
5031.41 0.0712742
5034.80 0.0539166
5038.20 0.0435049
5044.98 0.0319511
5051.77 0.0260396
5058.56 0.0228172
5072.14 0.0207690
5085.72 0.0234458
5092.51 0.0274165
5099.29 0.0349934
5106.08 0.0507512
5109.48 0.0656788
5112.87 0.0913568
5116.27 0.141445
5117.96 0.186675
5119.66 0.260742
5120.51 0.316889
5121.36 0.394221
5122.21 0.504927
5123.06 0.670169
5123.90 0.931130
5124.75 1.36985
5125.18 1.70582
5125.60 2.16342
5126.03 2.79392
5126.45 3.65590
5127.23 5.83844
5128.00 7.28991
5128.78 5.83405
5129.55 3.65546
5130.27 2.34070
5130.98 1.57088
5131.70 1.11133
5132.41 0.823351
5133.84 0.503499
5135.27 0.342440
5136.70 0.251283
5138.13 0.195387
5140.99 0.134592
5143.85 0.105724
5146.71 0.0919038
5152.43 0.0879010
5158.15 0.108083
5161.00 0.130366
5163.86 0.166618
5166.72 0.227210
5169.58 0.334470
5171.01 0.419721
5172.44 0.539791
5173.87 0.711486
5175.30 0.955174
5177.65 1.51921
5180.00 1.89453
5182.35 1.51688
5184.70 0.952342
5186.24 0.693187
5187.78 0.515629
5190.85 0.310020
5193.93 0.205933
5197.00 0.148081
5200.08 0.113539
5203.16 0.0920047
5209.31 0.0705990
5215.46 0.0686237
5218.54 0.0761783
5221.61 0.0943431
5224.69 0.135658
5226.23 0.175664
5227.76 0.244122
5229.30 0.373802
5230.07 0.486220
5230.84 0.661558
5231.61 0.954640
5232.38 1.49081
5232.76 1.93584
5233.15 2.58849
5233.53 3.57438
5233.92 5.05599
5234.46 8.07566
5235.00 10.0869
5235.54 8.07299
5236.08 5.05285
5236.68 2.97544
5237.28 1.87807
5237.87 1.27129
5238.47 0.912159
5239.07 0.684453
5239.66 0.532544
5240.86 0.349488
5242.05 0.248018
5243.24 0.186178
5245.63 0.117903
5248.01 0.0829601
5250.40 0.0626710
5255.17 0.0411199
5259.94 0.0304582
5264.71 0.0244453
5274.25 0.0186752
5283.79 0.0175144
5288.56 0.0187123
5293.33 0.0220853
5298.11 0.0303994
5300.49 0.0389441
5302.88 0.0544601
5305.26 0.0866818
5306.46 0.117485
5307.65 0.170820
5308.84 0.275356
5309.44 0.369666
5310.03 0.523522
5310.63 0.799136
5310.93 1.02508
5311.23 1.35924
5311.52 1.87864
5311.82 2.73465
5311.97 3.37544
5312.12 4.23476
5312.27 5.39508
5312.42 6.94832
5312.71 11.1221
5313.00 13.8920
5313.29 11.1053
5313.58 6.94677
5313.82 4.63675
5314.07 3.20684
5314.31 2.31299
5314.55 1.73487
5315.03 1.06746
5315.51 0.718662
5315.99 0.515525
5316.47 0.388022
5317.43 0.243196
5318.40 0.167359
5319.36 0.122914
5321.28 0.0755518
5323.21 0.0521958
5325.13 0.0389873
5328.98 0.0253662
5332.83 0.0188481
5336.68 0.0152477
5344.38 0.0116967
5359.78 0.00973956
5375.18 0.0106088
5390.58 0.0144615
5398.28 0.0186188
5405.98 0.0261198
5413.68 0.0412495
5417.53 0.0551945
5421.38 0.0783733
5425.23 0.120899
5427.16 0.156725
5429.08 0.211092
5431.01 0.298626
5432.93 0.450264
5433.89 0.569404
5434.86 0.735870
5435.82 0.971848
5436.78 1.30433
5438.39 2.08395
5440.00 2.60243
5441.61 2.08235
5443.22 1.30277
5445.08 0.747351
5446.95 0.462665
5448.81 0.309062
5450.67 0.219505
5452.53 0.163444
5454.40 0.126329
5458.12 0.0820434
5461.84 0.0577941
5465.57 0.0431945
5473.02 0.0275019
5480.47 0.0203412
5487.92 0.0185732
5491.64 0.0210252
5493.50 0.0244021
5495.37 0.0311802
5497.23 0.0463041
5498.16 0.0614690
5499.09 0.0889085
5499.56 0.111768
5500.02 0.146097
5500.49 0.201280
5500.95 0.297710
5501.42 0.490302
5501.88 0.961734
5502.12 1.50639
5502.23 1.97100
5502.35 2.67540
5502.47 3.83225
5502.52 4.69032
5502.58 5.85080
5502.64 7.45761
5502.70 9.73346
5502.76 13.0095
5502.81 17.7041
5502.86 22.7290
5502.91 28.3521
5503.00 35.4620
5503.00 0.779895
5600.00 0.770079
6000.00 0.729598
6500.00 0.686255
7000.00 0.648670
7500.00 0.615718
8000.00 0.586551
8219.68 0.575115
8500.00 0.560523
9000.00 0.537127
9500.00 0.515963
10000.0 0.496710
11000.0 0.462938
12000.0 0.434225
12064.8 0.432621
13000.0 0.409466
14000.0 0.387861
15000.0 0.368822
16000.0 0.351901
17000.0 0.336753
17708.8 0.327079
18000.0 0.323105
19000.0 0.310741
20000.0 0.299485
21000.0 0.289192
22000.0 0.279743
23000.0 0.271039
24000.0 0.262996
25000.0 0.255540
25992.9 0.248661
26000.0 0.248612
27000.0 0.242159
28000.0 0.236133
29000.0 0.230496
30000.0 0.225212
31000.0 0.220250
32000.0 0.215583
33000.0 0.211186
34000.0 0.207038
35000.0 0.203119
36000.0 0.199411
37000.0 0.195899
38000.0 0.192569
38152.4 0.192087
39000.0 0.189406
40000.0 0.186401
41000.0 0.183541
42000.0 0.180818
43000.0 0.178222
44000.0 0.175744
45000.0 0.173378
46000.0 0.171117
47000.0 0.168953
48000.0 0.166881
49000.0 0.164896
50000.0 0.162993
56000.0 0.153724
60000.0 0.147545
70000.0 0.136627
80000.0 0.128459
82196.8 0.127050
90000.0 0.122047
100000 0.116808
110000 0.112388
120000 0.108562
120648 0.108344
130000 0.105186
140000 0.102160
150000 0.0994191
153073 0.0986682
170000 0.0945322
177088 0.0931239
200000 0.0885714
210838 0.0868332
225000 0.0845620
225000 0.0845333
250000 0.0779943
259929 0.0761061
300000 0.0684858
381524 0.0600993
400000 0.0581986
440000 0.0576523
453176 0.0574723
495000 0.0569011
495000 0.0569011
500000 0.0568328
506168 0.0568566
600000 0.0572189
646894 0.0580884
700000 0.0590731
747257 0.0594139
747257 0.0594139
771628 0.0595896
800000 0.0597942
880088 0.0617834
898558 0.0622421
900000 0.0622779
945960 0.0638593
1.00000E+06 0.0657187
1.00748E+06 0.0660269
1.09751E+06 0.0697359
1.10000E+06 0.0698385
1.17453E+06 0.0733383
1.20000E+06 0.0745343
1.23671E+06 0.0725673
1.23671E+06 0.0725672
1.30000E+06 0.0691759
1.31504E+06 0.0692205
1.31504E+06 0.0692205
1.40000E+06 0.0694725
1.41701E+06 0.0682900
1.41701E+06 0.0682898
1.44133E+06 0.0665992
1.44133E+06 0.0665990
1.50000E+06 0.0625205
1.51663E+06 0.0613933
1.56650E+06 0.0580131
1.56742E+06 0.0579510
1.56742E+06 0.0579508
1.60000E+06 0.0557425
1.61969E+06 0.0553261
1.61969E+06 0.0553260
1.70000E+06 0.0536278
1.75149E+06 0.0525390
1.75149E+06 0.0525389
1.78736E+06 0.0517804
1.78736E+06 0.0517803
1.80000E+06 0.0515130
1.81218E+06 0.0512201
1.81218E+06 0.0512201
1.86457E+06 0.0499604
1.86457E+06 0.0499604
1.86560E+06 0.0499357
1.86560E+06 0.0499357
1.90000E+06 0.0491085
1.92429E+06 0.0485793
1.92429E+06 0.0485793
1.97988E+06 0.0473681
1.97988E+06 0.0473680
2.00000E+06 0.0469297
2.50000E+06 0.0360354
3.00000E+06 0.0221146
3.50000E+06 0.0132027
4.00000E+06 0.00806048
5.00000E+06 0.00313349
6.00000E+06 0.00144588
6.16622E+06 0.00134652
6.16622E+06 0.00134652
6.98294E+06 0.000858317
7.00000E+06 0.000848119
7.55696E+06 0.000763695
8.00000E+06 0.000696539
9.00000E+06 0.000769001
1.00000E+07 0.000832348
1.10000E+07 0.000868616
1.20000E+07 0.000919088
1.30000E+07 0.000939230
1.34402E+07 0.000910875
1.40000E+07 0.000874817
1.45000E+07 0.000805669
1.50000E+07 0.000750300
1.60000E+07 0.000592461
1.60636E+07 0.000582325
1.60636E+07 0.000582324
1.70000E+07 0.000433044
1.80000E+07 0.000319079
1.90000E+07 0.000240726
2.00000E+07 0.000180456