Nd-145(n,g) ENDF/B-VII.1
Energy(eV) XS(b)
1.00000E-05 2113.82
1.25000E-05 1890.66
1.50000E-05 1725.93
1.77828E-05 1585.14
2.00000E-05 1494.70
2.75000E-05 1274.68
3.16228E-05 1188.69
3.50000E-05 1129.89
4.25000E-05 1025.35
5.00000E-05 945.330
5.62341E-05 891.391
7.50000E-05 771.858
0.000100000 668.448
0.000125000 597.877
0.000150000 545.785
0.000177828 501.264
0.000200000 472.663
0.000275000 403.087
0.000316228 375.893
0.000350000 357.298
0.000425000 324.242
0.000500000 298.935
0.000562341 281.878
0.000750000 244.078
0.00100000 211.376
0.00125000 189.059
0.00150000 172.585
0.00177828 158.506
0.00200000 149.461
0.00275000 127.457
0.00316228 118.857
0.00350000 112.976
0.00425000 102.522
0.00500000 94.5181
0.00562341 89.1234
0.00750000 77.1676
0.0100000 66.8239
0.0125000 59.7644
0.0150000 54.5529
0.0177828 50.0987
0.0200000 47.2369
0.0253000 41.9918
0.0316228 37.5526
0.0376500 34.4095
0.0500000 29.8479
0.0562341 28.1396
0.0750000 24.3526
0.100000 21.0748
0.125000 18.8368
0.150000 17.1840
0.177828 15.7708
0.200000 14.8627
0.275000 12.6529
0.316228 11.7891
0.350000 11.1986
0.425000 10.1496
0.500000 9.34795
0.562341 8.80893
0.750000 7.62249
0.999999 6.61774
1.00000 6.61774
1.00000 6.61774
1.00001 6.61773
1.00001 6.61772
1.00001 6.61770
1.00003 6.61766
1.00005 6.61757
1.00011 6.61741
1.00021 6.61708
1.00042 6.61642
1.00083 6.61511
1.00165 6.61248
1.00331 6.60724
1.00661 6.59681
1.01322 6.57611
1.02644 6.53538
1.05288 6.45656
1.10577 6.30870
1.21153 6.04761
1.21153 6.04761
1.21154 6.04759
1.21155 6.04757
1.21156 6.04753
1.21159 6.04746
1.21166 6.04732
1.21178 6.04704
1.21203 6.04647
1.21253 6.04533
1.21353 6.04306
1.21554 6.03854
1.21954 6.02953
1.22755 6.01167
1.24357 5.97660
1.27560 5.90900
1.33967 5.78331
1.46780 5.56614
1.46780 5.56614
1.46781 5.56612
1.46782 5.56611
1.46783 5.56609
1.46786 5.56604
1.46793 5.56594
1.46805 5.56575
1.46831 5.56536
1.46881 5.56460
1.46981 5.56306
1.47183 5.55999
1.47585 5.55389
1.48390 5.54179
1.50000 5.51807
1.53479 5.46887
1.56957 5.42240
1.63914 5.33734
1.77828 5.19695
1.77828 5.19695
1.77829 5.19695
1.77830 5.19694
1.77831 5.19693
1.77834 5.19691
1.77839 5.19686
1.77850 5.19676
1.77872 5.19657
1.77915 5.19620
1.78001 5.19544
1.78175 5.19394
1.78521 5.19096
1.79214 5.18505
1.80600 5.17352
1.83371 5.15157
1.88914 5.11203
2.00000 5.05041
2.15443 5.00416
2.15443 5.00416
2.15444 5.00416
2.15444 5.00416
2.15446 5.00416
2.15448 5.00415
2.15454 5.00415
2.15464 5.00413
2.15485 5.00410
2.15526 5.00404
2.15610 5.00392
2.15776 5.00369
2.16109 5.00324
2.16774 5.00242
2.18105 5.00104
2.20767 4.99942
2.26091 5.00078
2.36739 5.02310
2.58035 5.15929
2.61016 5.18991
2.61016 5.18991
2.61017 5.18992
2.61017 5.18992
2.61018 5.18993
2.61020 5.18995
2.61023 5.18998
2.61030 5.19006
2.61043 5.19020
2.61070 5.19049
2.61124 5.19108
2.61231 5.19225
2.61446 5.19460
2.61876 5.19935
2.62737 5.20907
2.64457 5.22937
2.67898 5.27352
2.74780 5.37727
2.88543 5.65840
3.16070 6.66754
3.16228 6.67583
3.16228 6.67584
3.16229 6.67587
3.16229 6.67590
3.16230 6.67595
3.16232 6.67605
3.16236 6.67627
3.16245 6.67670
3.16261 6.67756
3.16294 6.67928
3.16359 6.68272
3.16489 6.68963
3.16751 6.70352
3.17273 6.73161
3.18319 6.78906
3.20409 6.90924
3.24590 7.17257
3.32951 7.80849
3.49674 9.72500
3.66396 13.2564
3.83119 20.7522
3.83119 20.7523
3.83120 20.7528
3.83121 20.7533
3.83122 20.7543
3.83125 20.7563
3.83131 20.7604
3.83143 20.7685
3.83167 20.7846
3.83215 20.8170
3.83311 20.8821
3.83502 21.0133
3.83885 21.2802
3.84651 21.8322
3.86183 23.0146
3.89247 25.7425
3.95374 33.1958
4.01502 45.0404
4.07630 65.5380
4.13757 105.696
4.16821 142.027
4.19885 201.498
4.22949 308.426
4.24481 396.764
4.26012 528.305
4.27544 734.733
4.29076 1079.64
4.30608 1696.14
4.32140 2840.45
4.33570 4533.63
4.35000 5655.01
4.36430 4518.23
4.37860 2821.43
4.39504 1620.11
4.41147 1002.27
4.42791 668.469
4.44435 473.533
4.46079 351.506
4.47722 270.649
4.51010 174.151
4.54297 121.264
4.57584 89.3040
4.64159 54.3790
4.64159 54.3783
4.64160 54.3761
4.64160 54.3743
4.64161 54.3703
4.64164 54.3624
4.64168 54.3465
4.64177 54.3148
4.64194 54.2519
4.64229 54.1263
4.64299 53.8764
4.64439 53.3820
4.64719 52.4140
4.65279 50.5573
4.66399 47.1355
4.68639 41.2833
4.73119 32.5114
4.82080 21.8679
4.91040 15.9086
5.00000 12.2416
5.15585 8.53317
5.31171 6.47412
5.62341 4.37472
5.62341 4.37471
5.62342 4.37469
5.62342 4.37467
5.62343 4.37463
5.62345 4.37455
5.62348 4.37439
5.62356 4.37407
5.62370 4.37343
5.62399 4.37215
5.62457 4.36959
5.62574 4.36447
5.62806 4.35429
5.63271 4.33409
5.64200 4.29431
5.66058 4.21722
5.69776 4.07218
5.77210 3.81437
5.92079 3.40012
6.21817 2.83478
6.81292 2.21636
6.81292 2.21636
6.81293 2.21635
6.81293 2.21635
6.81294 2.21634
6.81296 2.21632
6.81301 2.21629
6.81309 2.21623
6.81326 2.21611
6.81359 2.21587
6.81426 2.21538
6.81561 2.21441
6.81829 2.21247
6.82366 2.20861
6.83439 2.20095
6.85586 2.18587
6.89881 2.15665
6.98469 2.10168
7.15646 2.00374
7.50000 1.84457
8.25404 1.60075
8.25404 1.60075
8.25405 1.60075
8.25406 1.60075
8.25407 1.60075
8.25410 1.60074
8.25415 1.60073
8.25426 1.60070
8.25447 1.60064
8.25489 1.60053
8.25575 1.60031
8.25745 1.59987
8.26086 1.59899
8.26768 1.59723
8.28132 1.59373
8.30860 1.58681
8.36316 1.57324
8.47229 1.54716
8.69053 1.49880
9.12702 1.41461
9.99999 1.28205
10.0000 1.28205
10.0000 1.28205
10.0001 1.28204
10.0001 1.28204
10.0001 1.28203
10.0003 1.28202
10.0005 1.28198
10.0011 1.28191
10.0021 1.28178
10.0042 1.28151
10.0083 1.28097
10.0165 1.27989
10.0331 1.27774
10.0661 1.27348
10.1322 1.26508
10.2644 1.24878
10.5288 1.21802
11.0577 1.16290
12.1153 1.07290
12.1153 1.07290
12.1154 1.07289
12.1155 1.07289
12.1156 1.07288
12.1159 1.07285
12.1166 1.07281
12.1178 1.07271
12.1203 1.07253
12.1253 1.07215
12.1353 1.07141
12.1554 1.06993
12.1954 1.06699
12.2755 1.06119
12.4357 1.04992
12.7560 1.02862
13.3967 0.990501
14.6780 0.929474
14.6780 0.929473
14.6781 0.929470
14.6782 0.929467
14.6783 0.929460
14.6786 0.929448
14.6793 0.929422
14.6805 0.929371
14.6831 0.929268
14.6881 0.929064
14.6981 0.928657
14.7183 0.927844
14.7585 0.926231
14.8390 0.923053
15.0000 0.916886
15.3479 0.904396
15.6957 0.893004
16.3914 0.873318
17.7828 0.845348
17.7828 0.845348
17.7829 0.845347
17.7830 0.845346
17.7831 0.845344
17.7834 0.845340
17.7839 0.845331
17.7850 0.845315
17.7872 0.845283
17.7915 0.845218
17.8001 0.845090
17.8175 0.844834
17.8521 0.844330
17.9214 0.843346
18.0600 0.841482
18.3371 0.838162
18.8914 0.833142
20.0000 0.829521
21.5443 0.838997
21.5443 0.838998
21.5444 0.838999
21.5444 0.838999
21.5446 0.839001
21.5448 0.839004
21.5453 0.839009
21.5463 0.839021
21.5483 0.839044
21.5522 0.839091
21.5601 0.839185
21.5759 0.839375
21.6075 0.839760
21.6706 0.840552
21.7969 0.842229
22.0494 0.845957
22.5546 0.854948
23.5648 0.879479
25.5853 0.959371
26.1016 0.987781
26.1016 0.987783
26.1017 0.987787
26.1018 0.987792
26.1019 0.987801
26.1022 0.987819
26.1029 0.987855
26.1041 0.987928
26.1066 0.988074
26.1115 0.988365
26.1214 0.988948
26.1412 0.990119
26.1808 0.992478
26.2600 0.997267
26.4184 1.00713
26.7352 1.02806
27.3688 1.07512
28.6361 1.19406
31.1705 1.58186
31.6228 1.68294
31.6228 1.68294
31.6229 1.68296
31.6229 1.68297
31.6230 1.68299
31.6232 1.68304
31.6236 1.68314
31.6245 1.68333
31.6261 1.68372
31.6294 1.68450
31.6359 1.68606
31.6489 1.68919
31.6751 1.69548
31.7273 1.70819
31.8319 1.73421
32.0409 1.78867
32.4590 1.90819
33.2951 2.19869
34.9674 3.09729
36.6396 4.86045
37.4758 6.45673
38.3119 9.07712
38.3119 9.07720
38.3120 9.07748
38.3120 9.07773
38.3122 9.07822
38.3124 9.07924
38.3129 9.08124
38.3139 9.08524
38.3159 9.09329
38.3198 9.10939
38.3277 9.14177
38.3434 9.20705
38.3749 9.33983
38.4378 9.61446
38.5637 10.2029
38.8156 11.5614
39.3192 15.2806
39.8228 21.2145
40.3265 31.5490
40.5783 39.8659
40.8301 52.0103
41.0819 70.7354
41.3337 101.769
41.5856 158.627
41.7115 206.519
41.8374 279.233
41.9633 396.438
42.0892 599.901
42.2151 984.479
42.2781 1303.52
42.3410 1754.38
42.4455 2803.57
42.5500 3495.34
42.6545 2787.39
42.7590 1738.53
42.8733 1023.46
42.9876 644.275
43.1018 434.598
43.2161 310.156
43.3304 231.357
43.4447 178.701
43.6732 115.321
43.9018 80.2910
44.1303 59.0010
44.5875 35.6094
45.0446 23.7572
45.5017 16.9511
45.9588 12.6914
46.4159 9.85245
46.4159 9.85235
46.4160 9.85204
46.4160 9.85178
46.4161 9.85122
46.4164 9.85009
46.4168 9.84784
46.4177 9.84333
46.4194 9.83437
46.4229 9.81649
46.4299 9.78087
46.4439 9.71022
46.4719 9.57119
46.5279 9.30190
46.6399 8.79625
46.8639 7.90092
47.3119 6.47593
48.2080 4.57834
49.1040 3.40861
50.0000 2.63789
51.5585 1.80815
53.1171 1.32085
56.2341 0.802333
56.2341 0.802331
56.2342 0.802325
56.2342 0.802321
56.2343 0.802311
56.2345 0.802291
56.2348 0.802252
56.2355 0.802173
56.2370 0.802015
56.2398 0.801701
56.2455 0.801073
56.2568 0.799817
56.2795 0.797317
56.3248 0.792354
56.4155 0.782578
56.5969 0.763601
56.9596 0.727819
57.6852 0.663980
59.1362 0.561074
62.0383 0.421772
67.8426 0.280463
68.1292 0.276251
68.1292 0.276251
68.1293 0.276250
68.1293 0.276249
68.1294 0.276247
68.1297 0.276244
68.1301 0.276238
68.1310 0.276225
68.1327 0.276200
68.1363 0.276150
68.1433 0.276049
68.1574 0.275847
68.1855 0.275446
68.2418 0.274649
68.3544 0.273076
68.5796 0.270016
69.0299 0.264232
69.9306 0.253947
71.7320 0.238179
75.3348 0.226089
78.9376 0.256436
80.7390 0.318743
81.6397 0.386847
82.5404 0.520486
82.5404 0.520490
82.5405 0.520500
82.5405 0.520511
82.5406 0.520532
82.5408 0.520573
82.5412 0.520654
82.5420 0.520819
82.5435 0.521148
82.5466 0.521805
82.5527 0.523126
82.5650 0.525791
82.5896 0.531217
82.6387 0.542455
82.7370 0.566597
82.9335 0.622664
83.3266 0.778409
83.7197 1.03323
84.1128 1.49397
84.3093 1.87924
84.5059 2.46347
84.7024 3.41215
84.8989 5.10664
84.9972 6.50508
85.0955 8.59707
85.1938 11.9299
85.2920 17.7167
85.3412 22.3573
85.3903 29.1053
85.4394 39.4522
85.4886 56.4501
85.5131 69.3556
85.5377 87.1736
85.5623 112.678
85.5868 150.807
85.6114 211.015
85.6360 312.419
85.6483 389.949
85.6605 495.718
85.6728 641.494
85.6851 840.861
85.7076 1345.27
85.7300 1681.45
85.7525 1344.86
85.7749 840.373
85.7951 541.644
85.8153 364.498
85.8355 257.628
85.8557 190.134
85.8961 114.471
85.9366 75.9343
85.9770 53.8931
86.0174 40.1798
86.0982 24.7732
86.1790 16.7958
86.2598 12.1484
86.3407 9.20835
86.4215 7.23251
86.5831 4.82595
86.7448 3.47320
86.9064 2.63876
87.0681 2.08858
87.3913 1.43234
87.7146 1.07229
88.3612 0.715456
89.0078 0.556560
89.6543 0.478741
90.9475 0.430191
92.2406 0.461830
93.5338 0.588072
94.1803 0.738099
94.5036 0.872125
94.8269 1.09851
95.1502 1.54865
95.3118 1.97657
95.4735 2.73123
95.6351 4.27868
95.7159 5.76081
95.7968 8.35397
95.8776 13.5341
95.9180 18.3233
95.9584 26.3498
95.9988 41.3044
96.0190 54.1253
96.0392 73.9260
96.0594 106.650
96.0796 165.497
96.0897 213.526
96.0998 283.016
96.1099 385.753
96.1200 537.339
96.1350 859.328
96.1500 1073.72
96.1650 858.950
96.1800 537.167
96.1949 331.392
96.2098 215.979
96.2247 149.332
96.2397 108.548
96.2546 82.1346
96.2695 64.2092
96.2994 42.2707
96.3292 29.9415
96.3590 22.3667
96.4187 13.9560
96.4784 9.65202
96.5381 7.16677
96.6575 4.56791
96.7769 3.31901
96.8962 2.63493
97.1350 1.97612
97.6125 1.62293
98.0899 1.68595
98.5674 1.95983
99.0449 2.45304
99.5224 3.28388
99.7612 3.90786
99.9999 4.75604
100.000 4.75646
100.000 4.75688
100.000 4.75813
100.001 4.75896
100.001 4.76105
100.002 4.76522
100.004 4.77317
100.008 4.78955
100.016 4.82259
100.031 4.88934
100.062 5.02784
100.125 5.32452
100.249 6.00892
100.498 7.87820
100.746 10.8548
100.995 16.0318
101.120 20.2051
101.244 26.3174
101.368 35.7951
101.493 51.6430
101.617 81.1974
101.679 106.574
101.741 145.815
101.804 211.010
101.866 329.192
101.897 426.314
101.928 568.048
101.959 779.648
101.990 1094.12
102.035 1751.17
102.080 2189.47
102.125 1749.82
102.170 1093.11
102.213 684.531
102.257 451.889
102.300 315.481
102.343 231.484
102.430 139.518
102.517 94.0593
102.604 68.9312
102.690 54.1068
102.864 40.2320
103.037 39.3901
103.124 44.3676
103.210 55.8216
103.297 80.9129
103.340 104.442
103.384 143.243
103.427 213.208
103.449 270.737
103.470 355.302
103.492 486.948
103.514 701.686
103.535 1076.42
103.557 1742.13
103.579 2769.20
103.600 3448.16
103.622 2767.83
103.643 1740.26
103.660 1183.46
103.677 830.850
103.694 606.311
103.711 458.538
103.746 286.111
103.780 194.817
103.814 141.250
103.848 107.303
103.917 68.4179
103.985 47.8421
104.053 35.6279
104.190 22.3848
104.327 15.6636
104.464 11.7402
104.737 7.49682
105.011 5.31576
105.285 4.01888
105.832 2.58306
106.379 1.82830
106.926 1.37503
108.021 0.873348
109.115 0.612954
110.209 0.459395
112.398 0.293713
114.587 0.210402
116.776 0.162547
121.153 0.112818
121.153 0.112817
121.154 0.112811
121.155 0.112805
121.156 0.112793
121.159 0.112770
121.166 0.112724
121.178 0.112632
121.203 0.112448
121.253 0.112083
121.353 0.111362
121.554 0.109957
121.954 0.107290
122.755 0.102479
124.357 0.0946535
127.560 0.0846351
133.967 0.0836681
137.170 0.0980641
138.772 0.114228
140.373 0.143631
141.975 0.203008
142.776 0.257958
143.577 0.350372
144.378 0.525198
144.778 0.678925
145.178 0.925097
145.579 1.35811
145.979 2.23429
146.179 3.05864
146.380 4.47137
146.580 7.20569
146.680 9.65362
146.780 13.6259
146.780 13.6361
146.781 13.6619
146.781 13.6877
146.782 13.7343
146.784 13.8282
146.788 14.0244
146.795 14.4240
146.809 15.2766
146.839 17.2267
146.897 22.4567
146.956 30.4917
147.014 43.7356
147.043 53.8403
147.073 67.7840
147.102 87.8879
147.131 118.007
147.160 166.053
147.190 247.507
147.219 396.781
147.233 517.129
147.248 683.529
147.274 1097.06
147.300 1374.16
147.326 1096.80
147.352 683.241
147.369 498.857
147.385 371.253
147.418 221.471
147.451 144.351
147.484 100.715
147.517 73.9786
147.550 56.5280
147.616 36.0236
147.682 24.9157
147.748 18.2689
147.880 11.0522
148.012 7.43828
148.144 5.38400
148.276 4.10989
148.407 3.27010
148.671 2.28080
148.935 1.76564
149.199 1.49484
149.463 1.37759
149.990 1.52105
150.254 1.84904
150.518 2.52824
150.650 3.12070
150.782 4.02941
150.914 5.50780
151.046 8.12771
151.178 13.4139
151.244 18.3384
151.310 26.6246
151.376 42.2020
151.409 55.6561
151.442 76.5261
151.475 111.448
151.491 138.209
151.508 175.270
151.524 228.124
151.541 305.797
151.557 422.735
151.573 597.473
151.597 955.463
151.620 1193.93
151.643 955.279
151.667 597.255
151.685 409.776
151.702 290.145
151.720 212.936
151.738 161.574
151.774 100.983
151.809 68.5728
151.845 49.4427
151.880 37.2801
151.952 23.3306
152.023 15.9575
152.094 11.6131
152.165 8.83866
152.236 6.96043
152.379 4.65280
152.521 3.34423
152.664 2.52968
152.806 1.98861
153.091 1.33497
153.376 0.969045
153.661 0.742781
153.946 0.592619
154.516 0.410675
155.085 0.307926
156.225 0.200549
157.364 0.147635
158.504 0.117470
160.783 0.0866727
163.062 0.0746527
165.341 0.0777211
166.480 0.0916509
167.050 0.107336
167.620 0.137111
168.190 0.201832
168.474 0.266359
168.759 0.383255
168.902 0.481010
169.044 0.628856
169.187 0.868193
169.329 1.29259
169.400 1.64084
169.472 2.15740
169.543 2.97194
169.614 4.36510
169.685 7.04221
169.721 9.41238
169.756 13.2007
169.792 19.7704
169.828 32.5053
169.845 43.7155
169.863 61.2122
169.881 89.6754
169.890 110.292
169.899 136.584
169.909 175.074
169.919 218.598
169.940 272.867
169.961 218.148
169.981 136.550
169.997 94.7018
170.012 67.6567
170.027 49.8988
170.043 38.0662
170.073 23.9349
170.104 16.3335
170.135 11.8052
170.165 8.92420
170.227 5.60083
170.288 3.84009
170.349 2.79875
170.411 2.13304
170.472 1.68213
170.594 1.12841
170.717 0.814431
170.840 0.619472
170.962 0.490202
171.207 0.334856
171.453 0.248637
171.943 0.161279
172.433 0.120181
172.924 0.0976908
173.905 0.0754363
175.866 0.0610766
177.828 0.0596016
177.828 0.0596019
177.829 0.0596027
177.830 0.0596035
177.831 0.0596051
177.834 0.0596082
177.840 0.0596146
177.851 0.0596275
177.873 0.0596538
177.919 0.0597092
178.009 0.0598306
178.190 0.0601155
178.552 0.0608554
179.276 0.0630468
180.723 0.0708562
182.170 0.0856521
183.617 0.114369
185.065 0.177517
185.788 0.241063
186.512 0.357401
186.874 0.455673
187.236 0.605931
187.598 0.852533
187.959 1.29954
188.140 1.67402
188.321 2.24194
188.502 3.16418
188.683 4.81050
188.774 6.16867
188.864 8.19606
188.954 11.4242
189.045 17.0086
189.090 21.4848
189.135 27.9648
189.181 37.8611
189.226 54.0347
189.271 83.1129
189.294 107.016
189.316 142.479
189.339 197.837
189.361 289.622
189.384 451.859
189.407 748.657
189.428 1198.47
189.450 1498.52
189.472 1198.23
189.493 748.411
189.514 471.313
189.535 312.240
189.555 218.244
189.576 159.749
189.617 95.0362
189.658 62.6215
189.699 44.1976
189.740 32.8309
189.822 20.1118
189.904 13.5601
189.986 9.75469
190.068 7.35241
190.150 5.74189
190.314 3.78007
190.479 2.67820
190.643 1.99851
190.807 1.55024
191.135 1.01385
191.464 0.717739
191.792 0.537170
192.120 0.419015
192.777 0.278907
193.433 0.202194
194.090 0.155675
194.747 0.125367
196.060 0.0895825
197.373 0.0700894
200.000 0.0507482
203.861 0.0395327
207.722 0.0353470
215.443 0.0351815
215.443 0.0351817
215.444 0.0351820
215.444 0.0351822
215.445 0.0351828
215.447 0.0351838
215.451 0.0351859
215.459 0.0351901
215.475 0.0351986
215.508 0.0352157
215.572 0.0352504
215.701 0.0353218
215.959 0.0354724
216.475 0.0358066
217.507 0.0366180
219.572 0.0389433
223.700 0.0488351
225.764 0.0606740
226.796 0.0715557
227.828 0.0903912
228.861 0.128851
229.377 0.166172
229.893 0.233157
230.151 0.289078
230.409 0.373915
230.667 0.512071
230.925 0.760332
231.054 0.966822
231.183 1.27782
231.312 1.77843
231.441 2.66103
231.505 3.37974
231.570 4.44091
231.634 6.10125
231.699 8.90984
231.763 14.2153
231.796 18.8367
231.828 26.0613
231.860 38.2878
231.892 60.9209
231.909 80.1024
231.925 108.583
231.941 152.303
231.957 219.609
231.978 351.325
232.000 439.119
232.022 351.288
232.043 219.566
232.069 123.678
232.095 75.5378
232.121 49.9738
232.146 35.2133
232.172 26.0433
232.198 19.9988
232.250 12.8195
232.301 8.90093
232.353 6.53798
232.456 3.96087
232.559 2.66053
232.662 1.91647
232.765 1.45090
232.869 1.14110
233.075 0.766997
233.281 0.558992
233.488 0.431785
233.694 0.348610
234.107 0.250707
234.519 0.198374
235.344 0.149835
236.170 0.132790
236.995 0.130141
238.645 0.152241
240.296 0.220891
241.121 0.292361
241.946 0.423167
242.359 0.533216
242.772 0.700862
243.184 0.974905
243.597 1.46964
243.803 1.88285
244.010 2.50822
244.216 3.52137
244.422 5.32501
244.525 6.80925
244.629 9.02032
244.732 12.5305
244.835 18.5796
244.886 23.4027
244.938 30.3742
244.990 40.9732
245.041 58.1427
245.093 88.6663
245.119 113.543
245.144 150.078
245.170 206.335
245.196 297.844
245.222 455.282
245.247 731.924
245.274 1170.80
245.300 1463.20
245.326 1170.55
245.353 731.677
245.379 453.489
245.404 296.783
245.430 205.669
245.456 149.634
245.482 113.115
245.508 88.3561
245.559 57.9625
245.611 40.8076
245.663 30.2648
245.766 18.5206
245.869 12.4959
245.972 9.00706
246.076 6.81040
246.179 5.34137
246.386 3.56097
246.592 2.57159
246.799 1.97354
247.005 1.59491
247.418 1.21401
247.625 1.16601
247.832 1.23584
248.038 1.52977
248.141 1.86084
248.245 2.47154
248.348 3.72221
248.400 4.88581
248.451 6.82625
248.503 10.4139
248.529 13.4457
248.555 18.0653
248.580 25.5432
248.606 38.5963
248.632 63.4612
248.645 84.2427
248.658 113.790
248.679 181.864
248.700 227.269
248.721 181.839
248.742 113.754
248.763 71.2174
248.783 46.9489
248.803 32.7532
248.824 23.9843
248.865 14.3664
248.905 9.56294
248.946 6.84744
248.987 5.17001
249.069 3.29541
249.150 2.32698
249.232 1.76139
249.395 1.15777
249.558 0.856129
249.721 0.681791
250.048 0.494823
250.700 0.343493
251.353 0.284690
252.659 0.255066
253.964 0.290547
255.269 0.414307
255.922 0.548079
256.575 0.796590
256.901 1.00688
257.228 1.32765
257.554 1.85156
257.717 2.24748
257.880 2.79250
258.043 3.57299
258.207 4.74590
258.370 6.62545
258.533 9.91336
258.615 12.5723
258.696 16.4699
258.778 22.5079
258.859 32.5773
258.941 51.1854
258.982 66.9942
259.023 91.1992
259.063 130.665
259.104 200.310
259.145 335.200
259.165 449.739
259.186 613.685
259.218 981.367
259.250 1226.19
259.282 981.111
259.314 613.428
259.341 409.504
259.368 283.159
259.394 204.128
259.421 152.817
259.474 93.7597
259.527 62.9551
259.580 45.0098
259.634 33.7233
259.740 20.9210
259.846 14.2205
259.953 10.2950
260.059 7.79809
260.165 6.11591
260.378 4.05854
260.591 2.89747
260.803 2.17905
261.016 1.70427
261.016 1.70390
261.017 1.70298
261.017 1.70225
261.018 1.70060
261.020 1.69749
261.023 1.69130
261.030 1.67884
261.044 1.65435
261.071 1.60720
261.126 1.51905
261.236 1.36412
261.456 1.12119
261.897 0.805154
262.337 0.615459
262.777 0.493401
263.658 0.353195
264.538 0.282101
266.299 0.229607
268.060 0.243275
269.821 0.331920
270.701 0.433282
271.141 0.512705
271.582 0.624236
272.022 0.786692
272.462 1.03509
272.682 1.21144
272.902 1.44127
273.122 1.74842
273.342 2.17168
273.563 2.77797
273.783 3.68890
274.003 5.14881
274.223 7.70487
274.333 9.77232
274.443 12.8002
274.553 17.4957
274.663 25.3195
274.773 39.7943
274.828 52.0835
274.883 70.9002
274.938 101.655
274.993 155.873
275.048 260.965
275.076 350.285
275.103 479.017
275.147 766.845
275.190 958.079
275.233 765.868
275.277 478.750
275.307 337.874
275.338 244.595
275.369 182.407
275.399 140.212
275.461 89.1345
275.522 61.2034
275.583 44.4302
275.644 33.6679
275.767 21.1842
275.889 14.5291
276.012 10.5773
276.134 8.04392
276.257 6.32445
276.502 4.20790
276.747 3.00590
276.992 2.25850
277.237 1.76244
277.727 1.16568
278.217 0.834330
278.707 0.631505
279.197 0.498527
280.177 0.340704
281.157 0.254534
283.118 0.169707
285.078 0.132769
287.038 0.115985
290.958 0.112054
294.879 0.139076
296.839 0.170276
298.799 0.225574
300.759 0.334158
301.739 0.433565
302.720 0.602101
303.700 0.933566
304.190 1.24405
304.680 1.78477
305.170 2.88280
305.415 3.93174
305.660 5.77307
305.782 7.27254
305.905 9.49214
306.027 12.9836
306.150 18.9462
306.211 23.6576
306.272 30.3996
306.334 40.5559
306.395 56.7801
306.456 85.0198
306.487 107.511
306.517 139.854
306.548 188.478
306.579 264.443
306.609 388.624
306.640 594.505
306.675 950.568
306.710 1187.78
306.745 950.403
306.780 594.349
306.816 363.672
306.851 235.791
306.887 162.446
306.922 117.782
306.958 88.9080
306.993 69.4145
307.064 45.6225
307.136 32.2810
307.207 24.1161
307.349 15.0832
307.491 10.4910
307.633 7.86999
307.917 5.20508
308.201 4.03495
308.485 3.52988
309.053 3.57127
309.337 4.02624
309.621 4.85644
309.906 6.27266
310.190 8.74995
310.474 13.4527
310.616 17.5067
310.758 23.7709
310.900 34.1114
311.042 52.6329
311.113 67.6892
311.184 89.3688
311.255 121.243
311.326 167.975
311.433 268.442
311.540 335.280
311.647 268.196
311.754 167.714
311.824 121.547
311.894 89.9228
312.034 53.2128
312.174 34.5326
312.313 24.0445
312.453 17.6510
312.593 13.4925
312.873 8.61591
313.152 5.98464
313.432 4.41021
313.991 2.70376
314.550 1.85231
315.110 1.37474
315.669 1.09238
316.228 0.933848
316.228 0.933811
316.229 0.933678
316.229 0.933565
316.231 0.933339
316.233 0.932888
316.238 0.931973
316.248 0.930167
316.267 0.926653
316.306 0.920028
316.385 0.908335
316.541 0.891502
316.854 0.888030
317.168 0.940596
317.481 1.09444
317.794 1.48166
317.950 1.88181
318.107 2.60718
318.264 4.10253
318.342 5.51707
318.420 7.93351
318.498 12.5732
318.538 16.6757
318.577 23.1932
318.616 34.4656
318.635 43.3944
318.655 56.0711
318.675 74.9609
318.694 103.999
318.704 124.583
318.714 150.864
318.723 184.462
318.733 226.510
318.745 290.345
318.757 362.692
318.780 453.033
318.792 426.026
318.804 362.037
318.827 226.464
318.850 139.304
318.874 90.7357
318.897 62.6268
318.921 45.5257
318.944 34.4192
318.968 26.9132
319.015 17.7087
319.061 12.5388
319.108 9.36048
319.202 5.82765
319.296 4.01480
319.390 2.96296
319.577 1.85132
319.765 1.30430
319.953 0.993263
320.328 0.666702
320.703 0.503700
321.078 0.407985
321.828 0.301157
323.329 0.204812
324.830 0.158729
327.831 0.114414
330.833 0.0971448
333.834 0.0981010
335.335 0.108353
336.836 0.132256
338.337 0.188852
339.087 0.247157
339.837 0.354778
340.213 0.445952
340.588 0.585521
340.963 0.814589
341.338 1.22923
341.526 1.57588
341.713 2.10088
341.901 2.95115
342.088 4.46291
342.182 5.70407
342.276 7.55125
342.370 10.4725
342.464 15.4902
342.511 19.4697
342.557 25.1964
342.604 33.8509
342.651 47.7880
342.698 72.2267
342.722 91.9466
342.745 120.435
342.769 163.783
342.792 232.444
342.815 346.901
342.839 541.267
342.864 866.863
342.890 1082.84
342.916 865.395
342.941 541.146
342.958 396.212
342.974 295.492
343.006 176.754
343.039 115.370
343.071 80.5520
343.103 59.1835
343.136 45.2207
343.201 28.7775
343.265 19.8759
343.330 14.5368
343.460 8.73796
343.589 5.82835
343.719 4.16624
343.849 3.12894
343.978 2.43904
344.237 1.60614
344.496 1.14218
344.756 0.857556
345.015 0.670538
345.533 0.447638
346.051 0.324967
346.570 0.250278
347.088 0.201453
348.125 0.143564
349.162 0.111852
351.235 0.0801561
353.308 0.0656449
355.382 0.0581793
359.528 0.0526001
363.675 0.0539317
367.822 0.0629751
369.895 0.0744597
371.968 0.103071
373.005 0.139789
373.523 0.175301
374.042 0.238926
374.560 0.372433
374.819 0.503383
375.078 0.738412
375.208 0.933638
375.338 1.22766
375.467 1.70050
375.597 2.53215
375.662 3.20875
375.726 4.20632
375.791 5.76409
375.856 8.39174
375.921 13.3337
375.953 17.6104
375.986 24.2843
376.018 35.4638
376.050 56.0030
376.067 73.1049
376.083 98.3687
376.099 136.654
376.115 194.286
376.138 310.898
376.160 388.668
376.183 310.877
376.205 194.261
376.219 144.120
376.232 108.921
376.259 66.4371
376.286 43.9224
376.313 30.9390
376.340 22.8795
376.367 17.5700
376.421 11.2670
376.475 7.82352
376.529 5.75241
376.637 3.49234
376.745 2.35272
376.853 1.70085
376.961 1.29339
377.069 1.02202
377.285 0.694532
377.501 0.512466
377.934 0.328332
378.366 0.242682
378.798 0.196893
379.662 0.154268
381.391 0.135281
383.119 0.147961
383.119 0.147964
383.120 0.147971
383.120 0.147978
383.121 0.147991
383.123 0.148018
383.127 0.148070
383.134 0.148176
383.150 0.148389
383.180 0.148822
383.241 0.149707
383.363 0.151570
383.607 0.155664
384.094 0.165470
385.069 0.193322
386.044 0.238396
387.019 0.317505
387.995 0.479050
388.482 0.634951
388.970 0.912957
389.213 1.14352
389.457 1.49139
389.701 2.05359
389.945 3.05255
390.067 3.87417
390.188 5.09974
390.310 7.04508
390.432 10.4025
390.554 16.9635
390.615 22.8815
390.676 32.5049
390.737 49.6985
390.767 63.7855
390.798 84.4990
390.828 116.697
390.859 169.339
390.889 261.300
390.920 425.661
390.950 680.617
390.980 850.426
391.010 680.538
391.040 425.576
391.067 278.672
391.093 189.833
391.119 135.373
391.145 100.553
391.198 61.0800
391.250 40.7573
391.302 29.0543
391.355 21.7395
391.460 13.4917
391.564 9.19973
391.669 6.69557
391.774 5.10789
391.879 4.04148
392.088 2.74289
392.298 2.01544
392.717 1.27956
393.136 0.943462
393.555 0.773781
394.393 0.657361
395.231 0.718331
395.650 0.828352
396.069 1.04286
396.278 1.22419
396.488 1.49818
396.592 1.69077
396.697 1.93950
396.802 2.26936
396.907 2.71928
397.011 3.35743
397.116 4.30441
397.221 5.80187
397.273 6.90045
397.326 8.37172
397.378 10.4137
397.430 13.3569
397.483 17.8159
397.535 25.0060
397.588 37.7039
397.614 47.9843
397.640 62.9862
397.666 85.8893
397.692 122.710
397.719 185.042
397.745 292.373
397.772 467.306
397.800 583.847
397.828 467.265
397.855 292.334
397.880 190.696
397.904 129.586
397.928 92.3024
397.953 68.5500
398.001 41.7190
398.050 27.9737
398.098 20.0568
398.147 15.1184
398.244 9.56398
398.341 6.68379
398.438 5.01095
398.633 3.25498
398.827 2.41450
399.021 1.96260
399.410 1.55749
399.798 1.44674
400.187 1.48328
400.964 1.88249
401.352 2.28212
401.741 2.90330
402.129 3.90855
402.518 5.66599
402.712 7.08291
402.907 9.15675
403.101 12.3698
403.295 17.7414
403.489 27.7604
403.586 36.3683
403.684 49.7268
403.781 71.9850
403.878 112.496
403.926 146.000
403.975 195.035
404.024 268.857
404.072 379.550
404.141 606.960
404.210 758.738
404.279 606.934
404.348 379.720
404.412 242.479
404.476 162.425
404.540 114.795
404.604 85.0441
404.668 65.5326
404.731 52.1857
404.859 35.8599
404.987 26.8682
405.115 21.6705
405.242 18.7066
405.370 17.2807
405.498 17.1334
405.562 17.5485
405.626 18.3366
405.690 19.5683
405.722 20.3851
405.754 21.3564
405.786 22.5126
405.817 23.8764
405.849 25.4889
405.881 27.3977
405.945 32.3748
406.009 39.5450
406.073 50.2114
406.137 66.7768
406.201 94.1959
406.233 114.972
406.265 143.270
406.297 183.047
406.328 240.000
406.360 323.285
406.392 444.655
406.441 709.522
406.490 886.024
406.539 709.121
406.588 444.012
406.627 301.079
406.666 211.224
406.705 154.027
406.744 116.552
406.822 72.8163
406.899 49.6743
406.977 36.0910
407.055 27.4744
407.211 17.5846
407.367 12.3324
407.523 9.20192
407.834 5.78908
408.146 4.04393
408.457 3.02040
409.080 1.90989
409.704 1.34023
410.327 1.00413
411.573 0.637828
412.819 0.450194
414.065 0.340489
416.558 0.223585
419.050 0.166567
421.543 0.135798
426.528 0.110660
431.513 0.113624
434.005 0.126354
436.498 0.152740
437.744 0.175361
438.367 0.190632
438.990 0.209685
439.613 0.233874
440.237 0.265235
440.860 0.306981
441.171 0.333280
441.483 0.364386
441.794 0.401597
442.106 0.446642
442.418 0.501932
442.729 0.570862
443.041 0.658463
443.352 0.772170
443.664 0.923743
443.975 1.13213
444.287 1.43023
444.598 1.87809
444.910 2.59693
445.221 3.85878
445.377 4.88280
445.533 6.38966
445.689 8.73682
445.845 12.6790
446.000 20.0576
446.078 26.4079
446.156 36.2619
446.234 52.6358
446.312 82.3567
446.351 106.841
446.390 142.499
446.429 195.736
446.468 275.147
446.524 440.150
446.580 550.100
446.636 440.026
446.692 275.025
446.727 203.658
446.761 153.490
446.829 93.2384
446.897 61.4454
446.965 43.2123
447.034 31.9091
447.102 24.4891
447.238 15.6959
447.375 10.9044
447.511 8.02214
447.784 4.88067
448.057 3.30047
448.330 2.39784
448.603 1.83508
448.876 1.46147
449.422 1.01366
449.968 0.768189
451.059 0.529639
452.151 0.432323
453.242 0.396845
454.334 0.397499
455.426 0.426729
456.517 0.486300
457.609 0.586558
458.701 0.751408
459.792 1.03368
460.884 1.56252
461.430 2.01596
461.976 2.71787
462.522 3.88658
463.067 6.04038
463.340 7.86637
463.613 10.6588
463.886 15.2104
464.159 23.2633
464.159 23.2712
464.160 23.2951
464.160 23.3191
464.162 23.3671
464.164 23.4595
464.169 23.6499
464.178 24.0333
464.197 24.8314
464.234 26.5441
464.309 30.4997
464.458 41.2701
464.608 57.7698
464.757 83.0858
464.959 132.786
465.160 165.824
465.362 132.644
465.563 82.9484
465.734 54.8502
465.904 37.6569
466.075 27.0133
466.246 20.1609
466.587 12.3308
466.928 8.27309
467.270 5.92589
467.611 4.45531
468.294 2.79245
468.976 1.92724
469.659 1.42273
471.024 0.891743
472.390 0.637680
473.755 0.502602
476.486 0.393590
479.216 0.408307
480.582 0.467277
481.947 0.591498
483.312 0.863796
483.995 1.13040
484.677 1.60274
485.360 2.56362
485.701 3.47020
486.043 5.02620
486.384 8.03912
486.555 10.7305
486.725 15.0724
486.896 22.7203
487.067 37.8990
487.152 51.6303
487.237 73.6242
487.323 110.726
487.408 174.677
487.499 279.475
487.590 349.363
487.681 279.356
487.772 174.568
487.849 115.524
487.926 79.3868
488.003 57.0073
488.080 42.6024
488.233 26.1301
488.387 17.5872
488.541 12.6438
488.694 9.54879
489.002 6.05235
489.309 4.23779
489.617 3.18516
489.924 2.52639
490.232 2.09222
490.846 1.59041
491.461 1.34966
492.076 1.25327
492.691 1.25841
492.999 1.29570
493.306 1.35773
493.613 1.44799
493.921 1.57221
494.228 1.73953
494.536 1.96381
494.843 2.26687
495.151 2.68367
495.458 3.27283
495.765 4.13716
496.073 5.47274
496.380 7.68478
496.688 11.7299
496.842 15.1271
496.995 20.2703
497.149 28.5279
497.303 42.7814
497.456 69.4983
497.533 91.5110
497.610 122.400
497.740 195.682
497.870 244.560
498.000 195.581
498.130 122.324
498.247 79.0497
498.364 53.3995
498.481 37.9306
498.598 28.1690
498.831 17.2334
499.065 11.6850
499.299 8.52982
499.533 6.58822
500.000 4.46654
500.629 3.24737
501.259 2.84702
501.888 2.94027
502.518 3.54786
503.147 5.04012
503.462 6.44875
503.776 8.74974
504.091 12.7896
504.406 20.6739
504.563 27.6371
504.720 38.5141
504.878 56.2284
505.035 85.4551
505.218 136.494
505.400 170.479
505.583 136.343
505.765 85.2783
505.934 54.4597
506.102 36.4431
506.271 25.6891
506.439 18.9463
506.776 11.4410
507.113 7.64150
507.450 5.47312
507.787 4.12518
508.461 2.60861
509.136 1.82064
509.810 1.35999
511.158 0.874755
512.506 0.653699
513.854 0.589984
514.528 0.649188
514.865 0.735786
515.202 0.911216
515.540 1.30166
515.708 1.69019
515.877 2.38563
516.045 3.80972
516.129 5.15450
516.214 7.45269
516.298 11.8726
516.340 15.7781
516.382 22.0115
516.424 32.8324
516.445 41.4369
516.466 53.7044
516.488 72.0688
516.509 100.496
516.530 146.755
516.551 222.207
516.575 355.248
516.600 443.891
516.612 417.613
516.625 355.224
516.649 222.179
516.673 138.659
516.697 91.1099
516.721 63.3493
516.745 46.2265
516.769 35.0794
516.793 27.4756
516.841 18.1280
516.889 12.8522
516.937 9.59862
517.033 5.97514
517.129 4.10967
517.225 3.02690
517.417 1.88427
517.609 1.32387
517.801 1.00741
518.185 0.679213
518.569 0.519191
518.953 0.427806
519.721 0.330073
521.256 0.249089
522.792 0.215100
525.863 0.193107
528.934 0.207186
532.005 0.270103
533.540 0.340123
535.076 0.470131
535.844 0.579308
536.612 0.744288
537.379 1.00981
538.147 1.47656
538.531 1.85525
538.915 2.41220
539.299 3.27887
539.683 4.73289
540.066 7.44689
540.258 9.77728
540.450 13.3817
540.642 19.3512
540.834 30.1191
540.930 38.9295
541.026 51.7099
541.122 70.6912
541.218 98.7759
541.359 157.960
541.500 197.365
541.641 157.859
541.782 98.6781
541.943 56.9971
542.103 35.4380
542.264 23.7302
542.425 16.8671
542.585 12.5562
542.746 9.69514
543.067 6.27153
543.388 4.38921
543.710 3.24949
544.352 2.00112
544.994 1.37056
545.637 1.00972
546.922 0.636405
548.207 0.460493
549.492 0.367677
552.062 0.291065
554.631 0.287751
555.916 0.307058
557.201 0.342667
558.486 0.400286
559.771 0.491190
560.414 0.555417
561.056 0.637804
561.699 0.745216
562.341 0.888113
562.341 0.888165
562.342 0.888345
562.343 0.888526
562.344 0.888887
562.347 0.889610
562.352 0.891059
562.363 0.893942
562.386 0.899782
562.430 0.911654
562.520 0.936191
562.698 0.988631
563.055 1.10915
563.768 1.43474
564.481 1.94115
565.195 2.78844
565.551 3.44271
565.908 4.36014
566.265 5.69968
566.621 7.75622
566.978 11.1241
567.335 17.1035
567.513 21.9154
567.691 28.7930
567.870 38.8063
568.048 53.3301
568.324 85.2354
568.600 106.437
568.876 85.1298
569.152 53.2270
569.321 39.3662
569.490 29.6142
569.827 17.9443
570.165 11.8132
570.502 8.30037
570.840 6.12840
571.177 4.70238
571.852 3.01450
572.527 2.09613
573.203 1.54349
574.553 0.941398
575.903 0.638331
577.253 0.464934
578.603 0.356754
579.953 0.285071
582.654 0.200768
585.354 0.162098
586.704 0.159937
588.054 0.187744
588.729 0.238724
589.067 0.292224
589.404 0.391246
589.742 0.602260
589.911 0.809330
590.079 1.17829
590.164 1.48186
590.248 1.93413
590.333 2.65018
590.417 3.87975
590.501 6.26392
590.544 8.39293
590.586 11.8267
590.628 17.8613
590.670 29.8067
590.691 40.5591
590.702 48.1328
590.712 57.7293
590.723 70.2767
590.733 86.5302
590.744 107.836
590.754 135.500
590.766 173.412
590.777 216.740
590.800 270.895
590.811 254.962
590.823 216.729
590.846 135.488
590.860 99.0255
590.875 73.7476
590.904 44.1091
590.932 28.8050
590.961 20.1305
590.990 14.7944
591.019 11.3229
591.077 7.23499
591.135 5.01900
591.193 3.69255
591.308 2.25055
591.424 1.52693
591.540 1.11340
591.656 0.855131
591.771 0.683085
592.003 0.475160
592.234 0.358891
592.697 0.239756
593.160 0.182553
593.622 0.150366
594.548 0.116638
596.399 0.0897726
598.250 0.0795292
600.102 0.0772173
601.953 0.0868177
602.878 0.105089
603.341 0.124319
603.804 0.160031
604.267 0.236580
604.498 0.312266
604.730 0.448466
604.845 0.561541
604.961 0.731604
605.077 1.00437
605.192 1.48243
605.308 2.43685
605.366 3.31818
605.424 4.78790
605.482 7.51605
605.511 9.83638
605.540 13.3977
605.568 19.2241
605.597 29.5584
605.626 49.7346
605.641 67.0762
605.655 92.0405
605.678 147.445
605.700 184.195
605.723 147.176
605.745 92.0328
605.761 64.6784
605.777 46.6190
605.793 34.6848
605.809 26.5959
605.842 16.8678
605.874 11.5776
605.906 8.40421
605.938 6.36969
606.002 4.02020
606.067 2.76798
606.131 2.02646
606.260 1.22848
606.388 0.831798
606.517 0.606488
606.646 0.466408
606.775 0.373428
607.032 0.261545
607.289 0.199334
607.804 0.136130
608.319 0.106224
608.834 0.0897306
609.863 0.0731043
611.922 0.0613669
613.981 0.0581685
618.099 0.0605345
622.217 0.0722540
626.335 0.101392
628.394 0.131057
630.453 0.184857
631.483 0.229738
632.512 0.297598
633.542 0.407433
634.056 0.489940
634.571 0.603111
634.828 0.676239
635.086 0.764471
635.343 0.872295
635.601 1.00594
635.858 1.17455
636.115 1.39142
636.373 1.67692
636.630 2.06327
636.887 2.60467
637.145 3.39615
637.402 4.61839
637.660 6.64721
637.788 8.20420
637.917 10.3755
638.046 13.5240
638.174 18.3164
638.303 26.0666
638.432 39.5824
638.496 50.2763
638.560 65.3031
638.625 86.7627
638.689 117.250
638.795 187.715
638.900 234.728
639.006 187.642
639.111 117.182
639.178 85.6043
639.245 63.7306
639.379 38.0544
639.513 24.8258
639.648 17.3393
639.782 12.7521
639.916 9.75846
640.184 6.23873
640.452 4.33725
640.720 3.20068
641.257 1.97451
641.793 1.37029
642.330 1.03837
642.866 0.847894
643.403 0.743537
644.475 0.722324
645.012 0.820112
645.548 1.05291
646.085 1.59110
646.353 2.12682
646.621 3.07649
646.889 4.98264
647.023 6.74273
647.158 9.68084
647.292 15.1125
647.359 19.7309
647.426 26.7896
647.493 38.3111
647.560 58.5973
647.627 97.9094
647.660 131.216
647.694 179.136
647.747 286.659
647.800 358.154
647.853 286.389
647.906 179.079
647.949 120.218
647.992 83.5818
648.036 60.4720
648.079 45.4333
648.165 28.0177
648.251 18.8792
648.338 13.5516
648.424 10.1931
648.596 6.37322
648.769 4.36935
648.942 3.19225
649.287 1.93533
649.632 1.31324
649.977 0.960210
650.667 0.593857
651.357 0.416659
652.048 0.317679
653.428 0.219327
654.809 0.183778
656.189 0.201927
656.879 0.258108
657.225 0.319686
657.570 0.435045
657.915 0.681913
658.087 0.924157
658.260 1.35508
658.346 1.70888
658.433 2.23481
658.519 3.06484
658.605 4.48354
658.691 7.21430
658.735 9.63713
658.778 13.5031
658.821 20.2298
658.864 33.2551
658.886 44.7613
658.907 62.6476
658.929 91.9090
658.950 139.954
658.975 223.936
659.000 279.573
659.025 223.566
659.050 139.940
659.066 102.630
659.081 76.7869
659.113 46.0901
659.144 30.1611
659.175 21.1042
659.206 15.5366
659.238 11.8942
659.300 7.60484
659.363 5.27536
659.425 3.87896
659.550 2.35920
659.676 1.59569
659.801 1.15903
659.926 0.886189
660.051 0.704369
660.301 0.484520
660.551 0.361677
661.052 0.236076
661.552 0.176305
662.053 0.143448
663.053 0.112165
664.054 0.104291
665.055 0.122567
665.556 0.158561
665.806 0.196222
666.056 0.265538
666.306 0.411878
666.431 0.554153
666.556 0.805315
666.682 1.31160
666.744 1.78364
666.807 2.57911
666.869 4.07885
666.901 5.37824
666.932 7.40008
666.963 10.7997
666.994 17.0576
667.010 22.2982
667.026 30.0041
667.041 41.6922
667.057 59.4409
667.078 95.0693
667.100 118.820
667.122 95.0656
667.143 59.4364
667.157 43.2879
667.171 32.2092
667.199 19.2143
667.226 12.5123
667.254 8.74028
667.282 6.42300
667.309 4.91728
667.364 3.14584
667.420 2.18636
667.475 1.61157
667.585 0.988278
667.696 0.675345
667.807 0.496701
668.028 0.310737
668.249 0.220774
668.470 0.170425
668.912 0.118766
669.354 0.0939057
669.796 0.0799095
670.680 0.0652912
672.449 0.0539953
674.218 0.0501448
677.755 0.0509667
681.292 0.0641394
681.292 0.0641408
681.293 0.0641443
681.293 0.0641478
681.294 0.0641541
681.296 0.0641666
681.299 0.0641917
681.307 0.0642428
681.321 0.0643447
681.350 0.0645511
681.409 0.0649713
681.525 0.0658427
681.758 0.0677178
682.223 0.0720785
683.154 0.0841638
684.085 0.103734
685.016 0.138610
685.948 0.211075
686.413 0.281707
686.879 0.408297
687.111 0.513550
687.344 0.672526
687.577 0.929596
687.810 1.38633
687.926 1.76181
688.042 2.32149
688.159 3.20890
688.275 4.73778
688.392 7.71723
688.450 10.3937
688.508 14.7388
688.566 22.4499
688.595 28.7327
688.624 37.9579
688.653 52.1582
688.683 75.2460
688.712 114.943
688.741 184.678
688.770 295.351
688.800 369.088
688.830 295.332
688.859 184.659
688.885 121.031
688.911 82.5072
688.937 58.8681
688.962 43.7425
689.014 26.5825
689.065 17.7539
689.116 12.6552
689.168 9.46767
689.270 5.87304
689.373 4.00217
689.476 2.91054
689.579 2.21897
689.681 1.75397
689.887 1.18793
690.092 0.871184
690.298 0.677601
690.503 0.552032
690.914 0.408423
691.325 0.339287
692.147 0.308552
692.969 0.388259
693.380 0.494658
693.791 0.699647
693.996 0.874443
694.202 1.14078
694.407 1.57284
694.613 2.33868
694.715 2.96527
694.818 3.89216
694.921 5.34690
695.023 7.81756
695.126 12.5184
695.178 16.6327
695.229 23.1130
695.280 34.1670
695.332 54.9416
695.357 72.7162
695.383 99.6416
695.409 141.765
695.434 207.717
695.467 332.456
695.500 415.247
695.533 332.023
695.566 207.686
695.592 140.518
695.618 98.3366
695.644 71.4518
695.670 53.8645
695.723 33.3404
695.775 22.5166
695.827 16.1659
695.879 12.1581
695.984 7.58049
696.088 5.17574
696.193 3.76116
696.297 2.86018
696.402 2.25151
696.611 1.50571
696.820 1.08404
697.029 0.822555
697.238 0.649322
697.656 0.441278
698.074 0.326008
698.910 0.209805
699.746 0.156262
700.582 0.128576
702.254 0.107835
703.927 0.115064
704.763 0.131573
705.599 0.165359
706.435 0.239647
706.853 0.313353
707.271 0.446178
707.480 0.556853
707.689 0.723984
707.898 0.994056
708.107 1.47333
708.211 1.86638
708.316 2.45098
708.420 3.37503
708.525 4.96156
708.629 8.02948
708.682 10.7676
708.734 15.1680
708.786 22.8983
708.812 29.1084
708.838 38.1145
708.865 51.8152
708.891 73.5334
708.917 109.755
708.943 171.292
708.972 274.078
709.000 342.225
709.029 273.680
709.057 171.276
709.084 109.028
709.110 72.6856
709.137 51.0378
709.163 37.5300
709.216 22.4643
709.269 14.8697
709.322 10.5402
709.375 7.86131
709.481 4.85853
709.587 3.30926
709.693 2.40895
709.798 1.84080
709.904 1.46026
710.116 0.998440
710.328 0.741396
710.751 0.484697
711.175 0.372256
711.598 0.321869
712.445 0.316029
713.292 0.422294
713.716 0.550115
714.139 0.791653
714.351 0.996342
714.563 1.30737
714.775 1.81157
714.986 2.70504
715.092 3.43581
715.198 4.51833
715.304 6.21890
715.357 7.45697
715.410 9.10753
715.463 11.3797
715.516 14.6116
715.569 19.4423
715.622 27.0686
715.675 40.1191
715.701 50.3534
715.728 64.7705
715.754 85.9707
715.780 118.099
715.807 168.837
715.833 248.896
715.867 398.545
715.900 497.948
715.933 398.036
715.967 248.862
716.006 141.549
716.045 87.1284
716.084 57.8812
716.123 40.9319
716.162 30.3278
716.201 23.3341
716.279 14.9957
716.357 10.4232
716.435 7.66035
716.591 4.64061
716.748 3.11447
716.904 2.23949
717.060 1.69135
717.216 1.32590
717.528 0.883679
717.841 0.636510
718.153 0.484440
718.465 0.384247
719.090 0.264434
719.714 0.198229
720.963 0.131380
722.212 0.100180
723.461 0.0834393
725.960 0.0680377
730.956 0.0634314
735.952 0.0751570
740.949 0.107629
743.447 0.140468
744.072 0.151920
744.696 0.165218
745.321 0.180784
745.945 0.199154
746.570 0.221056
747.194 0.247450
747.819 0.279680
748.443 0.319609
749.068 0.369952
749.693 0.434709
750.317 0.520081
750.942 0.635960
751.566 0.799135
752.191 1.03969
752.815 1.41646
753.440 2.05671
753.752 2.56036
754.064 3.28038
754.377 4.36025
754.689 6.08235
755.001 9.06523
755.157 11.4386
755.314 14.8417
755.470 19.9269
755.626 27.8584
755.782 40.7612
755.938 62.0288
756.119 99.0979
756.300 123.769
756.481 99.0585
756.662 62.0109
756.839 38.6989
757.015 25.4598
757.192 17.7492
757.368 13.0080
757.721 7.83920
758.074 5.29298
758.427 3.88942
758.780 3.06482
759.485 2.30212
760.191 2.27865
760.544 2.57620
760.897 3.24478
761.250 4.68885
761.427 6.02642
761.603 8.21258
761.780 12.0876
761.956 19.7835
762.044 26.7253
762.132 37.7963
762.221 56.3478
762.309 88.0409
762.404 140.551
762.500 175.529
762.596 140.483
762.691 87.9484
762.781 55.8070
762.871 37.1813
762.960 26.1368
763.050 19.2454
763.230 11.6083
763.409 7.75908
763.589 5.56649
763.768 4.20512
764.127 2.67278
764.486 1.87337
764.844 1.40232
765.562 0.893190
766.280 0.634516
766.998 0.482997
768.433 0.318292
769.869 0.233355
771.304 0.183018
774.175 0.128268
777.046 0.101152
779.917 0.0875741
782.788 0.0889773
783.505 0.0979840
784.223 0.126135
784.582 0.165643
784.761 0.204646
784.941 0.274578
785.120 0.419043
785.210 0.557026
785.300 0.796584
785.389 1.26767
785.434 1.69574
785.479 2.39657
785.524 3.66331
785.546 4.71027
785.569 6.27194
785.591 8.74174
785.614 12.8665
785.636 20.2698
785.647 26.1226
785.658 34.0891
785.669 43.6272
785.679 54.5347
785.700 68.1790
785.721 54.5331
785.742 34.0872
785.759 22.8591
785.776 15.9051
785.793 11.5070
785.809 8.65738
785.843 5.35271
785.877 3.62374
785.911 2.61265
785.945 1.97567
786.013 1.25221
786.080 0.872682
786.148 0.650186
786.284 0.412917
786.419 0.295914
786.555 0.229773
786.826 0.161601
787.368 0.110776
787.910 0.0922746
788.994 0.0786184
790.077 0.0737860
794.413 0.0713412
803.085 0.0886384
807.420 0.109823
811.756 0.152779
813.924 0.196677
816.092 0.292399
817.176 0.403752
817.718 0.506107
818.260 0.683163
818.802 1.04220
819.073 1.38595
819.344 1.99106
819.615 3.21984
819.750 4.37940
819.886 6.37046
820.021 10.2261
820.089 13.6737
820.157 19.2308
820.225 29.0281
820.258 36.9485
820.292 48.4484
820.326 66.0104
820.360 94.0561
820.394 141.447
820.428 222.734
820.464 356.219
820.500 445.209
820.536 356.193
820.572 222.711
820.610 134.407
820.648 86.2853
820.686 58.9954
820.723 42.5856
820.761 32.0479
820.799 24.9660
820.874 16.3547
820.950 11.5550
821.025 8.62114
821.176 5.38160
821.327 3.73436
821.478 2.78861
821.780 1.80963
822.082 1.34998
822.384 1.10949
822.988 0.913173
823.592 0.896842
824.196 0.994790
824.800 1.21914
825.404 1.65212
825.404 1.65232
825.405 1.65291
825.405 1.65350
825.407 1.65469
825.409 1.65706
825.414 1.66183
825.423 1.67144
825.443 1.69099
825.481 1.73142
825.558 1.81791
825.711 2.01711
826.018 2.55700
826.325 3.39783
826.632 4.80406
826.939 7.40730
827.092 9.62216
827.246 13.0142
827.399 18.5554
827.552 28.3455
827.706 47.3769
827.783 63.5766
827.859 86.9606
827.980 138.982
828.100 173.600
828.220 138.891
828.341 86.9187
828.413 64.6435
828.486 48.8802
828.558 37.7892
828.630 29.8754
828.775 19.8188
828.920 14.0296
829.065 10.4367
829.209 8.07214
829.354 6.44001
829.499 5.26995
829.789 3.74446
830.078 2.82834
830.368 2.23766
830.657 1.83636
830.947 1.55259
831.236 1.34583
831.815 1.07430
832.973 0.817430
834.132 0.729826
835.290 0.723859
837.606 0.872113
838.764 1.03109
839.922 1.27317
841.080 1.64509
842.239 2.23953
843.397 3.25392
844.555 5.15358
845.134 6.76258
845.713 9.17651
846.292 12.9069
846.871 18.6901
847.636 29.8565
848.400 37.2666
849.165 29.7845
849.929 18.6169
850.411 13.6496
850.892 10.1946
851.855 6.11703
852.818 4.00612
853.782 2.80766
854.745 2.07165
855.708 1.59053
857.634 1.02386
859.560 0.717332
861.486 0.533995
865.339 0.337113
869.191 0.243232
873.044 0.200703
874.970 0.197473
876.896 0.220406
877.859 0.260742
878.341 0.301594
878.822 0.375308
879.304 0.529017
879.545 0.678302
879.785 0.943621
880.026 1.48896
880.147 2.00986
880.267 2.91622
880.387 4.70825
880.448 6.34549
880.508 9.05331
880.568 13.9961
880.598 18.1424
880.628 24.4098
880.658 34.4482
880.688 51.7098
880.718 83.8714
880.733 110.089
880.748 146.703
880.774 234.715
880.800 293.437
880.826 234.708
880.852 146.696
880.868 108.044
880.884 81.1441
880.915 49.0029
880.947 32.2183
880.979 22.6578
881.011 16.7412
881.043 12.8635
881.107 8.28958
881.170 5.80282
881.234 4.31190
881.362 2.69147
881.489 1.88137
881.617 1.42251
881.872 0.957308
882.127 0.750293
882.382 0.655935
882.892 0.640130
883.402 0.824585
883.657 1.04657
883.912 1.46145
884.167 2.32874
884.294 3.15608
884.422 4.58276
884.485 5.71800
884.549 7.35177
884.581 8.45419
884.613 9.82933
884.645 11.5737
884.677 13.8218
884.708 16.8041
884.740 20.8559
884.772 26.5369
884.804 34.7749
884.836 47.3387
884.868 67.3567
884.900 101.091
884.931 158.736
884.966 253.932
885.000 317.413
885.034 253.914
885.069 158.716
885.102 99.5793
885.134 65.6870
885.167 45.7925
885.200 33.4732
885.233 25.4300
885.266 19.9316
885.332 13.1573
885.398 9.32553
885.463 6.95917
885.595 4.31986
885.727 2.96018
885.858 2.17067
886.121 1.33777
886.384 0.930253
886.648 0.701116
887.174 0.466165
887.700 0.354689
888.226 0.293866
889.279 0.235590
891.384 0.208954
893.489 0.233137
895.594 0.313554
896.646 0.396730
897.173 0.459548
897.436 0.499016
897.699 0.545545
897.962 0.600927
898.225 0.667483
898.488 0.748489
898.752 0.848364
899.015 0.973559
899.278 1.13329
899.541 1.34164
899.804 1.62053
900.067 2.00593
900.330 2.55913
900.593 3.39320
900.857 4.73295
901.120 7.07608
901.251 8.95717
901.383 11.6775
901.514 15.7890
901.646 22.2975
901.778 33.1084
901.909 51.3525
902.055 82.0301
902.200 102.451
902.346 82.0020
902.491 51.3298
902.664 29.0596
902.837 17.8420
903.010 11.8722
903.183 8.42296
903.356 6.27775
903.529 4.86411
903.875 3.18793
904.221 2.27682
904.567 1.73206
905.259 1.15060
905.950 0.876512
906.642 0.742562
908.026 0.690483
909.410 0.870201
910.102 1.09692
910.794 1.51497
911.485 2.35618
911.831 3.12247
912.177 4.37613
912.523 6.62120
912.696 8.46481
912.869 11.1897
913.042 15.4265
913.215 22.4014
913.388 34.6223
913.561 56.6927
913.731 90.6325
913.900 113.249
914.070 90.5921
914.239 56.6549
914.408 35.0109
914.576 22.8548
914.745 15.8327
914.913 11.5372
915.081 8.75548
915.250 6.86822
915.587 4.56178
915.924 3.27276
916.261 2.49037
916.934 1.66165
917.608 1.33893
917.945 1.32322
918.282 1.44635
918.619 1.85009
918.788 2.28744
918.956 3.08376
919.124 4.70336
919.209 6.20133
919.293 8.69623
919.377 13.2882
919.419 17.1573
919.461 23.0331
919.503 32.5006
919.546 48.9166
919.567 61.8535
919.588 79.8761
919.609 105.578
919.630 141.666
919.665 226.528
919.700 282.890
919.735 226.244
919.770 141.629
919.807 85.5722
919.844 55.0221
919.880 37.6922
919.917 27.2697
919.954 20.5740
919.990 16.0726
920.064 10.5944
920.137 7.53607
920.210 5.66257
920.357 3.58457
920.503 2.51806
920.650 1.89739
920.943 1.23621
921.236 0.905470
921.530 0.713473
922.116 0.505187
922.702 0.396170
923.289 0.329559
924.461 0.252592
926.807 0.184324
929.152 0.159524
931.498 0.159486
933.843 0.194178
935.016 0.245848
935.602 0.295578
936.188 0.382896
936.775 0.561200
937.068 0.732459
937.361 1.03493
937.654 1.65303
937.801 2.24095
937.947 3.26011
938.021 4.07684
938.094 5.26468
938.167 7.08631
938.241 10.0820
938.314 15.5040
938.351 20.0200
938.387 26.7680
938.424 37.4759
938.461 55.5223
938.497 88.2757
938.534 150.321
938.567 240.558
938.600 300.480
938.633 240.254
938.666 150.310
938.692 103.409
938.717 73.2679
938.742 53.8148
938.767 40.9167
938.818 25.6543
938.868 17.4855
938.919 12.6553
938.970 9.59174
939.071 6.07906
939.172 4.22520
939.273 3.13477
939.475 1.97357
939.677 1.40577
939.879 1.09158
940.283 0.787141
940.687 0.669154
941.091 0.636752
941.495 0.658214
941.899 0.726604
942.304 0.849472
942.506 0.937764
942.708 1.05001
942.910 1.19354
943.112 1.37888
943.314 1.62224
943.516 1.94823
943.718 2.39729
943.920 3.03702
944.122 3.98877
944.324 5.48503
944.526 8.01821
944.627 9.98380
944.728 12.7382
944.829 16.7305
944.930 22.7066
945.031 31.9243
945.132 46.1923
945.266 73.8484
945.400 92.2530
945.534 73.7984
945.668 46.1630
945.772 31.5280
945.876 22.2173
945.981 16.2492
946.085 12.3073
946.293 7.68360
946.502 5.22536
946.710 3.78007
946.919 2.86361
947.336 1.81523
947.753 1.26274
948.170 0.937127
949.004 0.589178
949.838 0.417421
950.671 0.320756
952.339 0.223126
954.007 0.179821
955.675 0.160236
959.011 0.157477
962.346 0.195475
964.014 0.239342
965.682 0.318670
967.350 0.479474
968.184 0.630636
969.018 0.891295
969.852 1.40683
970.269 1.88326
970.686 2.68741
971.103 4.21441
971.311 5.55551
971.520 7.68553
971.728 11.3580
971.937 18.4235
972.041 24.6046
972.145 34.1816
972.249 49.6328
972.353 74.8537
972.477 119.547
972.600 149.336
972.723 119.546
972.847 74.8892
972.919 56.0640
972.992 42.6735
973.138 26.3958
973.283 17.7104
973.428 12.6953
973.574 9.58516
973.719 7.54928
974.010 5.17408
974.301 3.94565
974.592 3.28921
974.883 2.97137
975.174 2.89712
975.465 3.04493
975.756 3.45355
976.047 4.24557
976.192 4.86574
976.337 5.71514
976.483 6.90225
976.628 8.60653
976.774 11.1538
976.919 15.1587
977.065 21.9169
977.137 27.1338
977.210 34.4057
977.283 44.8757
977.356 60.3958
977.428 84.0467
977.501 120.147
977.601 191.940
977.700 239.775
977.800 191.869
977.899 120.050
977.985 78.6677
978.072 53.6828
978.158 38.3512
978.244 28.5597
978.417 17.4478
978.590 11.7239
978.762 8.42061
978.935 6.35307
979.280 4.01125
979.626 2.78656
979.971 2.06605
980.662 1.29359
981.352 0.908115
982.043 0.687618
983.424 0.457743
984.805 0.348085
986.187 0.290101
988.949 0.244839
991.712 0.250628
994.474 0.299941
997.237 0.417901
998.618 0.526585
999.999 0.701018
1000.00 0.701180
1000.00 0.701342
1000.01 0.701989
1000.01 0.702475
1000.02 0.703612
1000.03 0.705895
1000.06 0.710334
1000.11 0.719354
1000.22 0.737987
1000.44 0.777975
1000.87 0.869469
1001.73 1.11568
1002.60 1.49716
1003.47 2.13540
1003.90 2.63039
1004.33 3.33007
1004.77 4.36692
1005.20 6.00164
1005.63 8.80496
1006.06 14.2145
1006.28 19.0129
1006.50 26.5530
1006.71 39.1397
1006.93 60.4441
1007.17 95.9722
1007.28 112.963
1007.40 120.327
1007.64 98.4044
1007.87 65.8691
1008.00 54.0328
1008.13 46.4848
1008.25 42.5843
1008.38 42.0177
1008.51 45.0512
1008.64 52.7391
1008.70 59.0613
1008.76 67.5965
1008.83 78.9029
1008.89 93.2814
1008.97 115.840
1009.05 141.520
1009.20 173.203
1009.28 162.686
1009.36 138.762
1009.51 88.3210
1009.68 53.8374
1009.84 35.1959
1010.01 24.6675
1010.18 18.3074
1010.51 11.3131
1010.84 7.78062
1011.18 5.72454
1011.51 4.41968
1012.18 2.89686
1012.84 2.06411
1013.51 1.55589
1014.84 0.986751
1016.18 0.689768
1017.51 0.515004
1020.18 0.328078
1022.84 0.236630
1025.51 0.187137
1030.84 0.146770
1036.17 0.154735
1038.84 0.180817
1041.51 0.235916
1044.17 0.356985
1045.51 0.474811
1046.17 0.562516
1046.84 0.681365
1047.51 0.848650
1048.17 1.09420
1048.84 1.47793
1049.17 1.75628
1049.50 2.12716
1049.84 2.63918
1050.17 3.37038
1050.50 4.47187
1050.84 6.24582
1051.17 9.38740
1051.34 11.9448
1051.50 15.6773
1051.67 21.4687
1051.84 30.8672
1052.00 47.2462
1052.17 76.2376
1052.34 120.777
1052.50 150.210
1052.67 121.017
1052.83 76.7747
1052.97 52.0080
1053.10 36.8197
1053.24 27.4100
1053.38 21.4399
1053.51 17.5624
1053.65 15.0968
1053.92 12.8948
1054.06 12.8992
1054.19 13.6937
1054.33 15.5250
1054.40 16.9859
1054.47 18.9556
1054.53 21.6104
1054.60 25.2172
1054.67 30.1897
1054.74 37.1860
1054.81 47.2779
1054.87 62.2325
1054.94 84.8893
1055.01 119.167
1055.11 189.228
1055.20 235.198
1055.25 221.287
1055.30 188.097
1055.39 118.500
1055.47 81.5720
1055.54 57.9659
1055.61 42.7911
1055.69 32.8315
1055.83 20.9594
1055.98 14.5729
1056.13 10.7519
1056.28 8.31742
1056.57 5.47510
1056.86 3.92655
1057.16 2.98741
1057.75 1.93474
1058.34 1.37775
1058.92 1.04313
1060.10 0.670610
1061.28 0.475290
1062.46 0.358998
1064.81 0.231882
1067.16 0.167205
1069.52 0.130077
1074.23 0.0929046
1078.94 0.0804771
1083.65 0.0904850
1086.00 0.115503
1087.18 0.142265
1088.35 0.191991
1089.53 0.298266
1090.12 0.402865
1090.71 0.589730
1091.00 0.744600
1091.30 0.975618
1091.45 1.13667
1091.59 1.34346
1091.74 1.61505
1091.89 1.98148
1092.03 2.49657
1092.18 3.24076
1092.33 4.38006
1092.48 6.24839
1092.55 7.67501
1092.62 9.61428
1092.70 12.4221
1092.77 16.5513
1092.84 23.1321
1092.92 33.9945
1092.99 53.7278
1093.03 69.3431
1093.06 89.9353
1093.13 144.247
1093.20 179.731
1093.27 143.387
1093.34 89.9145
1093.38 64.1565
1093.43 47.1239
1093.52 27.6013
1093.61 17.7900
1093.71 12.3248
1093.80 8.98276
1093.89 6.84542
1094.08 4.34757
1094.26 2.99958
1094.44 2.20017
1094.81 1.33525
1095.18 0.901951
1095.55 0.655866
1095.92 0.502223
1096.29 0.400477
1097.02 0.277963
1097.76 0.210141
1099.23 0.142252
1100.71 0.111659
1102.18 0.0966460
1105.13 0.0882915
1108.08 0.0998621
1109.55 0.116289
1111.03 0.147747
1112.50 0.214812
1113.24 0.280253
1113.98 0.396655
1114.71 0.635240
1115.08 0.862595
1115.45 1.25503
1115.82 2.02640
1116.00 2.72258
1116.19 3.86100
1116.37 5.91895
1116.47 7.60936
1116.56 10.1212
1116.65 14.0508
1116.74 20.5862
1116.83 32.1888
1116.93 53.5381
1117.01 85.8744
1117.10 107.124
1117.19 85.4667
1117.28 53.5234
1117.37 32.3476
1117.46 20.8593
1117.55 14.2645
1117.64 10.3230
1117.73 7.76527
1117.82 6.05852
1118.00 3.96974
1118.18 2.80379
1118.36 2.09031
1118.72 1.30136
1119.09 0.899335
1119.45 0.667874
1120.17 0.426763
1120.90 0.311786
1121.62 0.249657
1123.07 0.192467
1124.52 0.174246
1125.96 0.174927
1128.86 0.216063
1131.75 0.330226
1133.20 0.444898
1134.65 0.646491
1135.37 0.809021
1136.10 1.04589
1136.82 1.40952
1137.55 2.00755
1138.27 3.08891
1138.63 3.98681
1138.99 5.32999
1139.36 7.45025
1139.72 11.0205
1140.08 17.4688
1140.44 29.5434
1140.77 47.0793
1141.10 58.6849
1141.43 47.0453
1141.76 29.5102
1142.10 17.9578
1142.44 11.5912
1142.78 7.95006
1143.12 5.74919
1143.46 4.33002
1143.80 3.37392
1144.48 2.20918
1145.15 1.55710
1145.83 1.15792
1147.19 0.716943
1148.55 0.492739
1149.91 0.364896
1151.26 0.286527
1152.62 0.236998
1155.34 0.190651
1156.69 0.189938
1158.05 0.210838
1159.41 0.276897
1160.09 0.349220
1160.77 0.483962
1161.44 0.770680
1161.78 1.04948
1162.12 1.54131
1162.46 2.53481
1162.63 3.45965
1162.80 5.00722
1162.89 6.21680
1162.97 7.92586
1163.06 10.4465
1163.14 14.3129
1163.23 20.8209
1163.27 25.8712
1163.31 32.6945
1163.35 42.6473
1163.40 56.9019
1163.44 78.1981
1163.48 109.984
1163.54 176.383
1163.60 219.621
1163.66 175.204
1163.72 109.964
1163.78 69.5616
1163.83 46.4677
1163.89 32.6822
1163.95 24.0379
1164.06 14.4193
1164.17 9.55191
1164.28 6.75976
1164.40 5.04554
1164.62 3.12256
1164.84 2.12472
1165.07 1.54664
1165.29 1.18071
1165.52 0.934547
1165.97 0.633658
1166.41 0.464046
1167.31 0.289412
1168.21 0.205332
1169.11 0.158323
1170.90 0.109967
1172.70 0.0868688
1174.49 0.0744893
1178.08 0.0650525
1181.67 0.0698899
1183.46 0.0796164
1185.26 0.0989697
1187.05 0.139375
1187.95 0.177011
1188.85 0.240430
1189.74 0.361634
1190.19 0.470673
1190.64 0.652040
1191.09 1.00078
1191.31 1.31851
1191.54 1.85720
1191.76 2.91521
1191.82 3.34270
1191.87 3.88394
1191.93 4.58439
1191.99 5.51475
1192.04 6.78975
1192.10 8.60537
1192.13 9.81719
1192.15 11.3179
1192.18 13.2066
1192.21 15.6278
1192.24 18.7986
1192.27 23.0552
1192.29 28.9372
1192.32 37.3435
1192.35 49.8326
1192.38 69.1921
1192.41 100.400
1192.43 151.233
1192.47 240.409
1192.50 299.431
1192.53 240.458
1192.57 151.340
1192.60 99.1623
1192.62 68.5505
1192.65 49.5589
1192.68 37.3076
1192.74 23.3112
1192.79 16.0748
1192.85 11.8644
1192.90 9.31789
1193.02 6.54260
1193.13 5.24549
1193.24 4.68455
1193.47 4.78838
1193.69 6.37854
1193.80 8.06256
1193.92 10.8466
1194.03 15.8088
1194.09 19.7426
1194.14 25.3766
1194.20 33.9331
1194.25 47.0018
1194.31 68.0374
1194.37 102.263
1194.43 163.609
1194.50 204.600
1194.57 163.545
1194.63 102.154
1194.70 63.3353
1194.77 41.4396
1194.83 28.7416
1194.90 20.9443
1194.96 15.8828
1195.03 12.4364
1195.16 8.20484
1195.29 5.81696
1195.43 4.34281
1195.69 2.69513
1195.95 1.84332
1196.22 1.34570
1196.75 0.815542
1197.27 0.552561
1197.80 0.402579
1198.33 0.308711
1198.86 0.245929
1199.91 0.169545
1200.97 0.126441
1203.08 0.0818732
1205.19 0.0603960
1207.31 0.0484443
1211.53 0.0365834
1211.53 0.0365799
1211.54 0.0365678
1211.54 0.0365574
1211.56 0.0365348
1211.58 0.0364900
1211.64 0.0364011
1211.74 0.0362278
1211.95 0.0358907
1212.36 0.0352604
1213.19 0.0341549
1214.84 0.0324846
1218.15 0.0309022
1224.76 0.0349331
1228.07 0.0443440
1229.72 0.0542775
1231.38 0.0726750
1233.03 0.112139
1233.86 0.151294
1234.68 0.222064
1235.10 0.281355
1235.51 0.370948
1235.92 0.516473
1236.34 0.774763
1236.54 0.987484
1236.75 1.30450
1236.96 1.80678
1237.16 2.66624
1237.27 3.35573
1237.37 4.34037
1237.47 5.82939
1237.58 8.22962
1237.68 12.5003
1237.73 15.9618
1237.78 20.8995
1237.84 28.5567
1237.89 40.5573
1237.94 61.1248
1237.99 95.6919
1238.05 153.761
1238.10 191.595
1238.16 152.640
1238.21 95.6772
1238.27 56.7043
1238.33 36.1316
1238.39 24.5901
1238.45 17.6675
1238.51 13.1893
1238.57 10.2382
1238.69 6.66023
1238.80 4.65492
1238.92 3.44190
1239.16 2.09664
1239.40 1.41184
1239.63 1.01707
1239.87 0.769165
1240.11 0.604018
1240.58 0.402968
1241.05 0.290728
1241.53 0.221554
1242.00 0.176136
1242.95 0.121949
1243.90 0.0922955
1245.79 0.0629146
1247.68 0.0498247
1249.58 0.0434398
1253.37 0.0396993
1257.16 0.0434326
1260.94 0.0587069
1262.84 0.0792790
1263.79 0.0991327
1264.73 0.134537
1265.68 0.208432
1266.15 0.280799
1266.63 0.410309
1266.86 0.518037
1267.10 0.680385
1267.34 0.941790
1267.57 1.40038
1267.69 1.77702
1267.81 2.32873
1267.93 3.20018
1268.05 4.66329
1268.17 7.45661
1268.23 9.87048
1268.29 13.6549
1268.34 20.0363
1268.40 31.8778
1268.43 42.0420
1268.46 56.6930
1268.49 79.9525
1268.52 114.480
1268.56 183.460
1268.60 227.672
1268.64 181.618
1268.68 114.470
1268.72 70.1975
1268.76 45.9639
1268.80 31.8733
1268.84 23.2051
1268.88 17.4551
1268.92 13.6530
1268.99 8.97906
1269.07 6.31491
1269.15 4.69715
1269.31 2.89263
1269.46 1.96012
1269.62 1.42068
1269.78 1.08120
1269.93 0.855164
1270.25 0.579144
1270.56 0.425336
1271.19 0.269121
1271.81 0.196290
1272.44 0.157577
1273.69 0.122534
1274.95 0.111583
1276.20 0.112047
1278.71 0.136255
1281.21 0.202447
1282.47 0.269095
1283.72 0.388022
1284.35 0.485977
1284.97 0.632290
1285.60 0.865223
1286.23 1.26925
1286.54 1.59494
1286.85 2.06849
1287.17 2.79725
1287.48 4.00195
1287.79 6.20984
1287.95 8.06521
1288.11 10.8526
1288.26 15.3489
1288.42 23.0360
1288.58 37.4706
1288.73 65.6472
1288.87 105.022
1289.00 130.950
1289.13 104.686
1289.27 65.3823
1289.38 44.0518
1289.48 30.6975
1289.59 22.2677
1289.70 16.7560
1289.92 10.3672
1290.13 7.01941
1290.35 5.05468
1290.56 3.81636
1290.99 2.41167
1291.43 1.67639
1291.86 1.24855
1292.29 0.979346
1292.72 0.800858
1293.58 0.591932
1294.44 0.488461
1295.31 0.442342
1296.17 0.435498
1297.03 0.463513
1297.90 0.532160
1298.33 0.586959
1298.76 0.660408
1299.19 0.759122
1299.62 0.893228
1300.05 1.07950
1300.48 1.34439
1300.91 1.73638
1301.35 2.34621
1301.78 3.36237
1302.21 5.19847
1302.42 6.70718
1302.64 8.89130
1302.86 12.1527
1303.07 16.9691
1303.39 27.0802
1303.70 33.8049
1304.02 27.0630
1304.33 16.9518
1304.60 11.2125
1304.87 7.70736
1305.13 5.54140
1305.40 4.15272
1305.94 2.56379
1306.47 1.74541
1307.01 1.27541
1307.54 0.986717
1308.61 0.681901
1309.69 0.579258
1310.22 0.595055
1310.76 0.682737
1311.29 0.924345
1311.56 1.17720
1311.83 1.63207
1312.10 2.55979
1312.23 3.42309
1312.36 4.85835
1312.50 7.54351
1312.56 9.83791
1312.63 13.3698
1312.70 19.1698
1312.76 29.5099
1312.80 38.0085
1312.83 49.8417
1312.86 67.0381
1312.90 91.9393
1312.95 147.749
1313.00 184.074
1313.05 146.587
1313.10 91.9193
1313.13 68.2836
1313.17 51.5764
1313.23 31.6847
1313.29 21.0718
1313.35 14.9211
1313.41 11.0389
1313.47 8.52313
1313.59 5.52451
1313.72 3.87099
1313.84 2.88038
1314.08 1.79357
1314.33 1.23997
1314.57 0.921765
1315.06 0.584855
1315.55 0.417801
1316.04 0.321957
1317.02 0.219227
1318.00 0.166339
1318.97 0.134587
1320.93 0.0988485
1322.89 0.0806354
1324.84 0.0741699
1325.82 0.0784281
1326.80 0.0999579
1327.29 0.133225
1327.53 0.167035
1327.78 0.228325
1328.02 0.357441
1328.15 0.482079
1328.27 0.701319
1328.39 1.14636
1328.45 1.55713
1328.51 2.24778
1328.57 3.54000
1328.60 4.67441
1328.63 6.37725
1328.67 9.30451
1328.70 14.4407
1328.71 18.9660
1328.73 25.1934
1328.74 34.4276
1328.76 48.0905
1328.78 76.7305
1328.80 95.7465
1328.82 76.7289
1328.84 48.0885
1328.86 34.4256
1328.87 25.6993
1328.90 15.4148
1328.93 10.0914
1328.96 7.06725
1328.99 5.15623
1329.01 3.95746
1329.07 2.54093
1329.13 1.76096
1329.18 1.30199
1329.30 0.801422
1329.41 0.547512
1329.52 0.403581
1329.75 0.252797
1329.97 0.179824
1330.20 0.138943
1330.65 0.0969103
1331.55 0.0650247
1332.45 0.0527065
1334.25 0.0422713
1336.05 0.0374282
1343.25 0.0304149
1350.45 0.0312722
1354.06 0.0387024
1354.96 0.0453669
1355.86 0.0630466
1356.31 0.0866291
1356.76 0.150865
1356.98 0.236236
1357.10 0.318850
1357.21 0.462323
1357.32 0.751686
1357.38 1.01673
1357.43 1.45910
1357.49 2.29826
1357.52 3.00505
1357.55 4.09153
1357.57 5.87292
1357.60 9.04248
1357.63 15.2593
1357.64 20.6034
1357.66 28.3750
1357.67 36.4923
1357.68 45.7441
1357.70 56.6025
1357.71 53.1407
1357.72 44.9035
1357.74 28.3741
1357.76 17.6758
1357.79 11.5973
1357.81 8.05472
1357.83 5.95597
1357.87 3.56439
1357.91 2.36148
1357.95 1.67866
1357.99 1.25595
1358.07 0.783186
1358.16 0.537245
1358.24 0.396458
1358.40 0.247758
1358.73 0.134148
1359.06 0.0927123
1359.72 0.0627341
1360.37 0.0527609
1361.69 0.0474443
1363.00 0.0480811
1365.63 0.0563499
1368.26 0.0741624
1370.88 0.112352
1372.20 0.149686
1373.51 0.216376
1374.17 0.271537
1374.83 0.354389
1375.48 0.487282
1376.14 0.720664
1376.47 0.910437
1376.80 1.18900
1377.13 1.62471
1377.45 2.35598
1377.78 3.73211
1377.95 4.91654
1378.11 6.75874
1378.28 9.85484
1378.44 15.4819
1378.52 20.1378
1378.60 26.9749
1378.69 37.2596
1378.77 52.7296
1378.88 84.3058
1379.00 105.333
1379.12 84.2890
1379.23 52.7137
1379.30 39.1426
1379.37 29.6611
1379.51 18.1656
1379.65 12.0116
1379.79 8.48333
1379.93 6.27454
1380.06 4.82904
1380.34 3.10463
1380.62 2.16359
1380.89 1.59632
1381.45 0.978549
1382.00 0.667190
1382.56 0.489587
1383.66 0.306584
1384.77 0.220630
1385.88 0.175500
1388.09 0.138485
1390.31 0.137352
1392.52 0.167089
1393.63 0.202458
1394.74 0.275292
1395.29 0.352893
1395.57 0.420454
1395.84 0.532399
1396.12 0.751595
1396.26 0.957036
1396.40 1.30904
1396.54 2.01130
1396.60 2.65403
1396.67 3.72852
1396.71 4.57345
1396.74 5.72701
1396.78 7.46892
1396.81 10.0823
1396.83 12.0675
1396.85 14.5309
1396.86 17.8154
1396.88 22.3019
1396.90 29.0377
1396.92 38.2956
1396.93 51.9024
1396.95 71.8340
1396.98 115.196
1397.00 142.459
1397.01 133.888
1397.03 113.428
1397.05 71.8411
1397.07 47.3480
1397.10 32.4504
1397.12 23.2807
1397.14 17.4017
1397.18 10.7212
1397.23 7.33382
1397.27 5.32582
1397.31 4.09636
1397.40 2.68821
1397.49 1.95267
1397.58 1.53300
1397.75 1.09904
1397.92 0.899829
1398.10 0.803194
1398.45 0.744259
1399.14 0.854184
1399.49 0.985518
1399.84 1.17601
1400.19 1.45060
1400.54 1.85370
1400.89 2.47022
1401.24 3.46814
1401.59 5.23653
1401.76 6.67481
1401.93 8.76285
1402.11 11.9712
1402.28 17.1018
1402.46 25.7791
1402.63 40.7813
1402.82 65.3117
1403.00 81.5463
1403.19 65.1478
1403.37 40.7583
1403.57 23.8461
1403.78 14.9875
1403.98 10.0911
1404.19 7.21028
1404.39 5.38133
1404.60 4.16715
1405.00 2.70588
1405.41 1.89651
1405.82 1.40575
1406.64 0.865462
1407.46 0.591310
1408.27 0.434203
1409.91 0.271167
1411.54 0.194228
1413.18 0.154013
1416.45 0.123937
1419.71 0.136161
1421.35 0.162596
1422.98 0.216286
1424.62 0.331949
1425.44 0.442795
1426.25 0.633452
1426.66 0.784532
1427.07 1.00062
1427.48 1.32614
1427.89 1.84464
1428.30 2.74437
1428.50 3.45734
1428.70 4.47808
1428.91 6.00664
1429.11 8.37291
1429.32 12.2007
1429.52 18.4668
1429.76 29.5173
1430.00 36.8756
1430.24 29.5046
1430.48 18.4544
1430.75 10.6994
1431.02 6.67111
1431.30 4.47824
1431.57 3.19068
1431.84 2.38142
1432.11 1.84352
1432.66 1.19939
1433.20 0.845179
1433.74 0.630677
1434.83 0.396345
1435.92 0.278831
1437.01 0.213063
1439.18 0.151323
1441.36 0.139238
1442.45 0.151249
1443.53 0.184823
1444.62 0.267406
1445.16 0.352347
1445.71 0.506717
1445.98 0.635522
1446.25 0.829284
1446.52 1.13952
1446.80 1.68101
1447.07 2.75352
1447.20 3.73378
1447.34 5.35455
1447.48 8.31015
1447.54 10.7861
1447.61 14.5231
1447.68 20.4947
1447.75 30.7256
1447.82 49.6721
1447.85 65.0760
1447.88 85.7465
1447.94 136.932
1448.00 170.954
1448.06 136.919
1448.12 85.7332
1448.16 61.9554
1448.20 46.0376
1448.27 27.2395
1448.35 17.6629
1448.43 12.2834
1448.50 9.00358
1448.58 6.87053
1448.73 4.37011
1448.89 3.02234
1449.04 2.21616
1449.35 1.34451
1449.66 0.906048
1449.96 0.656399
1450.27 0.499956
1450.58 0.396047
1451.19 0.270117
1451.81 0.199583
1453.04 0.127112
1454.27 0.0921895
1455.50 0.0725070
1457.96 0.0519597
1460.42 0.0418350
1462.88 0.0360931
1467.80 0.0304660
1467.80 0.0304647
1467.81 0.0304600
1467.81 0.0304561
1467.83 0.0304475
1467.85 0.0304311
1467.90 0.0303979
1468.01 0.0303328
1468.21 0.0302070
1468.62 0.0299732
1469.43 0.0295732
1471.07 0.0290231
1474.33 0.0288450
1480.86 0.0330786
1484.12 0.0402850
1485.75 0.0474803
1487.38 0.0604581
1489.02 0.0878006
1489.83 0.114727
1490.65 0.163369
1491.06 0.204041
1491.46 0.265749
1491.87 0.366035
1492.28 0.545415
1492.48 0.693655
1492.69 0.915749
1492.89 1.27025
1493.10 1.88746
1493.20 2.38367
1493.30 3.10719
1493.40 4.22010
1493.50 6.05732
1493.55 7.45824
1493.61 9.40043
1493.66 12.1951
1493.71 16.4044
1493.76 23.1119
1493.81 34.5589
1493.84 43.6196
1493.86 55.6409
1493.89 72.3056
1493.91 95.2430
1493.96 152.660
1494.00 191.056
1494.05 152.652
1494.09 95.2343
1494.12 69.2521
1494.15 51.3569
1494.21 30.4813
1494.26 19.8032
1494.32 13.7878
1494.38 10.1129
1494.44 7.71935
1494.55 4.92674
1494.67 3.40285
1494.78 2.49751
1495.02 1.50959
1495.25 1.01268
1495.48 0.730525
1495.71 0.554490
1495.94 0.437395
1496.40 0.296096
1496.87 0.217796
1497.79 0.138667
1498.71 0.101847
1499.64 0.0821765
1501.49 0.0639510
1505.19 0.0564961
1508.89 0.0643877
1512.58 0.0884783
1514.43 0.113052
1516.28 0.157243
1518.13 0.249283
1519.06 0.338645
1519.98 0.497209
1520.45 0.627876
1520.91 0.822478
1521.37 1.13159
1521.83 1.66646
1522.06 2.09621
1522.29 2.71741
1522.53 3.66656
1522.76 5.21908
1522.99 8.00581
1523.10 10.3151
1523.22 13.7157
1523.33 19.0811
1523.45 27.9209
1523.57 43.7413
1523.68 72.5479
1523.79 116.042
1523.90 145.028
1524.01 116.023
1524.12 72.5301
1524.19 53.0007
1524.26 39.6250
1524.40 23.7996
1524.54 15.5849
1524.67 10.9123
1524.81 8.03896
1524.95 6.15879
1525.23 3.94177
1525.50 2.73702
1525.78 2.01736
1526.33 1.23593
1526.88 0.844207
1527.44 0.622090
1528.54 0.394402
1529.65 0.289473
1530.75 0.236653
1532.96 0.203532
1535.17 0.235193
1536.28 0.284774
1537.38 0.381669
1537.93 0.464273
1538.49 0.589404
1539.04 0.791602
1539.31 0.942122
1539.59 1.14684
1539.87 1.43633
1540.14 1.86094
1540.42 2.52198
1540.70 3.63218
1540.83 4.50067
1540.97 5.71718
1541.11 7.50569
1541.25 10.2789
1541.39 14.8821
1541.52 23.2247
1541.59 30.0764
1541.66 40.0671
1541.73 54.9652
1541.80 77.1584
1541.90 123.390
1542.00 154.202
1542.10 123.373
1542.20 77.1425
1542.29 49.5327
1542.38 33.3862
1542.47 23.6387
1542.56 17.4760
1542.74 10.5384
1542.92 7.02779
1543.10 5.00949
1543.28 3.76162
1543.64 2.35917
1544.00 1.63231
1544.36 1.21156
1545.09 0.770307
1545.81 0.560663
1546.53 0.450824
1547.97 0.367025
1549.41 0.392437
1550.13 0.454161
1550.86 0.579985
1551.22 0.688118
1551.58 0.852072
1551.94 1.11522
1552.30 1.57247
1552.48 1.94195
1552.66 2.47736
1552.84 3.29925
1553.02 4.65246
1553.20 7.12486
1553.29 9.17782
1553.38 12.2620
1553.47 17.1600
1553.56 25.4815
1553.65 40.7152
1553.74 69.9078
1553.82 111.724
1553.90 139.595
1553.98 111.714
1554.06 69.9010
1554.13 46.7483
1554.19 32.5702
1554.26 23.5309
1554.32 17.7371
1554.45 10.9893
1554.58 7.45723
1554.72 5.40252
1554.85 4.11005
1555.11 2.64891
1555.37 1.88520
1555.63 1.44335
1556.15 0.984951
1556.68 0.777991
1557.20 0.683702
1557.72 0.653534
1557.98 0.656544
1558.25 0.670602
1558.51 0.696102
1558.77 0.733927
1559.03 0.786369
1559.29 0.856208
1559.55 0.948858
1559.81 1.07098
1560.08 1.23492
1560.34 1.45742
1560.60 1.77002
1560.86 2.22180
1561.12 2.91211
1561.38 4.02772
1561.51 4.86648
1561.65 6.01077
1561.78 7.62358
1561.91 9.96512
1562.04 13.5808
1562.17 19.4342
1562.30 29.4366
1562.43 46.7696
1562.57 74.7183
1562.70 93.1321
1562.84 74.4882
1562.97 46.7629
1563.06 33.4427
1563.16 24.5543
1563.25 18.5021
1563.34 14.3827
1563.53 9.31786
1563.71 6.52718
1563.90 4.83308
1564.08 3.74612
1564.45 2.48101
1564.82 1.81030
1565.19 1.41814
1565.92 1.01606
1566.66 0.845949
1567.40 0.785723
1568.88 0.858575
1569.61 0.984632
1570.35 1.19258
1571.09 1.52732
1571.83 2.08282
1572.57 3.06979
1572.94 3.86691
1573.30 5.02350
1573.67 6.77296
1574.04 9.54741
1574.41 14.1563
1574.78 21.9516
1575.19 35.1805
1575.60 44.0354
1576.01 35.1516
1576.42 21.9177
1576.69 15.8529
1576.96 11.7218
1577.49 6.93192
1578.03 4.50172
1578.57 3.14131
1579.10 2.31076
1579.64 1.77163
1580.71 1.13856
1581.79 0.796841
1582.86 0.592113
1585.01 0.369920
1587.15 0.258761
1589.30 0.196079
1593.59 0.134995
1597.88 0.116613
1600.03 0.120693
1602.18 0.138930
1604.32 0.187901
1605.40 0.239305
1606.47 0.333487
1607.54 0.530362
1608.08 0.719814
1608.61 1.04932
1609.15 1.70135
1609.42 2.29432
1609.69 3.27078
1609.96 5.04979
1610.09 6.52765
1610.22 8.74556
1610.36 12.2626
1610.49 18.2243
1610.63 29.1011
1610.76 49.8485
1610.88 79.7245
1611.00 99.6348
1611.12 79.7104
1611.24 49.8344
1611.32 36.6191
1611.39 27.3972
1611.54 16.5217
1611.69 10.8206
1611.84 7.59433
1611.99 5.59433
1612.14 4.29338
1612.44 2.75174
1612.74 1.91538
1613.03 1.41299
1613.63 0.867146
1614.23 0.592211
1614.83 0.435171
1616.02 0.271466
1617.22 0.192380
1618.41 0.148382
1620.80 0.104004
1623.19 0.0838685
1625.58 0.0740386
1630.36 0.0691761
1635.14 0.0779490
1639.93 0.107415
1642.32 0.141401
1643.51 0.170435
1644.71 0.216891
1645.90 0.302760
1646.50 0.379871
1647.10 0.510094
1647.69 0.767549
1647.99 1.00871
1648.29 1.42334
1648.59 2.24444
1648.74 3.00165
1648.89 4.25648
1649.04 6.59949
1649.11 8.60324
1649.19 11.6418
1649.26 16.6954
1649.34 25.5721
1649.41 43.2590
1649.45 58.2961
1649.49 80.1311
1649.54 127.854
1649.60 159.587
1649.66 127.852
1649.71 80.1356
1649.77 48.3007
1649.83 31.1869
1649.89 21.3338
1649.95 15.4932
1650.01 11.6882
1650.07 9.16813
1650.19 6.08041
1650.31 4.36285
1650.43 3.31625
1650.55 2.63487
1650.67 2.17202
1650.78 1.83994
1650.90 1.59706
1651.14 1.27707
1651.38 1.08782
1651.62 0.973730
1652.09 0.869870
1652.57 0.862746
1653.04 0.920141
1653.52 1.03645
1653.99 1.22209
1654.47 1.50250
1654.94 1.93074
1655.42 2.60623
1655.90 3.74280
1656.37 5.81480
1656.61 7.52874
1656.85 10.0258
1657.08 13.7786
1657.32 19.3634
1657.66 30.8579
1658.00 38.4803
1658.34 30.8377
1658.68 19.3392
1658.94 13.3019
1659.20 9.43513
1659.46 6.93729
1659.72 5.27472
1660.24 3.31241
1660.76 2.26222
1661.28 1.64124
1661.80 1.24729
1662.84 0.795600
1663.88 0.557499
1664.92 0.418066
1667.00 0.272820
1669.09 0.211029
1671.17 0.204758
1672.21 0.239027
1672.73 0.280845
1673.25 0.361700
1673.77 0.538019
1674.03 0.711992
1674.29 1.02283
1674.55 1.65940
1674.68 2.26185
1674.81 3.29631
1674.94 5.29519
1675.00 7.07497
1675.07 9.93652
1675.13 14.9421
1675.20 24.7776
1675.23 33.7293
1675.26 47.4752
1675.30 71.0215
1675.33 109.544
1675.36 175.207
1675.40 218.979
1675.44 175.200
1675.47 109.537
1675.50 74.8258
1675.53 53.3367
1675.55 39.3606
1675.58 30.0020
1675.64 18.8823
1675.69 12.8907
1675.74 9.28532
1675.80 7.03524
1675.91 4.44254
1676.02 3.05787
1676.12 2.24742
1676.34 1.37666
1676.56 0.942348
1676.77 0.696068
1677.21 0.441827
1677.64 0.319275
1678.07 0.251142
1678.94 0.181779
1679.81 0.149277
1680.67 0.132216
1682.41 0.119237
1684.14 0.124072
1685.87 0.156836
1686.74 0.205009
1687.17 0.252672
1687.61 0.338502
1688.04 0.518380
1688.26 0.693381
1688.47 1.00211
1688.69 1.63364
1688.80 2.22650
1688.91 3.24011
1689.01 5.21289
1689.07 6.95029
1689.12 9.73051
1689.18 14.5603
1689.23 23.9473
1689.26 32.2333
1689.28 45.2007
1689.31 66.3681
1689.34 101.383
1689.37 161.803
1689.40 201.938
1689.43 161.799
1689.46 101.379
1689.50 58.9403
1689.53 37.2542
1689.57 24.9659
1689.60 17.9136
1689.64 13.3251
1689.67 10.3531
1689.74 6.75684
1689.81 4.73533
1689.87 3.52301
1690.01 2.17643
1690.15 1.48892
1690.29 1.09694
1690.56 0.687120
1690.84 0.488613
1691.11 0.378940
1691.66 0.269201
1692.21 0.219869
1692.76 0.195479
1693.85 0.178648
1696.05 0.196677
1698.24 0.261295
1700.44 0.406871
1701.53 0.547379
1702.63 0.790049
1703.73 1.26234
1704.28 1.68537
1704.83 2.36819
1705.38 3.57523
1705.65 4.55131
1705.92 5.97599
1706.20 8.16189
1706.47 11.6698
1706.75 17.6209
1707.02 27.9617
1707.31 44.9129
1707.60 56.2917
1707.89 44.8948
1708.18 27.9451
1708.47 17.1370
1708.76 11.1401
1709.05 7.68335
1709.34 5.58295
1709.63 4.22202
1709.92 3.30263
1710.50 2.17895
1711.08 1.54799
1711.66 1.16195
1712.83 0.735464
1713.99 0.520868
1715.15 0.401377
1717.47 0.293968
1719.79 0.285858
1720.95 0.321482
1722.11 0.406478
1723.28 0.602776
1723.86 0.798046
1724.44 1.14273
1724.73 1.42321
1725.02 1.83302
1725.31 2.46654
1725.60 3.51835
1725.74 4.33090
1725.89 5.45605
1726.03 7.08469
1726.18 9.55691
1726.32 13.5391
1726.47 20.4421
1726.54 25.9101
1726.61 33.4575
1726.69 44.3171
1726.76 59.4214
1726.88 94.9696
1727.00 118.639
1727.12 94.9529
1727.24 59.4038
1727.34 39.6756
1727.44 27.4534
1727.54 19.8086
1727.64 14.8858
1727.84 9.15309
1728.04 6.17149
1728.24 4.42834
1728.44 3.33679
1728.84 2.09503
1729.24 1.44292
1729.64 1.06006
1730.43 0.652076
1731.23 0.449974
1732.03 0.335369
1733.62 0.216264
1735.22 0.158548
1736.81 0.126150
1740.00 0.0930963
1743.19 0.0779912
1746.38 0.0707430
1752.76 0.0678705
1759.14 0.0751521
1765.52 0.0937468
1768.71 0.109733
1770.31 0.120329
1771.90 0.133296
1773.50 0.149356
1775.09 0.169555
1776.69 0.195465
1778.28 0.229517
1778.28 0.229566
1778.29 0.229714
1778.29 0.229862
1778.31 0.230159
1778.33 0.230755
1778.38 0.231955
1778.47 0.234363
1778.66 0.239342
1779.05 0.249880
1779.81 0.273571
1781.34 0.334945
1782.86 0.425298
1784.39 0.569122
1785.92 0.827744
1786.68 1.04957
1787.44 1.40249
1788.21 2.03346
1788.59 2.56324
1788.97 3.37436
1789.35 4.72307
1789.73 7.20098
1789.93 9.28009
1790.12 12.3862
1790.31 17.1718
1790.50 24.5341
1790.75 38.7981
1791.00 48.2818
1791.25 38.8765
1791.50 24.8270
1791.79 14.9565
1792.08 9.92742
1792.36 7.28164
1792.65 5.82587
1793.22 4.57665
1793.80 4.42809
1794.37 4.98133
1794.94 6.27894
1795.52 8.67111
1796.09 12.8193
1796.75 20.1011
1797.40 24.9606
1798.06 19.9931
1798.71 12.6079
1799.19 8.90624
1799.67 6.49054
1800.15 4.91495
1800.63 3.86502
1801.58 2.65636
1802.54 2.10109
1803.50 1.97597
1803.98 2.09980
1804.46 2.43632
1804.94 3.19441
1805.18 3.89468
1805.42 5.01180
1805.66 6.92613
1805.90 10.4790
1806.02 13.4780
1806.14 17.9460
1806.26 24.7824
1806.37 35.1533
1806.54 55.8134
1806.70 69.5895
1806.86 55.7782
1807.03 35.0951
1807.16 23.5490
1807.30 16.4339
1807.43 12.0018
1807.57 9.14993
1807.84 5.84783
1808.11 4.13285
1808.38 3.13449
1808.66 2.51159
1809.20 1.81362
1809.74 1.46873
1810.28 1.29514
1811.37 1.23183
1812.46 1.49425
1813.00 1.81536
1813.54 2.38397
1813.81 2.83098
1814.08 3.45485
1814.36 4.36106
1814.63 5.72324
1814.90 7.89794
1815.17 11.5742
1815.31 14.4099
1815.44 18.2683
1815.58 23.6502
1815.71 30.9895
1815.96 49.4539
1816.20 61.6888
1816.45 49.3428
1816.69 30.9449
1816.95 18.4482
1817.22 11.7584
1817.48 8.03237
1817.74 5.81526
1818.01 4.39841
1818.27 3.45088
1818.80 2.30082
1819.33 1.65897
1819.85 1.26644
1820.91 0.829658
1821.96 0.603993
1823.02 0.472231
1825.13 0.332346
1827.23 0.265383
1829.34 0.231657
1833.56 0.217441
1837.78 0.264230
1839.89 0.324671
1840.94 0.371834
1842.00 0.436856
1843.05 0.528796
1844.10 0.663065
1845.16 0.868906
1846.21 1.20444
1846.74 1.45733
1847.27 1.80259
1847.80 2.29048
1848.32 3.00772
1848.85 4.11319
1849.38 5.91337
1849.90 9.01503
1850.43 14.5029
1850.97 23.1485
1851.50 28.8975
1852.04 23.1310
1852.57 14.4855
1853.10 8.97810
1853.63 5.88022
1854.16 4.08508
1854.69 2.98385
1855.22 2.26981
1855.75 1.78426
1856.80 1.18944
1857.86 0.854934
1858.92 0.649837
1861.04 0.423389
1863.15 0.309817
1865.27 0.247448
1869.50 0.195267
1873.73 0.202242
1875.85 0.231875
1877.97 0.295107
1880.08 0.433728
1880.61 0.492291
1881.14 0.567536
1881.67 0.666229
1881.94 0.727589
1882.20 0.798963
1882.46 0.883294
1882.73 0.983070
1882.99 1.10322
1883.26 1.24844
1883.52 1.42759
1883.79 1.65013
1884.05 1.93339
1884.32 2.29822
1884.58 2.78250
1884.84 3.43765
1885.11 4.35930
1885.37 5.69498
1885.64 7.73368
1885.90 10.9806
1886.17 16.4581
1886.43 25.8158
1886.72 41.2819
1887.00 51.5388
1887.29 41.2101
1887.57 25.8038
1887.77 18.3452
1887.96 13.3776
1888.16 10.0510
1888.36 7.77215
1888.75 4.99584
1889.15 3.47129
1889.54 2.55237
1889.94 1.96268
1890.72 1.27986
1891.51 0.918207
1892.30 0.707645
1893.88 0.497285
1895.46 0.429273
1897.03 0.487930
1897.82 0.626008
1898.22 0.770435
1898.61 1.03192
1899.01 1.57241
1899.20 2.08349
1899.40 2.96041
1899.50 3.65887
1899.60 4.65186
1899.70 6.16428
1899.75 7.21440
1899.80 8.56593
1899.85 10.3854
1899.89 12.7986
1899.94 16.1544
1899.99 20.9881
1900.04 28.4251
1900.09 39.9321
1900.14 58.8396
1900.19 90.3791
1900.25 144.885
1900.30 180.319
1900.33 169.564
1900.36 143.840
1900.41 90.3715
1900.45 64.0459
1900.49 46.8646
1900.53 35.3023
1900.56 27.3477
1900.64 17.5351
1900.72 12.1899
1900.79 8.92486
1900.87 6.84666
1901.02 4.42259
1901.18 3.11614
1901.33 2.34406
1901.63 1.50991
1901.94 1.09712
1902.24 0.865685
1902.85 0.636031
1903.46 0.540368
1904.07 0.505275
1905.29 0.536521
1906.51 0.702027
1907.12 0.874091
1907.73 1.17320
1908.34 1.75042
1908.65 2.26294
1908.95 3.08631
1909.26 4.52910
1909.41 5.69629
1909.56 7.38245
1909.72 9.96416
1909.87 14.0691
1910.02 21.0293
1910.17 32.9259
1910.34 52.4881
1910.50 65.5406
1910.66 52.5044
1910.83 32.9696
1911.02 18.9590
1911.21 11.8783
1911.40 8.08596
1911.59 5.89076
1911.78 4.53160
1911.97 3.64466
1912.35 2.62323
1912.73 2.11550
1913.11 1.87033
1913.49 1.78761
1913.87 1.82955
1914.25 1.99268
1914.63 2.30266
1915.01 2.82457
1915.39 3.69654
1915.58 4.34664
1915.77 5.21965
1915.96 6.41925
1916.15 8.11397
1916.34 10.5863
1916.53 14.3201
1916.72 20.1319
1916.91 29.2164
1917.15 46.5549
1917.40 58.0365
1917.65 46.4606
1917.89 29.1926
1918.10 19.4001
1918.31 13.4344
1918.52 9.73721
1918.73 7.35554
1919.14 4.63784
1919.56 3.24803
1919.98 2.46316
1920.39 1.99949
1921.23 1.58313
1922.06 1.62361
1922.48 1.84476
1922.89 2.30152
1923.31 3.22711
1923.52 4.03392
1923.72 5.27772
1923.93 7.31631
1924.14 10.8703
1924.35 17.6330
1924.45 23.2700
1924.56 31.2640
1924.73 49.8659
1924.90 62.1672
1925.07 49.7154
1925.24 31.2046
1925.41 19.3815
1925.58 12.7546
1925.75 8.90606
1925.92 6.53958
1926.26 3.94688
1926.60 2.65779
1926.94 1.92527
1927.27 1.47215
1927.95 0.960241
1928.63 0.691431
1929.31 0.531506
1930.66 0.356276
1932.01 0.265822
1933.37 0.212557
1936.07 0.156673
1938.78 0.135461
1941.49 0.146831
1942.84 0.181860
1943.52 0.220288
1944.20 0.292328
1944.88 0.446592
1945.21 0.598404
1945.55 0.868187
1945.89 1.42163
1946.06 1.94361
1946.23 2.83882
1946.40 4.56575
1946.48 6.11210
1946.53 7.18445
1946.57 8.56472
1946.61 10.4303
1946.65 12.8983
1946.69 16.3317
1946.74 21.2799
1946.78 28.9310
1946.82 40.7545
1946.86 60.2243
1946.91 92.8095
1946.95 149.392
1947.00 186.193
1947.02 174.951
1947.05 148.126
1947.10 92.8019
1947.13 62.6554
1947.17 44.1238
1947.21 32.2633
1947.24 24.4207
1947.32 15.2218
1947.39 10.3268
1947.47 7.41658
1947.54 5.59993
1947.69 3.51867
1947.84 2.41529
1947.99 1.76982
1948.28 1.07721
1948.58 0.734737
1948.88 0.540793
1949.47 0.340556
1950.07 0.244471
1950.66 0.190988
1951.85 0.136535
1953.04 0.110792
1954.22 0.0967707
1956.60 0.0835827
1961.35 0.0798036
1966.10 0.0921079
1970.86 0.126772
1973.23 0.161898
1975.61 0.224036
1977.98 0.348242
1979.17 0.462750
1980.36 0.654087
1981.55 1.00930
1982.14 1.31287
1982.74 1.78081
1983.33 2.55154
1983.92 3.93290
1984.22 5.05498
1984.52 6.67439
1984.81 9.05872
1985.11 12.5456
1985.56 20.0185
1986.00 24.9873
1986.45 20.0107
1986.89 12.5418
1987.23 8.61770
1987.58 6.11151
1987.92 4.49441
1988.26 3.42512
1988.95 2.16705
1989.63 1.49936
1990.32 1.11014
1991.00 0.868117
1992.37 0.610914
1993.74 0.522761
1994.42 0.534203
1995.11 0.603813
1995.79 0.795793
1996.14 0.995764
1996.48 1.35314
1996.82 2.07269
1996.99 2.73102
1997.16 3.81857
1997.33 5.79472
1997.42 7.45426
1997.51 9.91754
1997.59 13.8745
1997.68 20.5097
1997.72 25.6740
1997.76 32.7836
1997.81 42.6762
1997.85 55.9704
1997.92 89.8100
1998.00 112.038
1998.08 89.3303
1998.15 55.9573
1998.24 31.8176
1998.33 19.5988
1998.42 13.0688
1998.51 9.31417
1998.60 6.94198
1998.69 5.37532
1998.87 3.51795
1999.05 2.49444
1999.23 1.87881
1999.59 1.20309
1999.95 0.859251
2000.31 0.661109
2001.02 0.453108
2001.74 0.351552
2002.46 0.295058
2003.89 0.240066
2006.76 0.218125
2009.63 0.253614
2011.07 0.294173
2012.50 0.358312
2013.94 0.460722
2015.37 0.631852
2016.09 0.762432
2016.81 0.942235
2017.52 1.19887
2018.24 1.57929
2018.96 2.17354
2019.68 3.15522
2020.39 4.88268
2020.75 6.22551
2021.11 8.02210
2021.81 12.8025
2022.50 15.9802
2023.20 12.7898
2023.89 8.00825
2024.58 4.96727
2025.26 3.25204
2025.95 2.25789
2026.64 1.64855
2027.32 1.25262
2028.01 0.983594
2029.38 0.653334
2030.76 0.467312
2032.13 0.352747
2034.88 0.225325
2037.62 0.160229
2040.37 0.123077
2045.86 0.0868000
2051.35 0.0768410
2054.10 0.0806653
2056.84 0.0943992
2059.59 0.130118
2060.96 0.167446
2062.34 0.235909
2063.71 0.379612
2064.40 0.518590
2065.08 0.761903
2065.77 1.24792
2066.11 1.69482
2066.45 2.43943
2066.80 3.81889
2066.97 4.99098
2067.14 6.77255
2067.31 9.68923
2067.48 14.7909
2067.57 18.8814
2067.66 24.6895
2067.74 33.0724
2067.83 44.9466
2067.96 71.9456
2068.10 89.7425
2068.24 71.7242
2068.37 44.9352
2068.50 28.4847
2068.63 18.9870
2068.76 13.3325
2068.88 9.79430
2069.14 5.85550
2069.39 3.87676
2069.65 2.74717
2069.90 2.04998
2070.41 1.26766
2070.92 0.863914
2071.43 0.629077
2071.94 0.480647
2072.44 0.381084
2073.46 0.259504
2074.48 0.191109
2076.51 0.120792
2078.55 0.0872406
2080.58 0.0687354
2084.65 0.0505972
2088.73 0.0438091
2092.80 0.0451166
2094.83 0.0517999
2095.85 0.0592692
2096.87 0.0733511
2097.88 0.103862
2098.39 0.134260
2098.90 0.189265
2099.41 0.305306
2099.66 0.419061
2099.92 0.621059
2100.05 0.788778
2100.17 1.03732
2100.30 1.43158
2100.43 2.11177
2100.55 3.43668
2100.62 4.63857
2100.68 6.55900
2100.75 10.0246
2100.78 12.8610
2100.81 16.8844
2100.84 23.2640
2100.87 33.6888
2100.90 51.7336
2100.94 83.3040
2100.97 133.541
2101.00 166.457
2101.03 133.538
2101.06 83.3005
2101.10 52.4800
2101.13 34.9780
2101.16 24.2928
2101.19 17.8691
2101.25 10.6391
2101.31 7.01261
2101.37 4.95826
2101.43 3.68841
2101.55 2.27038
2101.67 1.54032
2101.80 1.11642
2101.92 0.848887
2102.04 0.669380
2102.28 0.451074
2102.53 0.328495
2102.77 0.252912
2103.02 0.203069
2103.50 0.143551
2103.99 0.110792
2104.97 0.0780613
2105.94 0.0630824
2106.92 0.0553027
2108.87 0.0487134
2112.77 0.0489208
2116.67 0.0587762
2120.58 0.0830200
2122.53 0.107091
2124.48 0.149959
2126.43 0.238115
2127.41 0.322620
2128.38 0.470580
2128.87 0.590796
2129.36 0.768076
2129.85 1.04537
2130.33 1.51367
2130.58 1.88065
2130.82 2.40221
2131.07 3.17777
2131.31 4.39947
2131.55 6.47441
2131.68 8.09212
2131.80 10.3690
2131.92 13.6842
2132.04 18.6881
2132.16 26.4806
2132.28 38.5524
2132.44 61.6992
2132.60 77.1470
2132.76 61.6905
2132.92 38.5462
2133.08 23.5259
2133.24 15.2513
2133.40 10.4877
2133.56 7.61077
2133.72 5.74605
2133.88 4.49238
2134.20 2.96259
2134.52 2.10439
2134.84 1.58126
2135.48 1.00507
2136.12 0.717654
2136.76 0.560289
2138.05 0.428425
2139.33 0.443205
2139.97 0.514339
2140.61 0.666516
2141.25 0.997630
2141.57 1.31403
2141.89 1.85043
2142.05 2.27230
2142.21 2.86608
2142.37 3.74259
2142.53 5.10778
2142.69 7.40541
2142.77 9.15825
2142.85 11.5860
2142.93 15.0488
2143.01 20.1389
2143.09 27.8053
2143.17 39.3561
2143.29 62.9471
2143.40 78.6902
2143.51 62.9375
2143.63 39.3448
2143.71 27.2155
2143.80 19.4474
2143.88 14.3339
2143.96 10.9523
2144.13 6.90948
2144.30 4.73371
2144.47 3.44428
2144.64 2.62213
2144.98 1.67855
2145.32 1.17724
2145.65 0.881845
2146.33 0.565436
2147.00 0.410215
2147.68 0.324990
2149.03 0.247191
2150.38 0.230742
2151.73 0.260535
2153.08 0.364907
2153.75 0.479000
2154.43 0.691653
2154.43 0.692528
2154.44 0.694723
2154.44 0.696930
2154.45 0.701381
2154.47 0.710432
2154.51 0.729149
2154.59 0.769220
2154.75 0.861534
2155.07 1.11152
2155.39 1.50529
2155.71 2.17090
2156.03 3.43479
2156.19 4.53603
2156.35 6.25243
2156.51 9.16729
2156.67 14.5935
2156.75 19.1720
2156.83 26.0217
2156.91 36.5657
2156.99 52.5895
2157.09 84.1819
2157.20 104.944
2157.31 83.8571
2157.41 52.5787
2157.52 33.0355
2157.62 21.8127
2157.72 15.2162
2157.82 11.1278
2158.03 6.63024
2158.23 4.37871
2158.43 3.10463
2158.64 2.31755
2159.05 1.43897
2159.45 0.986647
2159.86 0.723924
2160.68 0.446645
2161.49 0.311113
2162.31 0.235038
2163.94 0.157703
2165.57 0.122075
2167.20 0.104064
2170.47 0.0922603
2173.73 0.0997746
2176.99 0.130672
2178.63 0.165840
2180.26 0.243170
2181.07 0.332090
2181.48 0.412973
2181.89 0.551567
2182.30 0.828781
2182.50 1.09051
2182.71 1.54441
2182.91 2.44361
2183.01 3.26982
2183.11 4.64721
2183.22 7.19504
2183.27 9.36320
2183.32 12.6896
2183.37 18.1294
2183.42 27.7717
2183.47 46.5720
2183.50 62.2569
2183.52 84.7893
2183.56 135.970
2183.60 170.280
2183.64 135.969
2183.68 84.7926
2183.71 56.6009
2183.75 39.5960
2183.78 28.8334
2183.81 21.7772
2183.87 13.5714
2183.94 9.24150
2184.00 6.70866
2184.07 5.10887
2184.19 3.28728
2184.32 2.33431
2184.45 1.77738
2184.71 1.19203
2184.96 0.913064
2185.22 0.766667
2185.73 0.644211
2186.76 0.659339
2187.78 0.855738
2188.29 1.03234
2188.81 1.29030
2189.32 1.67846
2189.83 2.28757
2190.34 3.31253
2190.60 4.09915
2190.86 5.19066
2191.11 6.75805
2191.37 9.06064
2191.62 12.5405
2191.88 17.8064
2192.24 28.5692
2192.60 35.7828
2192.96 28.5553
2193.32 17.7908
2193.57 12.6427
2193.82 9.20062
2194.07 6.89901
2194.32 5.32904
2194.81 3.41498
2195.31 2.35976
2195.81 1.72331
2196.30 1.31391
2197.30 0.837889
2198.29 0.583125
2199.29 0.431795
2201.28 0.269053
2203.26 0.188776
2205.25 0.144384
2209.23 0.103657
2213.21 0.0973441
2215.20 0.107022
2217.18 0.132257
2219.17 0.192832
2220.17 0.254405
2221.16 0.365618
2222.16 0.595426
2222.65 0.813819
2223.15 1.19034
2223.40 1.49058
2223.65 1.92199
2223.90 2.57882
2224.14 3.63692
2224.27 4.43454
2224.39 5.51208
2224.52 7.02543
2224.64 9.23322
2224.77 12.6365
2224.89 18.0730
2225.01 27.2774
2225.14 43.2091
2225.27 69.0777
2225.40 86.3040
2225.53 69.0679
2225.66 43.1992
2225.74 31.8502
2225.82 23.8958
2225.99 14.4622
2226.15 9.51587
2226.31 6.68363
2226.47 4.93403
2226.63 3.78540
2226.95 2.42639
2227.27 1.68557
2227.60 1.24153
2228.24 0.757642
2228.89 0.513710
2229.53 0.374240
2230.17 0.286965
2230.82 0.228735
2232.11 0.158205
2233.39 0.118759
2235.97 0.0784155
2238.55 0.0593402
2241.13 0.0490446
2246.28 0.0399135
2251.43 0.0387360
2256.59 0.0457377
2259.16 0.0565771
2260.45 0.0670602
2261.74 0.0855353
2263.03 0.123571
2263.67 0.160382
2264.32 0.226001
2264.96 0.362214
2265.29 0.493568
2265.61 0.725010
2265.93 1.19200
2266.09 1.62822
2266.25 2.36747
2266.41 3.76826
2266.49 4.99963
2266.57 6.91342
2266.65 10.2011
2266.69 12.7306
2266.73 16.2777
2266.78 21.5748
2266.82 29.3716
2266.86 41.4373
2266.90 60.1822
2266.95 96.5480
2267.00 120.149
2267.05 95.8131
2267.11 60.1783
2267.14 44.5651
2267.17 33.8493
2267.23 20.8079
2267.29 13.8328
2267.35 9.78471
2267.42 7.22802
2267.48 5.57005
2267.60 3.59363
2267.73 2.50443
2267.85 1.85255
2268.10 1.13736
2268.35 0.777127
2268.60 0.571138
2269.10 0.357555
2269.60 0.255742
2270.09 0.200311
2271.09 0.147593
2272.09 0.127814
2273.08 0.122998
2275.07 0.140537
2277.07 0.200443
2278.06 0.262272
2279.06 0.372940
2279.56 0.463768
2280.05 0.598787
2280.55 0.812124
2281.05 1.17864
2281.30 1.46969
2281.55 1.88932
2281.80 2.52545
2282.05 3.55486
2282.29 5.37400
2282.42 6.85723
2282.54 9.00921
2282.67 12.3322
2282.79 17.6537
2282.92 26.6954
2283.04 42.4183
2283.17 67.8215
2283.30 84.7529
2283.43 67.8150
2283.56 42.4145
2283.64 30.9780
2283.73 23.1404
2283.89 13.8923
2284.05 9.08449
2284.22 6.37647
2284.38 4.70538
2284.55 3.62122
2284.88 2.34235
2285.21 1.65307
2285.53 1.24260
2286.19 0.805426
2286.85 0.597247
2287.51 0.492311
2288.82 0.436169
2290.14 0.533278
2290.80 0.667370
2291.13 0.773040
2291.45 0.918890
2291.78 1.12631
2292.11 1.43087
2292.28 1.63930
2292.44 1.89982
2292.61 2.23519
2292.77 2.67035
2292.93 3.25581
2293.10 4.05642
2293.26 5.20366
2293.43 6.89681
2293.59 9.55856
2293.76 13.9477
2293.92 21.6965
2294.00 27.7305
2294.08 35.8494
2294.24 57.3616
2294.40 71.7180
2294.56 57.3495
2294.72 35.8350
2294.85 23.6788
2294.98 16.2947
2295.12 11.6858
2295.25 8.73781
2295.52 5.35347
2295.78 3.59728
2296.05 2.58053
2296.32 1.94244
2296.85 1.21922
2297.39 0.841225
2297.92 0.619328
2298.99 0.382502
2300.06 0.265228
2301.12 0.198647
2303.26 0.129877
2305.40 0.0974019
2307.53 0.0803779
2311.80 0.0678289
2316.08 0.0736658
2318.21 0.0854209
2320.35 0.109032
2322.48 0.159990
2323.55 0.209630
2324.62 0.297327
2325.69 0.474951
2326.22 0.641789
2326.76 0.926645
2327.29 1.47342
2327.56 1.95738
2327.82 2.73105
2328.09 4.07356
2328.23 5.14772
2328.36 6.67920
2328.49 8.98684
2328.63 12.5668
2328.76 18.3916
2328.89 27.9962
2329.05 44.8550
2329.20 56.0097
2329.36 44.7331
2329.51 27.9917
2329.63 19.0745
2329.75 13.4516
2329.87 9.82425
2329.99 7.44806
2330.23 4.65111
2330.47 3.17046
2330.71 2.29652
2330.95 1.74518
2331.43 1.11421
2331.92 0.783639
2332.40 0.590629
2333.36 0.389289
2334.32 0.296771
2335.28 0.252883
2337.21 0.239855
2339.13 0.309799
2340.09 0.395801
2341.05 0.554973
2341.54 0.686079
2342.02 0.879469
2342.50 1.17979
2342.98 1.68009
2343.22 2.06525
2343.46 2.60016
2343.70 3.37884
2343.94 4.55788
2344.18 6.46940
2344.42 9.77920
2344.54 12.4108
2344.66 16.0760
2344.78 21.2902
2344.90 28.6662
2345.10 45.8541
2345.30 57.3142
2345.50 45.8436
2345.70 28.6549
2345.90 17.7255
2346.09 11.5950
2346.29 8.02351
2346.48 5.84345
2346.68 4.42214
2346.88 3.46024
2347.27 2.27740
2347.66 1.61153
2348.06 1.20154
2348.84 0.745170
2349.63 0.510713
2350.41 0.374630
2351.99 0.230953
2353.56 0.160580
2355.13 0.120947
2358.27 0.0803865
2361.42 0.0614683
2364.56 0.0516942
2370.85 0.0448076
2377.14 0.0487722
2380.28 0.0560264
2383.43 0.0704248
2386.57 0.101450
2388.14 0.131768
2389.71 0.185593
2391.29 0.295486
2392.07 0.399580
2392.86 0.578931
2393.64 0.928004
2394.04 1.24153
2394.43 1.75057
2394.82 2.65429
2395.02 3.39322
2395.22 4.47323
2395.41 6.14566
2395.61 8.85368
2395.80 13.5100
2396.00 21.7298
2396.20 34.7448
2396.40 43.4180
2396.60 34.7382
2396.80 21.7239
2396.99 13.6631
2397.18 9.04956
2397.37 6.31808
2397.56 4.63183
2397.94 2.76846
2398.32 1.83655
2398.70 1.30736
2399.08 0.981319
2399.85 0.617181
2400.61 0.430235
2401.37 0.322586
2402.89 0.211039
2404.41 0.159330
2405.94 0.133625
2408.98 0.119597
2412.02 0.141539
2413.55 0.172550
2415.07 0.232091
2415.83 0.282478
2416.59 0.358435
2416.97 0.411700
2417.35 0.480076
2417.73 0.570305
2418.11 0.691973
2418.50 0.862443
2418.88 1.11002
2419.26 1.49113
2419.64 2.11682
2419.83 2.59526
2420.02 3.25368
2420.21 4.19764
2420.40 5.61262
2420.59 7.86791
2420.78 11.6686
2420.97 18.5850
2421.06 24.1222
2421.16 31.7314
2421.33 50.7166
2421.50 63.3609
2421.67 50.7083
2421.84 31.7236
2422.01 19.8660
2422.17 13.1194
2422.34 9.15654
2422.50 6.70129
2422.66 5.08968
2422.83 3.99552
2423.16 2.64681
2423.49 1.88193
2423.81 1.41136
2424.47 0.886039
2425.13 0.616582
2425.78 0.460966
2427.10 0.299001
2428.41 0.222829
2429.73 0.183452
2432.35 0.155402
2434.98 0.169465
2436.30 0.196302
2437.61 0.249660
2438.92 0.364198
2439.58 0.475334
2439.91 0.558254
2440.24 0.670639
2440.57 0.829342
2440.89 1.06209
2441.06 1.22294
2441.22 1.42569
2441.39 1.68787
2441.55 2.03501
2441.72 2.51122
2441.88 3.17922
2442.04 4.16200
2442.21 5.68743
2442.37 8.22350
2442.45 10.1594
2442.54 12.8311
2442.62 16.6251
2442.70 22.1711
2442.78 30.4678
2442.86 42.8747
2442.98 68.6140
2443.10 85.8022
2443.22 68.6074
2443.34 42.8693
2443.42 30.7122
2443.50 22.5004
2443.58 16.9618
2443.66 13.1852
2443.82 8.49608
2443.97 5.90991
2444.13 4.33566
2444.29 3.32425
2444.61 2.14137
2444.93 1.50809
2445.25 1.13156
2445.89 0.727335
2446.53 0.528532
2447.16 0.418298
2448.44 0.312165
2449.72 0.272472
2450.99 0.263660
2453.54 0.302049
2456.10 0.420354
2457.37 0.530704
2458.65 0.705604
2459.92 0.999112
2461.20 1.53392
2461.84 1.97409
2462.48 2.61661
2463.11 3.57568
2463.75 5.00317
2464.68 7.98708
2465.60 9.97714
2466.53 7.97936
2467.45 4.99565
2468.02 3.70406
2468.58 2.79756
2469.71 1.71208
2470.84 1.14266
2471.97 0.817266
2473.09 0.616809
2474.22 0.486227
2476.48 0.335634
2478.74 0.262143
2481.00 0.239642
2482.12 0.257837
2483.25 0.339812
2483.82 0.461697
2484.10 0.582343
2484.38 0.797332
2484.66 1.23435
2484.80 1.64404
2484.95 2.33982
2485.02 2.88972
2485.09 3.66092
2485.16 4.82539
2485.23 6.63464
2485.26 7.99332
2485.30 9.75448
2485.33 12.1552
2485.37 15.5263
2485.40 20.5906
2485.44 28.0403
2485.47 39.5995
2485.51 57.6042
2485.56 92.2161
2485.60 114.517
2485.62 107.709
2485.65 91.4127
2485.69 57.6001
2485.74 35.0351
2485.79 22.5983
2485.83 15.5225
2485.88 11.3110
2485.93 8.53541
2485.97 6.66292
2486.07 4.40459
2486.16 3.12719
2486.25 2.35269
2486.44 1.48875
2486.63 1.04699
2486.81 0.791504
2487.19 0.522804
2487.56 0.391767
2487.94 0.318195
2488.68 0.243015
2490.18 0.189179
2491.67 0.173747
2494.67 0.179354
2496.16 0.193966
2497.66 0.217327
2498.40 0.233188
2499.15 0.252607
2499.90 0.276438
2500.65 0.305817
2501.40 0.342464
2502.14 0.388677
2502.89 0.447848
2503.64 0.524915
2504.39 0.627863
2505.13 0.769037
2505.88 0.969166
2506.63 1.26407
2507.38 1.72155
2508.13 2.47226
2508.87 3.77982
2509.25 4.78550
2509.62 6.12155
2510.36 9.74081
2511.10 12.1458
2511.84 9.73635
2512.58 6.12017
2513.44 3.53207
2514.30 2.21124
2515.16 1.50108
2516.02 1.08942
2516.88 0.833417
2517.74 0.665816
2519.46 0.470778
2521.18 0.371028
2522.90 0.319493
2526.35 0.296125
2529.79 0.358912
2531.51 0.437621
2533.23 0.576794
2534.95 0.836796
2535.81 1.05473
2536.67 1.38156
2537.53 1.89823
2538.39 2.76559
2539.25 4.32580
2540.11 7.24355
2540.91 11.5378
2541.70 14.3942
2542.50 11.5291
2543.29 7.23560
2544.08 4.49325
2544.87 2.95337
2545.66 2.06454
2546.45 1.52140
2548.04 0.933795
2549.62 0.647260
2551.20 0.491723
2552.78 0.403030
2555.95 0.331899
2559.11 0.360219
2560.69 0.422314
2562.27 0.544548
2563.06 0.645171
2563.86 0.790762
2564.65 1.00906
2565.44 1.35295
2565.83 1.60277
2566.23 1.93225
2566.62 2.37942
2567.02 2.99968
2567.42 3.89060
2567.81 5.20346
2568.21 7.19141
2568.60 10.2036
2569.15 16.2775
2569.70 20.3217
2570.25 16.2651
2570.80 10.1881
2571.46 5.75030
2572.12 3.52856
2572.78 2.35073
2573.44 1.67119
2574.10 1.24909
2574.76 0.970782
2576.08 0.640157
2577.40 0.459364
2578.72 0.350509
2581.36 0.233045
2584.00 0.178525
2586.64 0.161295
2587.96 0.172518
2589.28 0.225221
2589.94 0.303885
2590.27 0.382197
2590.60 0.522644
2590.93 0.811482
2591.09 1.08597
2591.26 1.55945
2591.42 2.48097
2591.50 3.31410
2591.59 4.64836
2591.67 7.04156
2591.75 11.7775
2591.79 16.0804
2591.83 23.0200
2591.87 34.8233
2591.91 55.3854
2591.96 88.7268
2592.00 111.027
2592.04 88.7241
2592.09 55.3827
2592.13 33.0064
2592.18 21.1792
2592.22 14.3869
2592.27 10.4025
2592.31 7.80155
2592.36 6.09166
2592.45 3.99327
2592.54 2.82622
2592.63 2.11367
2592.81 1.32710
2593.00 0.926595
2593.18 0.695844
2593.54 0.455085
2593.91 0.338725
2594.27 0.274874
2595.00 0.213006
2596.45 0.182727
2597.90 0.204063
2599.36 0.281774
2600.08 0.363791
2600.81 0.511320
2601.54 0.809734
2601.90 1.08685
2602.27 1.54949
2602.45 1.90774
2602.63 2.41045
2602.81 3.14508
2602.99 4.26672
2603.17 6.11291
2603.27 7.50229
2603.36 9.39460
2603.45 12.0374
2603.54 15.8199
2603.63 21.3320
2603.72 29.2275
2603.86 46.7584
2604.00 58.3161
2604.14 46.6193
2604.28 29.2203
2604.37 21.1803
2604.47 15.6653
2604.65 9.26810
2604.83 6.01596
2605.02 4.19903
2605.20 3.08477
2605.38 2.36069
2605.75 1.51413
2606.12 1.05648
2606.49 0.783413
2607.22 0.487090
2607.96 0.338219
2608.69 0.253136
2610.16 0.164714
2610.16 0.164635
2610.17 0.164358
2610.17 0.164122
2610.19 0.163651
2610.21 0.162678
2610.26 0.160768
2610.36 0.157083
2610.56 0.150249
2610.96 0.138323
2611.76 0.119869
2613.35 0.0970626
2614.94 0.0857960
2616.53 0.0833692
2618.13 0.0930623
2618.93 0.107081
2619.72 0.135221
2620.52 0.197778
2620.92 0.260158
2621.31 0.372437
2621.71 0.605483
2621.91 0.827925
2622.11 1.21411
2622.31 1.97319
2622.41 2.66584
2622.51 3.79002
2622.61 5.83619
2622.66 7.53336
2622.71 10.0069
2622.76 13.9640
2622.81 20.5982
2622.86 32.5019
2622.91 54.0769
2622.95 86.7882
2623.00 107.944
2623.05 86.0440
2623.09 54.0736
2623.12 39.3646
2623.15 29.2161
2623.21 17.4981
2623.27 11.4394
2623.33 8.00137
2623.39 5.86200
2623.45 4.49127
2623.57 2.87460
2623.69 1.99235
2623.80 1.46797
2624.04 0.895616
2624.28 0.608427
2624.52 0.444285
2624.75 0.341748
2624.99 0.273415
2625.46 0.190769
2625.94 0.144491
2626.88 0.0969845
2627.83 0.0740408
2628.78 0.0610779
2630.67 0.0473800
2634.46 0.0362336
2638.25 0.0314973
2645.84 0.0275221
2653.42 0.0266476
2661.00 0.0282745
2668.58 0.0351067
2672.37 0.0447376
2674.26 0.0541906
2676.16 0.0711525
2678.05 0.106514
2679.00 0.140870
2679.95 0.201718
2680.90 0.325852
2681.37 0.443105
2681.84 0.643722
2682.32 1.03175
2682.55 1.37714
2682.79 1.93241
2683.03 2.90359
2683.15 3.68716
2683.26 4.81158
2683.38 6.52401
2683.50 9.21241
2683.62 13.6602
2683.74 21.1416
2683.87 33.8395
2684.00 42.2082
2684.13 33.7331
2684.26 21.1378
2684.36 14.9385
2684.45 10.8532
2684.54 8.10205
2684.63 6.24601
2684.82 3.98474
2685.00 2.74440
2685.19 2.00015
2685.37 1.52155
2685.74 0.966664
2686.11 0.670748
2686.48 0.495021
2687.22 0.306150
2687.96 0.212144
2688.70 0.158932
2690.18 0.104198
2691.66 0.0784066
2693.14 0.0645855
2696.10 0.0521725
2699.06 0.0494288
2702.01 0.0553073
2703.49 0.0660350
2704.97 0.0969997
2705.71 0.139413
2706.45 0.255783
2706.82 0.411109
2707.01 0.560758
2707.19 0.823219
2707.38 1.34798
2707.47 1.83618
2707.56 2.64451
2707.65 4.16435
2707.70 5.45059
2707.75 7.42782
2707.79 10.6702
2707.84 16.4422
2707.86 21.0996
2707.88 27.7812
2707.91 37.5531
2707.93 52.3336
2707.97 83.8611
2708.00 104.645
2708.04 83.8593
2708.07 52.3317
2708.10 35.5708
2708.13 25.1686
2708.15 18.4675
2708.18 14.0147
2708.23 8.76608
2708.29 5.96023
2708.34 4.30457
2708.40 3.25210
2708.50 2.04520
2708.61 1.40812
2708.72 1.03223
2708.94 0.630048
2709.15 0.431054
2709.37 0.318415
2709.80 0.202383
2710.23 0.146946
2710.66 0.116467
2711.53 0.0860371
2713.26 0.0652024
2714.99 0.0595334
2718.44 0.0604145
2721.90 0.0690717
2725.36 0.0873356
2727.09 0.103734
2727.95 0.115446
2728.82 0.130966
2729.68 0.152398
2730.54 0.183493
2731.41 0.231881
2732.27 0.314748
2732.71 0.381284
2733.14 0.478454
2733.57 0.629522
2734.00 0.884289
2734.43 1.36634
2734.65 1.78758
2734.87 2.45282
2735.08 3.58781
2735.30 5.73501
2735.41 7.57850
2735.51 10.3851
2735.62 14.8048
2735.73 21.8122
2735.87 34.8411
2736.00 43.4247
2736.14 34.7391
2736.27 21.7369
2736.40 13.6007
2736.54 8.97325
2736.67 6.27346
2736.80 4.61952
2736.93 3.53402
2737.06 2.79947
2737.33 1.89400
2737.59 1.38417
2737.85 1.07422
2738.38 0.737383
2738.91 0.576316
2739.43 0.497671
2739.96 0.466137
2740.48 0.468633
2741.01 0.503268
2741.54 0.577148
2742.06 0.710922
2742.59 0.953629
2743.12 1.43285
2743.38 1.85969
2743.64 2.54335
2743.90 3.72952
2744.17 6.02696
2744.30 8.05619
2744.43 11.1948
2744.56 16.3317
2744.69 24.7166
2744.85 39.5350
2745.00 49.3402
2745.15 39.4281
2745.31 24.7137
2745.45 15.5620
2745.60 10.3162
2745.75 7.23645
2745.90 5.32939
2746.04 4.08460
2746.19 3.23411
2746.48 2.19032
2746.78 1.59949
2747.07 1.23793
2747.36 1.00109
2747.66 0.840021
2748.24 0.644761
2748.83 0.542990
2749.42 0.493388
2750.00 0.479443
2750.30 0.484103
2750.59 0.496715
2750.89 0.518114
2751.18 0.549703
2751.47 0.594171
2751.77 0.655061
2752.06 0.738834
2752.35 0.854543
2752.65 1.01900
2752.94 1.25889
2753.23 1.62771
2753.53 2.22734
2753.82 3.29846
2753.97 4.17324
2754.11 5.44914
2754.26 7.42707
2754.41 10.6489
2754.56 16.2016
2754.70 25.9423
2754.85 41.4785
2755.00 51.7527
2755.15 41.3620
2755.30 25.9358
2755.48 14.7919
2755.65 9.17065
2755.83 6.15674
2756.00 4.40500
2756.18 3.30675
2756.35 2.58543
2756.70 1.72601
2757.05 1.25497
2757.40 0.972064
2758.10 0.664952
2758.80 0.512954
2759.50 0.429351
2760.91 0.352359
2762.31 0.329523
2763.71 0.333523
2766.51 0.394882
2767.91 0.452750
2769.31 0.534919
2770.71 0.651548
2772.12 0.820251
2773.52 1.07229
2774.92 1.46336
2776.32 2.09463
2777.72 3.12631
2779.36 4.93541
2781.00 6.16367
2782.64 5.05119
2784.28 3.40048
2785.85 2.51910
2787.42 2.34076
2788.20 2.55939
2788.98 3.11454
2789.77 4.27630
2790.55 6.58092
2791.28 10.0504
2792.00 12.3465
2792.73 9.92731
2793.45 6.33639
2794.25 3.85922
2795.04 2.53580
2795.84 1.79423
2796.64 1.34658
2798.23 0.860096
2799.82 0.614752
2801.41 0.472937
2803.00 0.383446
2806.19 0.282074
2809.37 0.233042
2812.56 0.215483
2814.15 0.220394
2815.74 0.248356
2816.54 0.289437
2817.33 0.402330
2817.73 0.552018
2817.93 0.695824
2818.13 0.947654
2818.33 1.45067
2818.43 1.91832
2818.53 2.69332
2818.63 4.15010
2818.68 5.40001
2818.73 7.28470
2818.78 10.4462
2818.80 12.8425
2818.83 16.1275
2818.85 20.7522
2818.88 27.4371
2818.90 37.2929
2818.93 51.1546
2818.94 65.5776
2818.96 82.1443
2819.00 102.162
2819.02 95.9906
2819.04 82.1429
2819.07 51.1535
2819.11 32.8804
2819.14 21.8955
2819.18 15.3819
2819.21 11.3208
2819.28 6.82926
2819.35 4.59409
2819.42 3.30304
2819.49 2.50517
2819.63 1.61911
2819.77 1.15930
2819.91 0.894504
2820.19 0.615578
2820.47 0.479988
2820.75 0.405327
2821.30 0.331880
2822.42 0.287975
2823.53 0.286121
2825.76 0.328013
2827.99 0.421055
2829.10 0.495706
2830.22 0.600299
2831.33 0.751087
2832.44 0.976985
2833.56 1.33253
2834.67 1.92698
2835.79 2.98821
2836.34 3.82261
2836.90 4.95350
2837.95 7.89517
2839.00 9.85657
2840.05 7.88688
2841.10 4.94464
2842.34 2.82522
2843.58 1.75562
2844.82 1.18468
2846.06 0.854579
2847.30 0.649302
2848.54 0.514396
2851.02 0.355537
2853.49 0.271272
2855.97 0.223751
2860.93 0.184934
2865.89 0.195745
2868.37 0.223809
2870.85 0.280012
2872.09 0.326898
2872.71 0.357851
2873.32 0.395597
2873.94 0.442307
2874.56 0.500825
2875.18 0.575343
2875.80 0.671916
2876.42 0.800414
2877.04 0.975946
2877.66 1.22386
2878.28 1.58773
2878.90 2.15021
2879.52 3.06758
2880.14 4.66029
2880.45 5.88138
2880.76 7.49974
2881.38 11.9434
2882.00 14.9147
2882.62 11.9558
2883.24 7.53199
2883.82 4.85530
2884.40 3.31023
2884.97 2.40251
2885.55 1.84781
2886.70 1.27744
2887.86 1.07924
2889.01 1.14257
2889.59 1.30386
2890.17 1.62189
2890.74 2.24667
2891.03 2.78271
2891.18 3.14344
2891.32 3.59197
2891.46 4.16136
2891.61 4.88466
2891.75 5.82409
2891.90 7.06542
2892.04 8.74818
2892.19 11.0336
2892.33 14.1847
2892.47 18.4942
2892.61 23.5973
2892.74 29.4281
2893.00 36.6725
2893.13 34.5182
2893.26 29.3610
2893.53 18.4552
2893.74 12.5633
2893.95 8.86279
2894.16 6.49922
2894.37 4.95254
2894.78 3.14291
2895.20 2.18394
2895.62 1.62033
2896.04 1.26242
2896.88 0.851341
2897.72 0.633411
2898.56 0.504517
2900.23 0.368653
2901.91 0.309569
2903.58 0.299932
2904.42 0.325144
2905.26 0.417186
2905.68 0.548032
2905.89 0.676735
2906.10 0.903963
2906.31 1.36710
2906.41 1.80176
2906.51 2.53211
2906.62 3.93210
2906.67 5.14430
2906.72 7.05057
2906.78 10.3626
2906.83 16.4835
2906.85 21.6881
2906.88 29.5385
2906.89 34.9600
2906.91 41.7627
2906.92 50.3020
2906.93 61.7470
2906.95 78.2099
2906.97 98.1182
2907.00 123.242
2907.02 115.824
2907.03 98.1164
2907.07 61.7450
2907.09 41.7611
2907.12 29.5371
2907.15 21.6869
2907.17 16.4825
2907.22 10.3619
2907.28 7.09680
2907.33 5.14391
2907.38 3.93181
2907.49 2.54132
2907.59 1.80176
2907.69 1.37045
2907.90 0.907196
2908.11 0.678727
2908.32 0.549957
2908.74 0.418854
2909.57 0.326149
2910.41 0.300075
2912.08 0.304983
2913.75 0.350497
2915.42 0.450075
2916.26 0.540100
2917.09 0.687148
2917.93 0.955639
2918.35 1.18391
2918.76 1.53587
2919.18 2.12326
2919.60 3.19790
2919.81 4.09659
2920.02 5.42991
2920.22 7.46352
2920.43 10.5546
2920.72 16.6840
2921.00 20.7713
2921.28 16.7024
2921.57 10.5956
2921.71 8.37672
2921.85 6.70592
2922.13 4.52509
2922.41 3.27071
2922.70 2.50892
2923.26 1.69722
2923.82 1.31662
2924.95 1.02947
2926.08 0.990599
2927.21 1.07029
2928.34 1.24073
2929.46 1.50593
2930.59 1.88124
2932.80 2.91870
2935.00 3.61053
2937.21 2.88939
2939.41 1.82075
2941.85 1.08597
2944.28 0.698675
2946.71 0.486350
2949.15 0.363417
2951.58 0.292141
2954.02 0.264305
2955.24 0.279258
2956.45 0.358980
2957.06 0.480738
2957.37 0.601637
2957.67 0.816502
2957.97 1.25178
2958.13 1.65485
2958.28 2.33120
2958.43 3.59123
2958.51 4.67009
2958.58 6.33476
2958.66 9.07817
2958.73 13.9958
2958.77 17.9896
2958.81 23.7514
2958.85 32.2302
2958.89 44.6722
2958.92 57.3361
2958.94 71.2748
2959.00 88.9640
2959.03 83.5903
2959.06 71.2710
2959.11 44.6674
2959.15 33.0465
2959.18 25.0694
2959.25 15.4006
2959.32 10.1963
2959.39 7.23947
2959.46 5.37610
2959.53 4.16647
2959.66 2.71756
2959.80 1.92680
2959.94 1.44974
2960.21 0.928347
2960.48 0.664659
2960.76 0.512824
2961.31 0.352938
2961.85 0.274030
2962.40 0.228715
2963.50 0.180078
2965.69 0.139422
2967.88 0.121663
2972.27 0.107545
2976.65 0.108719
2981.03 0.127698
2983.23 0.149921
2985.42 0.190700
2987.61 0.273467
2988.71 0.350099
2989.80 0.478316
2990.35 0.577403
2990.90 0.716577
2991.45 0.920375
2991.99 1.23485
2992.27 1.45964
2992.54 1.75360
2992.82 2.14672
2993.09 2.68570
2993.36 3.44488
2993.64 4.54337
2993.91 6.16609
2994.19 8.54770
2994.59 13.6381
2995.00 17.0202
2995.20 16.0200
2995.41 13.6230
2995.82 8.54904
2996.10 6.08501
2996.39 4.44112
2996.67 3.34494
2996.95 2.59901
2997.52 1.69373
2998.09 1.19811
2998.66 0.902524
2999.23 0.714809
3000.37 0.506077
3001.51 0.414402
3002.64 0.411147
3003.21 0.471862
3003.50 0.543062
3003.78 0.676729
3004.07 0.959032
3004.21 1.22791
3004.35 1.69066
3004.49 2.59354
3004.57 3.39286
3004.64 4.67593
3004.71 6.91409
3004.78 11.2913
3004.81 15.2481
3004.85 21.3077
3004.87 25.7772
3004.89 31.5847
3004.90 39.1494
3004.92 48.2949
3004.94 61.7487
3004.96 77.1244
3005.00 96.3431
3005.02 90.6893
3005.04 77.1217
3005.08 48.2911
3005.11 32.3260
3005.15 22.6669
3005.18 16.5419
3005.21 12.5211
3005.27 7.78837
3005.34 5.33711
3005.40 3.88204
3005.47 2.97788
3005.60 1.93807
3005.73 1.39251
3005.85 1.07177
3006.11 0.729604
3006.37 0.560771
3006.63 0.465535
3007.14 0.368689
3008.17 0.302596
3009.21 0.289518
3011.27 0.320114
3013.33 0.410362
3015.39 0.600120
3016.42 0.768925
3017.46 1.03482
3018.49 1.48327
3019.52 2.30974
3020.03 3.00034
3020.55 4.02035
3021.07 5.57213
3021.58 7.92533
3022.29 12.6175
3023.00 15.7315
3023.71 12.6106
3024.42 7.91930
3025.13 4.89079
3025.85 3.19934
3026.56 2.22478
3027.27 1.63134
3028.70 0.989414
3030.13 0.675759
3031.55 0.503637
3032.98 0.402994
3035.83 0.311265
3038.69 0.311717
3040.12 0.351139
3041.54 0.437884
3042.97 0.624057
3043.68 0.796481
3044.40 1.07845
3045.11 1.58046
3045.47 1.98859
3045.82 2.58352
3046.18 3.49568
3046.54 4.95976
3046.89 7.44872
3047.25 11.7500
3047.62 18.7354
3048.00 23.3870
3048.38 18.7284
3048.75 11.7419
3048.99 8.66135
3049.22 6.50785
3049.69 3.95087
3050.16 2.61936
3050.62 1.86073
3051.09 1.39398
3051.56 1.08875
3052.50 0.730359
3053.43 0.538341
3054.37 0.426694
3056.24 0.319900
3058.11 0.302224
3059.04 0.327026
3059.98 0.391010
3060.92 0.539675
3061.38 0.685183
3061.85 0.936265
3062.32 1.42147
3062.55 1.85082
3062.79 2.53555
3063.02 3.71818
3063.14 4.65536
3063.25 5.99470
3063.37 7.98360
3063.49 11.0639
3063.61 16.0233
3063.66 19.5492
3063.72 24.0082
3063.86 38.4103
3064.00 47.9306
3064.07 45.0927
3064.14 38.2972
3064.28 24.0059
3064.44 13.8232
3064.60 8.62357
3064.76 5.79628
3064.92 4.15549
3065.08 3.12165
3065.24 2.44097
3065.56 1.62618
3065.88 1.18095
3066.21 0.913620
3066.85 0.627594
3067.49 0.492368
3068.13 0.426951
3069.41 0.405598
3070.70 0.505509
3071.34 0.627012
3071.98 0.845046
3072.62 1.26745
3072.94 1.63615
3073.26 2.21020
3073.58 3.17258
3073.90 4.93154
3074.06 6.39239
3074.22 8.52328
3074.38 11.7221
3074.54 16.5229
3074.77 26.3930
3075.00 32.9741
3075.23 26.3850
3075.46 16.5118
3075.72 9.53891
3075.98 5.95101
3076.24 4.00288
3076.50 2.86060
3076.76 2.14088
3077.02 1.66469
3077.54 1.09395
3078.06 0.778872
3078.58 0.587810
3079.62 0.377236
3080.66 0.269676
3081.70 0.207388
3083.78 0.141758
3085.86 0.109994
3087.95 0.0929463
3092.11 0.0795961
3096.27 0.0836163
3100.43 0.112051
3102.51 0.150616
3103.56 0.186513
3104.60 0.247801
3105.64 0.368646
3106.16 0.480678
3106.68 0.671700
3107.20 1.04271
3107.46 1.37607
3107.72 1.92029
3107.98 2.89711
3108.11 3.70354
3108.24 4.90405
3108.37 6.78780
3108.50 9.93510
3108.63 15.5605
3108.76 26.0017
3108.88 41.5497
3109.00 51.7869
3109.12 41.4161
3109.24 26.0100
3109.38 14.9556
3109.53 9.29745
3109.67 6.25215
3109.81 4.48883
3109.95 3.37847
3110.09 2.64945
3110.37 1.77954
3110.65 1.30664
3110.93 1.02745
3111.49 0.737546
3112.06 0.613049
3112.62 0.567861
3113.74 0.615070
3114.87 0.840715
3115.43 1.06311
3115.99 1.42291
3116.56 2.04074
3116.84 2.52105
3117.12 3.19377
3117.40 4.16966
3117.68 5.62164
3117.96 7.84842
3118.24 11.2709
3118.62 17.9966
3119.00 22.4583
3119.38 17.9675
3119.76 11.2412
3120.17 6.67837
3120.58 4.24381
3120.99 2.88772
3121.40 2.07845
3121.81 1.56274
3122.21 1.21785
3123.03 0.800773
3123.85 0.568692
3124.67 0.427098
3126.31 0.270471
3127.94 0.190448
3129.58 0.144318
3132.85 0.0966180
3136.13 0.0752637
3139.40 0.0674995
3141.04 0.0691123
3142.67 0.0802096
3143.49 0.0972574
3143.90 0.114369
3144.31 0.145420
3144.72 0.210701
3144.92 0.274590
3145.13 0.387688
3145.33 0.620314
3145.44 0.839823
3145.54 1.21730
3145.64 1.95930
3145.69 2.61902
3145.74 3.68591
3145.79 5.56865
3145.84 9.32177
3145.87 12.8104
3145.90 18.2121
3145.92 27.7709
3145.93 35.0256
3145.95 44.3441
3145.96 56.7085
3145.97 70.5164
3146.00 88.5734
3146.03 70.5156
3146.05 44.3433
3146.09 25.0622
3146.12 15.2867
3146.15 10.1113
3146.18 7.20230
3146.21 5.32723
3146.24 4.09488
3146.31 2.65199
3146.37 1.85116
3146.43 1.37589
3146.56 0.852118
3146.69 0.588229
3146.82 0.437149
3147.07 0.280352
3147.32 0.204485
3147.58 0.162564
3148.08 0.120412
3149.10 0.0915553
3150.11 0.0840027
3152.14 0.0868526
3154.17 0.101956
3156.20 0.130913
3158.22 0.184947
3160.25 0.296499
3161.27 0.401416
3162.28 0.579488
3162.28 0.579953
3162.29 0.581821
3162.30 0.583697
3162.31 0.587479
3162.34 0.594914
3162.41 0.610478
3162.53 0.643271
3162.78 0.717841
3163.28 0.912358
3163.79 1.19992
3164.29 1.64685
3164.79 2.39466
3165.04 2.96809
3165.29 3.75892
3165.54 4.89118
3165.79 6.54819
3166.04 9.05290
3166.29 12.8090
3166.65 20.4897
3167.00 25.6096
3167.35 20.4837
3167.71 12.8029
3168.09 7.57210
3168.48 4.79091
3168.86 3.24593
3169.25 2.32588
3169.63 1.74178
3170.01 1.35064
3170.78 0.878670
3171.55 0.616782
3172.32 0.457436
3173.85 0.281713
3175.39 0.192147
3176.93 0.140454
3180.00 0.0860351
3180.00 2.14917
3831.19 1.85352
4000.00 1.77688
4000.00 1.77688
4000.00 1.77688
5000.00 1.48235
5871.20 1.30811
6000.00 1.28235
7000.00 1.13712
8000.00 1.02653
8617.74 0.972616
9000.00 0.939257
10000.0 0.868468
12500.0 0.738243
12649.1 0.732911
15000.0 0.648833
17000.0 0.595000
18566.4 0.562700
20000.0 0.533139
25000.0 0.461103
27251.7 0.438935
30000.0 0.411879
35000.0 0.376074
40000.0 0.348854
50000.0 0.309978
58712.0 0.286653
60000.0 0.283204
67687.9 0.267437
67688.0 0.267437
67688.0 0.232670
70000.0 0.227472
73004.6 0.219374
73004.7 0.219374
80000.0 0.200520
86177.4 0.189102
90000.0 0.182036
100000 0.168933
126491 0.149463
150000 0.132184
185664 0.118910
200000 0.113574
250000 0.102257
272517 0.0989689
300000 0.0949557
400000 0.0872631
440000 0.0861157
495000 0.0845381
495000 0.0845381
500000 0.0843947
600000 0.0844125
662248 0.0785755
662248 0.0785755
700000 0.0750355
753488 0.0703147
753489 0.0703146
785882 0.0674556
785882 0.0674555
800000 0.0662095
900000 0.0629417
926233 0.0620043
926233 0.0620043
927129 0.0619723
927129 0.0619723
943572 0.0613846
943573 0.0613846
1.00000E+06 0.0593682
1.01826E+06 0.0583760
1.03113E+06 0.0576766
1.05873E+06 0.0561769
1.05873E+06 0.0561768
1.09280E+06 0.0543255
1.09281E+06 0.0543252
1.09421E+06 0.0542488
1.10000E+06 0.0539342
1.11893E+06 0.0527907
1.11894E+06 0.0527904
1.15827E+06 0.0504146
1.15827E+06 0.0504144
1.16913E+06 0.0497584
1.16913E+06 0.0497583
1.17041E+06 0.0496811
1.17041E+06 0.0496810
1.20000E+06 0.0478937
1.22128E+06 0.0472331
1.22215E+06 0.0472061
1.22215E+06 0.0472061
1.25843E+06 0.0460798
1.29455E+06 0.0449585
1.29455E+06 0.0449585
1.30000E+06 0.0447893
1.32597E+06 0.0442060
1.32597E+06 0.0442059
1.33553E+06 0.0439911
1.33553E+06 0.0439911
1.34792E+06 0.0437128
1.34792E+06 0.0437128
1.38072E+06 0.0429759
1.38448E+06 0.0428915
1.40000E+06 0.0425428
1.41065E+06 0.0421183
1.41065E+06 0.0421182
1.41105E+06 0.0421024
1.41106E+06 0.0421022
1.41369E+06 0.0419971
1.41369E+06 0.0419970
1.43754E+06 0.0410465
1.43754E+06 0.0410465
1.50000E+06 0.0385568
1.57498E+06 0.0358308
1.58496E+06 0.0354680
1.58980E+06 0.0352920
1.60000E+06 0.0349212
1.70000E+06 0.0327418
1.73318E+06 0.0320815
1.80000E+06 0.0307518
1.80277E+06 0.0307054
1.82351E+06 0.0303583
1.84317E+06 0.0300293
1.87258E+06 0.0295370
1.88296E+06 0.0293633
1.89654E+06 0.0291360
1.90000E+06 0.0290781
2.00000E+06 0.0275385
2.50000E+06 0.0198406
3.00000E+06 0.0148602
3.50000E+06 0.0108805
3.87680E+06 0.00852349
4.00000E+06 0.00775283
5.00000E+06 0.00380667
5.79607E+06 0.00228175
5.79607E+06 0.00228174
6.00000E+06 0.00189110
7.00000E+06 0.00106300
8.00000E+06 0.000804465
8.02648E+06 0.000805019
8.02648E+06 0.000805019
9.00000E+06 0.000825384
1.00000E+07 0.000898547
1.10000E+07 0.000942502
1.20000E+07 0.000959968
1.30000E+07 0.000948219
1.36665E+07 0.000906342
1.36665E+07 0.000906341
1.38195E+07 0.000896727
1.40000E+07 0.000885386
1.45000E+07 0.000824722
1.50000E+07 0.000731660
1.60000E+07 0.000574937
1.70000E+07 0.000409300
1.80000E+07 0.000305694
1.90000E+07 0.000228954
2.00000E+07 0.000174561