Nd-144(n,g) ENDF/B-VII.1
Energy(eV) XS(b)
1.00000E-05 180.778
1.25000E-05 161.693
1.50000E-05 147.605
2.00000E-05 127.829
2.50000E-05 114.334
3.12500E-05 102.263
3.75000E-05 93.3533
5.00000E-05 80.8463
6.25000E-05 72.3112
7.50000E-05 66.0108
0.000100000 57.1670
0.000125000 51.1317
0.000150000 46.6766
0.000200000 40.4232
0.000275000 34.4730
0.000350000 30.5570
0.000425000 27.7300
0.000500000 25.5658
0.000625000 22.8668
0.000750000 20.8744
0.00100000 18.0777
0.00125000 16.1692
0.00150000 14.7604
0.00200000 12.7829
0.00275000 10.9012
0.00350000 9.66288
0.00425000 8.76890
0.00500000 8.08451
0.00625000 7.23098
0.00750000 6.60092
0.0100000 5.71652
0.0125000 5.11297
0.0150000 4.66745
0.0200000 4.04206
0.0253000 3.59377
0.0314750 3.22196
0.0376500 2.94586
0.0500000 2.55618
0.0625000 2.28623
0.0750000 2.08695
0.100000 1.80721
0.125000 1.61629
0.150000 1.47535
0.200000 1.27749
0.275000 1.08919
0.350000 0.965239
0.500000 0.807199
0.750000 0.658564
1.00000 0.569893
1.50000 0.464604
2.00000 0.401751
2.75000 0.341850
3.50000 0.302353
5.00000 0.251889
7.50000 0.204280
10.0000 0.175795
15.0000 0.141914
20.0000 0.121720
27.5000 0.102630
35.0000 0.0902759
50.0000 0.0751844
62.5000 0.0677089
68.7500 0.0650101
75.0000 0.0628251
81.2500 0.0610669
84.3750 0.0603271
85.9375 0.0599892
87.5000 0.0596715
89.0625 0.0593735
90.6250 0.0590945
92.1875 0.0588340
93.7500 0.0585914
95.3125 0.0583663
96.8750 0.0581581
98.4375 0.0579665
100.000 0.0577910
103.125 0.0574870
106.250 0.0572434
112.500 0.0569292
118.750 0.0568340
125.000 0.0569485
137.500 0.0577881
150.000 0.0594450
162.500 0.0619681
175.000 0.0654601
187.500 0.0700875
200.000 0.0760998
220.703 0.0901581
241.405 0.111977
262.108 0.147394
282.810 0.209498
293.161 0.259550
303.513 0.332651
313.864 0.445397
324.215 0.632477
334.566 0.976353
339.742 1.26737
344.918 1.71175
350.093 2.43438
355.269 3.70620
360.444 6.16233
363.032 8.24210
365.620 11.2262
369.710 17.8256
373.800 21.9699
377.890 17.3267
381.980 10.7464
385.668 6.89416
389.356 4.62160
393.044 3.25468
396.733 2.39303
404.109 1.43031
411.485 0.942054
418.861 0.663994
426.238 0.491757
440.990 0.299475
455.743 0.200844
470.495 0.143924
485.248 0.108275
500.000 0.0845740
529.169 0.0564553
558.337 0.0411116
587.506 0.0322196
616.675 0.0272550
645.843 0.0256620
675.012 0.0299980
689.596 0.0388760
696.888 0.0483432
704.180 0.0660623
707.827 0.0811782
711.473 0.104417
715.119 0.142727
718.765 0.212470
720.588 0.271067
722.411 0.360245
724.234 0.505661
725.145 0.615490
725.601 0.684782
726.057 0.766773
726.513 0.864813
726.741 0.921183
726.969 0.983349
727.196 1.05214
727.424 1.12852
727.652 1.21365
727.880 1.30888
728.336 1.53689
728.792 1.83080
729.247 2.21878
729.703 2.74537
730.159 3.48552
730.615 4.57133
731.070 6.25625
731.526 9.07133
731.754 11.2444
731.982 14.2917
732.210 18.7421
732.438 25.5768
732.665 36.7806
732.893 56.6989
733.007 72.7527
733.121 95.7196
733.235 129.206
733.349 177.849
733.525 284.261
733.700 355.018
733.876 283.773
734.052 177.183
734.182 123.231
734.312 88.0622
734.442 65.0780
734.572 49.6462
734.831 31.2444
735.091 21.3020
735.351 15.3935
735.610 11.6218
736.130 7.27764
736.649 4.97481
737.169 3.61286
737.688 2.74206
738.208 2.15220
739.246 1.42777
740.285 1.01706
741.324 0.762041
742.363 0.592996
744.441 0.389887
746.518 0.277209
748.596 0.208283
750.674 0.163075
754.829 0.109336
758.985 0.0798209
763.140 0.0618777
767.296 0.0501531
775.606 0.0362499
783.917 0.0286156
800.539 0.0209222
833.783 0.0153702
867.026 0.0136154
933.513 0.0135994
966.757 0.0146854
983.378 0.0155168
991.689 0.0160161
1000.00 0.0165776
1008.16 0.0171954
1012.24 0.0175312
1016.32 0.0178859
1020.40 0.0182610
1024.48 0.0186574
1028.56 0.0190765
1032.64 0.0195194
1036.72 0.0199878
1040.80 0.0204833
1048.96 0.0215626
1057.12 0.0227735
1065.28 0.0241353
1081.59 0.0274104
1097.91 0.0316419
1114.23 0.0372153
1130.55 0.0447371
1146.87 0.0552060
1163.19 0.0703540
1179.51 0.0933997
1195.83 0.130858
1203.99 0.159005
1212.14 0.197505
1220.30 0.251988
1228.46 0.332269
1236.62 0.456530
1244.78 0.660157
1252.94 1.01431
1261.10 1.64833
1269.20 2.62615
1277.30 3.25695
1285.40 2.58337
1293.50 1.60730
1298.69 1.16990
1303.89 0.868502
1314.27 0.516322
1324.66 0.335931
1335.04 0.234303
1345.42 0.172264
1355.81 0.131930
1376.58 0.0847874
1397.35 0.0596066
1418.12 0.0448214
1459.66 0.0298018
1501.19 0.0245697
1521.96 0.0248177
1542.73 0.0279130
1563.50 0.0369810
1573.89 0.0466893
1584.27 0.0645884
1594.66 0.102161
1599.85 0.138372
1602.45 0.165243
1603.74 0.181998
1605.04 0.201644
1605.69 0.212780
1606.34 0.224901
1606.99 0.238148
1607.64 0.252662
1608.29 0.268611
1608.94 0.286188
1610.23 0.327180
1611.53 0.378016
1612.83 0.442092
1614.13 0.524392
1615.43 0.632456
1616.72 0.778113
1618.02 0.980700
1619.32 1.27345
1620.62 1.71692
1621.92 2.42930
1623.21 3.65952
1623.86 4.62262
1624.51 5.96608
1625.16 7.86477
1625.81 10.5309
1626.91 16.8182
1628.00 20.9877
1629.10 16.7891
1630.19 10.5028
1631.14 6.88288
1632.09 4.69192
1633.04 3.34798
1633.99 2.48832
1635.88 1.51342
1637.78 1.01156
1639.68 0.722350
1641.58 0.541602
1645.37 0.337770
1649.17 0.231896
1652.96 0.170215
1660.55 0.105421
1668.14 0.0751621
1675.73 0.0626909
1679.53 0.0643863
1683.33 0.0818259
1685.22 0.110746
1686.17 0.140676
1687.12 0.195933
1687.60 0.242818
1688.07 0.314343
1688.54 0.431690
1689.02 0.642787
1689.26 0.819194
1689.49 1.08405
1689.73 1.50990
1689.97 2.25893
1690.09 2.87030
1690.20 3.76286
1690.32 5.16615
1690.38 6.17336
1690.44 7.50631
1690.50 9.35670
1690.56 11.9272
1690.59 13.6560
1690.62 15.7052
1690.65 18.3419
1690.68 21.5609
1690.71 25.8440
1690.74 31.4913
1690.77 39.1168
1690.80 49.2780
1690.83 64.1938
1690.86 85.2236
1690.89 117.694
1690.92 164.408
1690.96 263.326
1691.00 326.851
1691.02 306.552
1691.04 260.868
1691.09 162.482
1691.12 110.073
1691.15 77.0319
1691.19 56.0409
1691.22 42.5781
1691.29 26.3338
1691.36 17.8545
1691.42 12.8018
1691.49 9.65024
1691.63 6.01706
1691.76 4.10619
1691.90 2.98130
1692.03 2.26449
1692.17 1.78010
1692.44 1.18662
1692.71 0.850832
1692.98 0.642602
1693.25 0.504640
1693.79 0.338914
1694.33 0.246895
1694.87 0.190508
1695.41 0.153483
1696.49 0.109147
1697.57 0.0845499
1699.72 0.0593319
1701.88 0.0470247
1704.04 0.0399067
1708.36 0.0320402
1717.00 0.0249217
1725.64 0.0214069
1742.91 0.0178314
1760.19 0.0162402
1794.74 0.0160095
1829.29 0.0190533
1863.85 0.0275407
1881.12 0.0362240
1889.76 0.0427549
1894.08 0.0468447
1898.40 0.0516505
1900.56 0.0543743
1902.72 0.0573441
1904.88 0.0605929
1907.04 0.0641526
1909.20 0.0680672
1911.35 0.0723806
1913.51 0.0771524
1915.67 0.0824440
1919.99 0.0949226
1924.31 0.110643
1928.63 0.130816
1932.95 0.157267
1937.27 0.192851
1941.59 0.242213
1945.91 0.313295
1950.23 0.420460
1954.54 0.591463
1958.86 0.883929
1961.02 1.11080
1963.18 1.42442
1965.34 1.86311
1967.50 2.47217
1971.25 3.93968
1975.00 4.90450
1978.75 3.92025
1982.50 2.45336
1986.88 1.40126
1991.25 0.863993
1995.63 0.575241
2000.00 0.407198
2006.06 0.272252
2012.12 0.194319
2018.18 0.145546
2024.24 0.113112
2036.36 0.0741371
2048.48 0.0526233
2060.60 0.0396854
2072.72 0.0318355
2084.84 0.0302147
2087.87 0.0335149
2089.39 0.0374672
2090.90 0.0452177
2092.42 0.0625304
2093.18 0.0801349
2093.93 0.112520
2094.69 0.182191
2095.07 0.251668
2095.45 0.377722
2095.64 0.484200
2095.83 0.645470
2096.02 0.910039
2096.21 1.38296
2096.30 1.77741
2096.40 2.37141
2096.49 3.32595
2096.59 4.98001
2096.63 6.34839
2096.68 8.31757
2096.73 11.3646
2096.77 16.4380
2096.82 26.0707
2096.85 34.3457
2096.87 46.4889
2096.89 67.1974
2096.92 102.227
2096.94 173.320
2096.95 234.475
2096.96 314.550
2096.98 508.732
2097.00 629.154
2097.02 497.843
2097.04 314.546
2097.06 186.494
2097.08 120.540
2097.10 82.8669
2097.11 59.9648
2097.13 45.2035
2097.15 35.2061
2097.19 23.0020
2097.23 16.0230
2097.27 11.8718
2097.34 7.25536
2097.42 4.86420
2097.50 3.50104
2097.57 2.64107
2097.65 2.06418
2097.80 1.35931
2097.95 0.964709
2098.11 0.721818
2098.26 0.562644
2098.57 0.371130
2098.87 0.265790
2099.48 0.159417
2100.09 0.109368
2100.70 0.0818984
2101.92 0.0542541
2103.15 0.0411969
2104.37 0.0339433
2106.81 0.0264109
2111.70 0.0203268
2116.58 0.0175785
2136.13 0.0127399
2175.21 0.00853259
2214.30 0.00635766
2253.39 0.00506362
2331.56 0.00384991
2351.11 0.00385985
2370.65 0.00432443
2380.42 0.00514501
2385.31 0.00601034
2390.19 0.00763223
2395.08 0.0111683
2397.52 0.0147318
2399.97 0.0212851
2402.41 0.0353906
2403.63 0.0495137
2404.85 0.0753339
2405.46 0.0971697
2406.07 0.130609
2406.69 0.185601
2407.30 0.285362
2407.60 0.369384
2407.91 0.496798
2408.21 0.704299
2408.52 1.07625
2408.67 1.38537
2408.82 1.84988
2408.98 2.59419
2409.13 3.88568
2409.28 6.46899
2409.36 8.82479
2409.43 12.7307
2409.51 20.0165
2409.55 26.1030
2409.59 35.3511
2409.62 50.2696
2409.66 76.1894
2409.70 125.232
2409.72 165.961
2409.74 223.573
2409.77 360.036
2409.80 447.244
2409.83 355.480
2409.86 223.567
2409.89 158.529
2409.91 115.093
2409.93 86.0982
2409.95 67.0398
2409.99 42.6510
2410.04 29.5079
2410.08 21.3990
2410.12 16.2899
2410.21 10.3151
2410.30 7.07300
2410.38 5.14592
2410.47 3.90969
2410.56 3.07826
2410.73 2.04097
2410.90 1.45424
2411.08 1.08688
2411.25 0.844295
2411.60 0.551271
2411.95 0.388372
2412.29 0.288581
2412.64 0.223218
2413.33 0.145189
2414.03 0.102363
2414.72 0.0762896
2415.41 0.0592908
2416.80 0.0391604
2418.19 0.0281570
2420.96 0.0171521
2423.73 0.0120273
2426.51 0.00923005
2432.06 0.00643161
2437.61 0.00512427
2443.15 0.00440731
2454.25 0.00368489
2476.44 0.00316648
2498.64 0.00301501
2543.02 0.00310069
2587.41 0.00362893
2631.79 0.00501960
2653.99 0.00647895
2676.18 0.00917956
2687.28 0.0114641
2698.37 0.0149518
2709.47 0.0206525
2720.57 0.0309078
2726.11 0.0394260
2731.66 0.0522424
2737.21 0.0728193
2739.98 0.0881332
2742.76 0.108947
2744.15 0.122275
2745.53 0.138237
2746.23 0.147433
2746.92 0.157571
2747.61 0.168816
2748.31 0.181297
2749.00 0.195243
2749.69 0.210844
2751.08 0.248274
2752.47 0.296640
2753.85 0.360618
2755.24 0.447645
2756.63 0.570103
2758.02 0.749769
2759.40 1.02757
2760.79 1.48684
2761.48 1.83580
2762.18 2.31424
2762.87 2.99030
2763.56 3.96913
2764.26 5.42086
2764.95 7.56388
2765.98 12.1054
2767.00 15.1302
2768.03 12.0939
2769.05 7.55277
2769.79 5.28927
2770.53 3.80109
2771.28 2.82119
2772.02 2.15893
2773.50 1.36484
2774.99 0.933505
2776.47 0.676055
2777.95 0.511209
2780.92 0.320924
2783.89 0.219794
2786.86 0.159899
2789.82 0.121553
2792.79 0.0955670
2798.73 0.0636265
2804.66 0.0455040
2810.60 0.0342477
2816.53 0.0267844
2828.40 0.0178150
2840.27 0.0128396
2852.14 0.00979856
2864.01 0.00780813
2887.75 0.00546079
2911.49 0.00423121
2935.23 0.00381178
2941.16 0.00404041
2947.10 0.00497711
2953.03 0.0105917
2954.52 0.0164711
2956.00 0.0331588
2956.74 0.0562912
2957.48 0.121248
2957.85 0.210147
2958.22 0.455267
2958.41 0.784353
2958.50 1.10263
2958.60 1.65494
2958.69 2.77262
2958.73 3.79575
2958.78 5.50450
2958.83 8.76649
2958.85 11.5107
2958.87 15.7356
2958.90 22.6778
2958.92 35.0699
2958.94 59.5011
2958.95 81.7274
2958.97 111.451
2958.98 180.359
2959.00 222.913
2959.02 176.282
2959.04 111.450
2959.05 75.3036
2959.06 53.8671
2959.08 39.8622
2959.09 30.4450
2959.12 18.8980
2959.14 12.9392
2959.17 9.27433
2959.19 7.02883
2959.25 4.42516
2959.30 3.01567
2959.35 2.18493
2959.46 1.30260
2959.56 0.860956
2959.67 0.613075
2959.88 0.355677
2960.30 0.164033
2960.72 0.0948641
2961.57 0.0442632
2962.41 0.0262780
2965.78 0.00866324
2972.53 0.00411907
2979.28 0.00320399
2986.02 0.00283602
3013.01 0.00232225
3040.00 0.00214975
3053.49 0.00219616
3060.24 0.00258295
3063.61 0.00418828
3065.30 0.0105574
3066.14 0.0353791
3066.56 0.129861
3066.67 0.223581
3066.77 0.471665
3066.82 0.793437
3066.88 1.57835
3066.90 2.54183
3066.93 4.59839
3066.94 6.67190
3066.96 10.4269
3066.97 18.0028
3066.98 25.3434
3066.98 35.0788
3066.99 57.0758
3067.00 70.1560
3067.01 57.0760
3067.02 35.0790
3067.03 20.7609
3067.04 13.2301
3067.05 8.69163
3067.06 6.27386
3067.08 3.58806
3067.10 2.35132
3067.14 1.19399
3067.18 0.726851
3067.27 0.348138
3067.35 0.203866
3067.68 0.0553016
3068.35 0.0157131
3069.67 0.00549687
3072.33 0.00289702
3077.64 0.00224078
3088.26 0.00208886
3109.49 0.00218847
3130.73 0.00307712
3141.35 0.00666215
3144.00 0.0103632
3146.66 0.0208762
3147.98 0.0355091
3149.31 0.0768624
3149.97 0.134049
3150.64 0.293800
3150.97 0.511825
3151.14 0.725970
3151.30 1.10972
3151.47 1.90366
3151.55 2.66506
3151.63 3.99314
3151.72 6.62476
3151.76 9.06906
3151.80 13.0188
3151.84 20.4244
3151.86 26.6869
3151.88 35.6640
3151.90 50.7054
3151.92 75.1282
3151.94 122.474
3151.96 209.421
3151.98 335.086
3152.00 418.866
3152.02 335.083
3152.04 209.420
3152.05 128.872
3152.07 83.7665
3152.09 57.7703
3152.11 42.5905
3152.13 32.0799
3152.14 24.9636
3152.18 16.4602
3152.21 11.5282
3152.25 8.57734
3152.32 5.23648
3152.39 3.52260
3152.46 2.52969
3152.60 1.48949
3152.75 0.977672
3152.89 0.692299
3153.17 0.398785
3153.45 0.259252
3153.74 0.182187
3154.30 0.104432
3155.43 0.0479546
3156.57 0.0279605
3158.83 0.0135573
3161.10 0.00848859
3170.15 0.00359003
3188.27 0.00240926
3224.51 0.00227691
3260.74 0.00252372
3278.86 0.00278611
3287.92 0.00319562
3292.45 0.00443148
3294.72 0.00910858
3295.85 0.0273025
3296.41 0.0969375
3296.56 0.166372
3296.70 0.352334
3296.77 0.595888
3296.84 1.21980
3296.87 1.99450
3296.91 3.73492
3296.93 5.65456
3296.94 9.14974
3296.95 12.3872
3296.96 17.4971
3296.97 25.9292
3296.98 39.6502
3296.99 63.5946
3297.00 79.1027
3297.01 63.5947
3297.02 39.4550
3297.03 27.1670
3297.04 19.8405
3297.05 11.1490
3297.07 7.00083
3297.08 4.87971
3297.11 2.64192
3297.14 1.67025
3297.20 0.829991
3297.26 0.494803
3297.37 0.234161
3297.49 0.136719
3297.96 0.0379136
3298.91 0.0119024
3300.79 0.00525368
3304.56 0.00362425
3312.10 0.00333406
3327.17 0.00354615
3357.32 0.00441871
3387.47 0.00589260
3417.63 0.00854122
3432.70 0.0107244
3447.78 0.0139806
3455.32 0.0162438
3459.08 0.0175998
3462.85 0.0191420
3466.62 0.0209059
3468.51 0.0218848
3470.39 0.0229361
3472.28 0.0240683
3474.16 0.0252886
3476.04 0.0266071
3477.93 0.0280345
3481.70 0.0312680
3485.47 0.0351101
3489.24 0.0397225
3493.00 0.0453246
3496.77 0.0522185
3500.54 0.0608299
3504.31 0.0717734
3508.08 0.0859557
3511.85 0.104778
3515.62 0.130449
3519.39 0.166623
3523.16 0.219631
3526.92 0.301013
3530.69 0.432871
3534.46 0.658527
3538.23 1.05428
3542.12 1.68484
3546.00 2.10266
3549.89 1.68007
3553.77 1.04970
3556.12 0.778537
3558.47 0.587164
3563.17 0.357003
3567.87 0.235552
3572.57 0.165742
3577.27 0.122498
3581.98 0.0940636
3591.38 0.0603890
3600.78 0.0420760
3610.18 0.0310871
3619.58 0.0240542
3624.28 0.0216506
3626.63 0.0213824
3627.81 0.0242745
3628.39 0.0372388
3628.69 0.0863314
3628.84 0.256777
3628.91 0.762817
3628.95 1.96394
3628.96 3.84591
3628.98 9.58603
3628.99 15.4912
3629.00 19.1530
3629.01 15.4912
3629.02 9.58606
3629.03 4.81224
3629.05 2.68306
3629.07 1.17383
3629.13 0.410629
3629.24 0.133982
3629.46 0.0502785
3629.90 0.0269453
3630.77 0.0205201
3632.53 0.0182879
3636.04 0.0166640
3643.05 0.0145155
3657.09 0.0116096
3685.16 0.00910776
3699.20 0.00960096
3706.22 0.0107555
3713.23 0.0132796
3720.25 0.0191074
3723.76 0.0250178
3727.27 0.0357532
3729.03 0.0447023
3730.78 0.0581723
3732.53 0.0798004
3734.29 0.117672
3736.04 0.193224
3736.48 0.223981
3736.92 0.262758
3737.36 0.312831
3737.58 0.343387
3737.80 0.378673
3738.02 0.419910
3738.24 0.468032
3738.46 0.525188
3738.68 0.593090
3738.90 0.675353
3739.11 0.775261
3739.33 0.898689
3739.55 1.05340
3739.77 1.25155
3739.99 1.50767
3740.21 1.84696
3740.43 2.30669
3740.65 2.94815
3740.87 3.85591
3741.09 5.16712
3741.31 7.05276
3741.65 11.2796
3742.00 14.0955
3742.35 11.2770
3742.69 7.05027
3743.08 4.13378
3743.46 2.59609
3743.85 1.74972
3744.23 1.24899
3744.61 0.932593
3745.00 0.721486
3745.77 0.467984
3746.53 0.327879
3747.30 0.242909
3748.84 0.150243
3750.37 0.104943
3751.91 0.0841359
3752.68 0.0837766
3753.44 0.101948
3753.83 0.134348
3754.21 0.231109
3754.40 0.365431
3754.59 0.734955
3754.69 1.22451
3754.79 2.50495
3754.83 4.10375
3754.86 5.55528
3754.88 7.93825
3754.91 12.2375
3754.92 15.7992
3754.93 21.1148
3754.94 29.4773
3754.95 43.4856
3754.97 68.5749
3754.98 112.554
3754.99 181.658
3755.00 225.068
3755.01 181.658
3755.02 112.554
3755.03 81.0508
3755.04 60.7907
3755.05 45.0473
3755.05 35.5284
3755.07 22.8480
3755.08 16.1619
3755.10 11.7600
3755.11 8.92361
3755.14 5.70834
3755.17 3.91631
3755.20 2.88255
3755.26 1.75351
3755.37 0.852694
3755.49 0.512093
3755.73 0.255810
3755.96 0.161889
3756.43 0.0917927
3756.90 0.0655625
3757.83 0.0445392
3758.77 0.0354053
3760.64 0.0263279
3762.51 0.0213374
3766.26 0.0155754
3770.00 0.0122830
3777.49 0.00905140
3779.36 0.00893854
3781.24 0.00979768
3783.11 0.0166787
3784.04 0.0450353
3784.51 0.153334
3784.63 0.259818
3784.75 0.543645
3784.80 0.911537
3784.86 1.81170
3784.89 2.91304
3784.92 5.27491
3784.94 7.77033
3784.95 11.9956
3784.97 21.2173
3784.97 28.9057
3784.98 40.6408
3784.99 66.0178
3785.00 81.2759
3785.01 66.0178
3785.02 40.6409
3785.03 28.9058
3785.04 20.3462
3785.05 11.5965
3785.07 7.15046
3785.08 4.91941
3785.11 2.66978
3785.14 1.66742
3785.21 0.826631
3785.27 0.493035
3785.39 0.234576
3785.52 0.138733
3786.01 0.0408062
3787.00 0.0149220
3788.97 0.00801037
3790.95 0.00648911
3792.93 0.00579845
3800.83 0.00457557
3816.64 0.00349003
3848.26 0.00249997
3911.50 0.00170658
3974.74 0.00136546
4006.36 0.00128427
4022.17 0.00133771
4030.08 0.00169818
4034.03 0.00319627
4036.00 0.00914583
4036.99 0.0323762
4037.49 0.120799
4037.73 0.441008
4037.79 0.742563
4037.86 1.50272
4037.89 2.40917
4037.92 4.44434
4037.93 6.64342
4037.95 10.4913
4037.96 18.4298
4037.97 26.2117
4037.98 37.0850
4037.99 60.1353
4038.00 74.1695
4038.01 60.1353
4038.02 37.0851
4038.03 20.9438
4038.05 12.9542
4038.06 8.38095
4038.07 5.96539
4038.10 3.36293
4038.12 2.14438
4038.17 1.08478
4038.22 0.657946
4038.32 0.314128
4038.42 0.183495
4038.81 0.0492283
4039.61 0.0134941
4041.19 0.00428920
4044.36 0.00194830
4050.71 0.00134802
4063.39 0.00117870
4088.76 0.00110681
4139.50 0.00105794
4190.24 0.00107156
4215.61 0.00119707
4228.29 0.00169432
4234.64 0.00366428
4237.81 0.0114714
4239.39 0.0421997
4239.79 0.0736019
4240.19 0.161186
4240.38 0.280306
4240.58 0.605658
4240.68 1.03547
4240.78 2.15796
4240.83 3.57860
4240.88 6.91357
4240.90 10.7262
4240.93 18.6739
4240.94 26.6268
4240.95 39.0484
4240.97 61.0982
4240.98 103.081
4240.99 166.730
4241.00 205.710
4241.01 166.730
4241.02 102.629
4241.03 75.1061
4241.04 54.2772
4241.05 40.4277
4241.05 31.0085
4241.07 19.6531
4241.09 13.7518
4241.12 7.62019
4241.15 4.81277
4241.21 2.38727
4241.27 1.43012
4241.40 0.674363
4241.52 0.391045
4241.77 0.179540
4242.02 0.102934
4243.02 0.0270852
4245.02 0.00763079
4249.02 0.00270214
4257.02 0.00146610
4273.01 0.00116684
4305.00 0.00112493
4336.99 0.00118536
4352.98 0.00133998
4360.98 0.00187879
4364.98 0.00397547
4366.98 0.0122266
4367.98 0.0443881
4368.48 0.166567
4368.60 0.286733
4368.73 0.607367
4368.79 1.02323
4368.85 2.04400
4368.88 3.23821
4368.92 5.85240
4368.93 8.59774
4368.95 13.2536
4368.96 23.3371
4368.97 32.4660
4368.98 46.1145
4368.99 73.8158
4369.00 92.0207
4369.01 73.8158
4369.02 45.9069
4369.03 32.4661
4369.04 24.2784
4369.05 14.1332
4369.07 9.06743
4369.08 6.40347
4369.11 3.58693
4369.14 2.27999
4369.20 1.13855
4369.26 0.684967
4369.37 0.324556
4369.49 0.189617
4369.96 0.0505699
4370.89 0.0138484
4372.76 0.00440048
4376.49 0.00201209
4383.96 0.00142416
4398.89 0.00130681
4428.75 0.00135092
4488.48 0.00157817
4548.22 0.00200362
4578.08 0.00256051
4593.01 0.00393337
4600.48 0.00885933
4602.35 0.0138617
4604.21 0.0279487
4605.15 0.0473969
4606.08 0.101676
4606.55 0.175617
4606.78 0.247942
4607.01 0.377152
4607.25 0.644873
4607.36 0.901167
4607.48 1.34220
4607.60 2.21762
4607.66 3.00610
4607.71 4.29792
4607.77 6.67767
4607.80 8.62432
4607.83 11.5292
4607.86 16.1003
4607.89 23.7670
4607.92 37.5494
4607.95 63.9629
4607.97 101.961
4608.00 127.932
4608.03 101.959
4608.05 63.9622
4608.07 46.3291
4608.09 34.5224
4608.12 20.6335
4608.16 13.3106
4608.19 9.30834
4608.23 6.79031
4608.26 5.19852
4608.33 3.31746
4608.40 2.28407
4608.47 1.66658
4608.60 1.00158
4608.74 0.665861
4608.88 0.475708
4609.15 0.277335
4609.43 0.181816
4609.70 0.128640
4610.25 0.0746145
4611.35 0.0350942
4612.45 0.0210101
4614.65 0.0108470
4616.85 0.00727601
4625.65 0.00390610
4634.45 0.00339513
4643.25 0.00332287
4678.45 0.00395464
4696.05 0.00460784
4713.65 0.00577206
4722.45 0.00694172
4731.25 0.00967758
4735.65 0.0131499
4737.85 0.0165139
4740.05 0.0225631
4742.25 0.0353189
4744.45 0.0705756
4745.55 0.118132
4746.10 0.164448
4746.65 0.246695
4746.92 0.314149
4747.20 0.414440
4747.47 0.572840
4747.61 0.689383
4747.75 0.844420
4747.88 1.06034
4748.02 1.36825
4748.16 1.83598
4748.30 2.58122
4748.43 3.89158
4748.50 4.94297
4748.57 6.43693
4748.64 8.71572
4748.71 12.2488
4748.78 18.1472
4748.85 27.8514
4748.92 44.6728
4749.00 55.6947
4749.08 44.4411
4749.16 27.8497
4749.24 16.1108
4749.33 10.0213
4749.42 6.70948
4749.51 4.76611
4749.60 3.54515
4749.68 2.73378
4749.86 1.76623
4750.03 1.23017
4750.21 0.906855
4750.56 0.550774
4750.91 0.370384
4751.26 0.266714
4751.61 0.201749
4751.96 0.158388
4752.67 0.105941
4753.37 0.0766550
4754.07 0.0586710
4754.77 0.0468501
4756.18 0.0327900
4757.58 0.0250894
4760.39 0.0174414
4763.20 0.0139784
4766.00 0.0121902
4771.62 0.0106560
4782.85 0.0103184
4794.08 0.0111791
4805.32 0.0126623
4810.93 0.0136185
4816.55 0.0147325
4822.17 0.0160260
4827.78 0.0175287
4830.59 0.0183706
4833.40 0.0192805
4836.21 0.0202655
4839.01 0.0213333
4841.82 0.0224935
4844.63 0.0237555
4850.25 0.0266359
4855.86 0.0300942
4861.48 0.0342922
4867.09 0.0394522
4872.71 0.0458867
4878.33 0.0540448
4883.94 0.0645891
4889.56 0.0785272
4895.17 0.0974452
4900.79 0.123939
4906.41 0.162448
4912.02 0.220930
4917.64 0.314287
4923.25 0.470826
4928.87 0.738534
4934.94 1.18014
4941.00 1.47281
4947.07 1.17782
4953.13 0.740806
4957.05 0.559015
4959.00 0.555973
4959.49 0.612807
4959.98 0.800478
4960.23 1.06757
4960.35 1.32952
4960.47 1.79508
4960.60 2.75140
4960.66 3.64370
4960.72 5.16075
4960.78 8.04689
4960.81 10.6257
4960.84 14.5679
4960.87 21.5274
4960.90 34.2447
4960.92 45.9411
4960.93 62.7344
4960.95 88.9990
4960.96 133.168
4960.98 213.113
4961.00 265.602
4961.02 213.110
4961.04 132.819
4961.06 80.7724
4961.08 52.8806
4961.10 36.7243
4961.12 26.8072
4961.13 20.3712
4961.15 15.9902
4961.19 10.6150
4961.23 7.58640
4961.27 5.72058
4961.34 3.64275
4961.42 2.57501
4961.50 1.95524
4961.65 1.30063
4961.80 0.977721
4961.95 0.796240
4962.26 0.606641
4962.87 0.457261
4963.47 0.394821
4965.91 0.297739
4970.78 0.213185
4975.65 0.162288
4980.52 0.127620
4990.26 0.0845923
5000.00 0.0600178
5009.56 0.0449689
5019.12 0.0349406
5038.23 0.0228594
5057.35 0.0161616
5076.47 0.0120896
5095.58 0.00946802
5114.70 0.00779449
5133.82 0.00740736
5138.60 0.00810362
5143.37 0.0106031
5145.76 0.0143114
5148.15 0.0250102
5149.35 0.0398889
5150.54 0.0815898
5151.14 0.138481
5151.44 0.194330
5151.74 0.293879
5152.04 0.499923
5152.19 0.696240
5152.34 1.03704
5152.49 1.71387
5152.56 2.33129
5152.63 3.33245
5152.71 5.16836
5152.75 6.67427
5152.78 8.92179
5152.82 12.5815
5152.86 18.6076
5152.90 29.4721
5152.93 49.8695
5152.97 79.7922
5153.00 99.7415
5153.03 79.7909
5153.07 49.8687
5153.11 28.6945
5153.15 17.7815
5153.19 11.8746
5153.22 8.48888
5153.26 6.29872
5153.30 4.87831
5153.38 3.14731
5153.45 2.19327
5153.53 1.61419
5153.69 0.978307
5153.84 0.654424
5153.99 0.469686
5154.30 0.276414
5154.61 0.182481
5154.92 0.130168
5155.54 0.0767257
5156.77 0.0374546
5158.00 0.0233870
5160.47 0.0131259
5162.94 0.00943582
5167.87 0.00666643
5172.81 0.00558462
5192.55 0.00411595
5232.02 0.00307159
5271.50 0.00251636
5291.24 0.00238330
5301.11 0.00257193
5306.05 0.00362468
5308.51 0.00793367
5309.75 0.0249305
5310.36 0.0905383
5310.67 0.333621
5310.75 0.566725
5310.83 1.16904
5310.87 1.92408
5310.90 3.65147
5310.92 5.65807
5310.94 9.51236
5310.96 18.6365
5310.97 28.8471
5310.98 44.7480
5310.99 71.5958
5311.00 89.4943
5311.01 71.5958
5311.02 44.7481
5311.03 26.3040
5311.04 16.5441
5311.06 8.19551
5311.08 4.80322
5311.11 3.13534
5311.15 1.60709
5311.19 0.982875
5311.36 0.279026
5311.70 0.0757529
5312.37 0.0211066
5313.73 0.00692766
5316.43 0.00330475
5321.84 0.00235903
5332.66 0.00206441
5354.31 0.00189824
5397.59 0.00174899
5484.16 0.00182893
5527.44 0.00221096
5549.09 0.00263244
5570.73 0.00342174
5592.37 0.00511708
5603.19 0.00679537
5614.01 0.00982314
5619.43 0.0123455
5624.84 0.0161527
5630.25 0.0222947
5635.66 0.0331506
5638.36 0.0420174
5641.07 0.0551384
5642.42 0.0642024
5643.77 0.0757380
5645.13 0.0907520
5645.80 0.100003
5646.48 0.110755
5647.15 0.123370
5647.83 0.138253
5648.51 0.156034
5649.18 0.177441
5649.86 0.203599
5650.54 0.235903
5651.21 0.276465
5651.89 0.328295
5652.57 0.395983
5653.24 0.486197
5653.92 0.609874
5654.59 0.784788
5655.27 1.04152
5655.95 1.43172
5656.62 2.04581
5657.30 3.01884
5658.15 4.82840
5659.00 6.03361
5659.85 4.82654
5660.70 3.01704
5661.45 1.96458
5662.20 1.33318
5662.94 0.948092
5663.69 0.702796
5665.19 0.425601
5666.68 0.283494
5668.18 0.201785
5669.67 0.150824
5672.66 0.0933916
5675.65 0.0635612
5678.63 0.0461541
5681.62 0.0351245
5684.61 0.0277078
5690.59 0.0186652
5696.57 0.0135784
5702.54 0.0104403
5708.52 0.00837225
5720.47 0.00591023
5732.43 0.00456712
5756.34 0.00326237
5780.24 0.00272805
5804.15 0.00255285
5828.06 0.00280080
5840.01 0.00402791
5845.99 0.00884454
5848.98 0.0278056
5850.47 0.101671
5850.85 0.176420
5851.22 0.382238
5851.41 0.658718
5851.59 1.39783
5851.69 2.35507
5851.78 4.72606
5851.83 7.56064
5851.85 9.96168
5851.87 13.6855
5851.90 20.2282
5851.92 31.7925
5851.93 41.8659
5851.94 55.4295
5851.96 77.7790
5851.97 111.452
5851.98 178.599
5852.00 222.560
5852.02 178.599
5852.03 111.107
5852.05 69.2200
5852.06 45.0695
5852.08 31.1134
5852.10 22.9995
5852.11 17.3265
5852.13 13.4841
5852.16 8.90368
5852.19 6.23478
5852.22 4.64289
5852.28 2.83578
5852.41 1.37100
5852.54 0.808259
5852.79 0.375580
5853.04 0.217112
5853.54 0.0999179
5854.04 0.0578763
5856.06 0.0165714
5860.08 0.00606707
5868.12 0.00346989
5884.21 0.00296541
5916.39 0.00332376
5948.57 0.00422391
5980.75 0.00593626
6012.93 0.00953840
6029.02 0.0130083
6037.07 0.0155836
6045.11 0.0190739
6049.13 0.0213037
6053.16 0.0239679
6057.18 0.0271883
6059.19 0.0290558
6061.20 0.0311285
6063.21 0.0334387
6065.22 0.0360213
6067.24 0.0389220
6069.25 0.0421951
6073.27 0.0501399
6077.29 0.0605910
6081.31 0.0747182
6085.34 0.0944289
6089.36 0.123047
6093.38 0.166650
6097.40 0.237309
6099.42 0.289898
6101.43 0.360828
6103.44 0.458712
6105.45 0.596779
6107.46 0.794517
6109.47 1.07624
6112.74 1.72029
6116.00 2.14831
6119.27 1.71809
6122.53 1.07434
6125.33 0.706737
6128.14 0.483553
6130.94 0.346494
6133.75 0.259181
6136.55 0.202016
6139.35 0.166325
6140.76 0.157972
6142.16 0.165912
6142.86 0.189690
6143.56 0.267650
6143.91 0.379184
6144.26 0.688590
6144.44 1.10049
6144.61 2.18221
6144.70 3.55000
6144.74 4.80168
6144.79 6.81289
6144.83 10.5425
6144.85 13.6647
6144.87 18.3733
6144.90 25.8895
6144.92 38.7468
6144.94 62.4999
6144.96 107.074
6144.98 172.147
6145.00 214.049
6145.02 172.146
6145.04 107.074
6145.06 67.1282
6145.08 43.7930
6145.10 30.2835
6145.11 22.3547
6145.15 13.3259
6145.19 8.80259
6145.22 6.24142
6145.26 4.65855
6145.34 2.89094
6145.41 1.97158
6145.48 1.44633
6145.63 0.891182
6145.93 0.465126
6146.23 0.307265
6146.82 0.188692
6147.41 0.144143
6148.60 0.108032
6149.79 0.0919054
6154.54 0.0642000
6164.04 0.0406553
6173.54 0.0285494
6183.03 0.0212848
6202.03 0.0133312
6221.03 0.00930826
6240.03 0.00700900
6259.03 0.00558587
6297.02 0.00402948
6335.02 0.00330382
6373.01 0.00298836
6449.01 0.00307432
6525.00 0.00407834
6562.99 0.00516042
6581.99 0.00596147
6591.49 0.00645546
6600.99 0.00702818
6605.74 0.00734913
6610.49 0.00769622
6615.24 0.00807240
6619.99 0.00848069
6624.74 0.00892489
6629.49 0.00940897
6634.24 0.00993794
6638.98 0.0105171
6643.73 0.0111531
6648.48 0.0118531
6657.98 0.0134821
6667.48 0.0154941
6676.98 0.0180158
6686.48 0.0212309
6695.98 0.0254107
6705.48 0.0309699
6714.98 0.0385641
6724.47 0.0492722
6733.97 0.0649769
6743.47 0.0896501
6748.22 0.111024
6750.60 0.141089
6751.19 0.164596
6751.78 0.225780
6752.08 0.307184
6752.38 0.528754
6752.53 0.824493
6752.67 1.60119
6752.75 2.58388
6752.82 4.99031
6752.86 7.76048
6752.90 13.6918
6752.92 19.7214
6752.93 29.7538
6752.95 50.2445
6752.96 66.7577
6752.97 92.8294
6752.99 146.678
6753.00 185.220
6753.02 146.678
6753.03 92.5132
6753.04 64.6144
6753.05 45.9386
6753.06 33.8212
6753.07 26.3450
6753.09 16.4648
6753.12 11.3718
6753.16 6.25866
6753.20 3.96399
6753.29 2.02882
6753.37 1.26376
6753.54 0.660868
6753.72 0.437394
6754.06 0.271237
6754.40 0.212273
6755.09 0.171582
6755.77 0.159559
6758.52 0.160377
6764.00 0.195948
6774.97 0.302842
6780.46 0.368166
6783.20 0.437602
6783.89 0.491889
6784.57 0.635091
6784.92 0.824770
6785.09 1.00876
6785.26 1.33146
6785.43 1.98782
6785.52 2.60320
6785.60 3.63395
6785.69 5.61190
6785.73 7.34412
6785.77 10.0003
6785.82 14.6026
6785.86 23.2581
6785.88 30.8477
6785.90 41.7933
6785.92 58.6861
6785.94 85.6485
6785.97 136.320
6786.00 170.921
6786.03 136.319
6786.06 85.6480
6786.09 50.5218
6786.12 32.1473
6786.15 21.6579
6786.18 15.6481
6786.21 11.7170
6786.24 9.17789
6786.30 6.06289
6786.36 4.34221
6786.42 3.29639
6786.54 2.15318
6786.66 1.56699
6786.79 1.23223
6787.03 0.880003
6787.51 0.613671
6788.00 0.516148
6789.50 0.426166
6791.00 0.399766
6794.00 0.370079
6800.00 0.310129
6812.00 0.193050
6825.69 0.111532
6839.37 0.0694581
6853.06 0.0466516
6866.74 0.0333110
6880.43 0.0249627
6894.11 0.0194480
6921.48 0.0129557
6948.85 0.00960922
6976.22 0.00806130
7003.59 0.00853685
7010.43 0.00939223
7017.28 0.0112146
7020.70 0.0131220
7024.12 0.0174378
7027.54 0.0366266
7029.25 0.107199
7029.68 0.177891
7030.11 0.371836
7030.32 0.631406
7030.53 1.32214
7030.64 2.20482
7030.75 4.39692
7030.80 6.99707
7030.83 9.24442
7030.85 12.5833
7030.88 18.3109
7030.91 28.2086
7030.92 36.9334
7030.93 48.7358
7030.95 66.0648
7030.96 93.3760
7030.98 148.062
7031.00 186.504
7031.02 148.062
7031.04 93.1381
7031.06 62.9398
7031.07 44.6206
7031.09 32.7891
7031.10 24.9083
7031.13 15.3762
7031.16 10.4760
7031.19 7.49513
7031.22 5.66712
7031.28 3.53403
7031.41 1.74988
7031.53 1.04347
7031.77 0.496946
7032.02 0.293501
7032.50 0.142468
7032.99 0.0881659
7034.94 0.0357616
7036.89 0.0274639
7038.85 0.0262561
7042.75 0.0306215
7046.65 0.0418863
7050.55 0.0655848
7052.51 0.0874717
7054.46 0.123664
7055.43 0.151274
7055.92 0.168766
7056.41 0.189521
7056.90 0.214382
7057.39 0.244479
7057.87 0.281340
7058.36 0.326972
7058.85 0.384515
7059.34 0.458110
7059.82 0.553888
7060.31 0.680887
7060.80 0.852526
7061.29 1.08855
7061.78 1.41659
7062.26 1.86807
7063.13 2.98664
7064.00 3.73050
7064.44 3.51034
7064.87 2.98426
7065.74 1.86596
7066.72 1.08487
7067.70 0.678038
7068.67 0.455689
7069.65 0.324999
7070.63 0.242643
7071.61 0.187891
7073.57 0.122187
7075.52 0.0859794
7077.48 0.0639976
7081.39 0.0398431
7085.31 0.0275671
7089.22 0.0204858
7097.05 0.0130288
7104.88 0.00936402
7112.70 0.00727781
7128.36 0.00508143
7144.01 0.00399042
7159.67 0.00339249
7175.32 0.00328397
7183.15 0.00440505
7187.06 0.00943293
7189.02 0.0294974
7190.00 0.107402
7190.49 0.400256
7190.61 0.687724
7190.73 1.43984
7190.79 2.38662
7190.85 4.68591
7190.88 7.36423
7190.91 12.8286
7190.93 18.5002
7190.94 27.7442
7190.96 44.8695
7190.97 78.2215
7190.99 125.154
7191.00 156.442
7191.01 125.153
7191.03 78.2215
7191.04 46.4664
7191.05 29.4435
7191.07 19.9557
7191.08 14.2933
7191.11 8.27994
7191.14 5.44107
7191.19 2.81961
7191.25 1.71695
7191.36 0.823361
7191.47 0.483903
7191.69 0.225000
7191.91 0.130426
7192.79 0.0354522
7194.56 0.0108565
7198.09 0.00455142
7205.15 0.00288020
7219.27 0.00233030
7247.51 0.00202392
7304.00 0.00188121
7360.48 0.00227992
7388.72 0.00309675
7395.78 0.00356595
7402.84 0.00449587
7409.91 0.00815677
7413.44 0.0212246
7415.20 0.0714406
7415.64 0.122319
7416.08 0.263008
7416.30 0.452928
7416.52 0.960720
7416.64 1.62477
7416.75 3.29292
7416.80 5.28921
7416.86 9.79623
7416.88 14.6128
7416.91 23.3685
7416.92 31.1244
7416.94 42.9856
7416.95 61.7422
7416.97 88.9325
7416.98 143.912
7417.00 177.863
7417.02 140.660
7417.04 88.9323
7417.05 54.0134
7417.07 35.5753
7417.09 24.2961
7417.11 17.7899
7417.14 10.4665
7417.18 6.84499
7417.25 3.56153
7417.31 2.18707
7417.45 1.05524
7417.59 0.621880
7417.87 0.290548
7418.15 0.168808
7419.27 0.0470268
7421.50 0.0156127
7425.96 0.00808832
7430.42 0.00724565
7434.88 0.00754663
7443.80 0.00959329
7452.72 0.0137733
7457.18 0.0172750
7461.64 0.0225037
7466.10 0.0307709
7470.56 0.0449274
7472.79 0.0561161
7473.91 0.0633705
7475.02 0.0721444
7476.14 0.0828880
7477.25 0.0962300
7478.37 0.113067
7478.92 0.123193
7479.48 0.134708
7480.60 0.163126
7481.71 0.201383
7482.83 0.254409
7483.94 0.330456
7485.06 0.443917
7486.17 0.620750
7487.29 0.907883
7488.40 1.38006
7489.70 2.20702
7491.00 2.75772
7491.65 2.59529
7492.30 2.20603
7493.60 1.37909
7494.91 0.845708
7496.22 0.548606
7497.53 0.377942
7498.84 0.273896
7500.15 0.206729
7501.46 0.161199
7504.08 0.105584
7506.70 0.0743923
7509.32 0.0552394
7514.56 0.0339823
7519.80 0.0230974
7525.04 0.0168001
7530.28 0.0128341
7535.52 0.0101767
7546.00 0.00694789
7556.48 0.00513576
7577.44 0.00327983
7598.40 0.00239723
7619.36 0.00191109
7661.29 0.00142978
7703.21 0.00122491
7745.13 0.00114869
7787.05 0.00119243
7808.01 0.00143954
7818.49 0.00237852
7823.73 0.00606702
7826.35 0.0206001
7827.66 0.0771856
7828.32 0.291720
7828.48 0.502776
7828.64 1.06574
7828.73 1.78712
7828.81 3.58581
7828.85 5.70210
7828.89 10.3675
7828.91 15.2535
7828.93 23.7335
7828.95 40.7078
7828.96 55.6275
7828.97 79.9651
7828.99 126.413
7829.00 159.657
7829.02 126.412
7829.03 79.6921
7829.04 57.4767
7829.05 43.2331
7829.07 26.2109
7829.08 17.2663
7829.10 12.1325
7829.14 6.77111
7829.18 4.34017
7829.25 2.19161
7829.32 1.32405
7829.47 0.627719
7829.61 0.366224
7830.19 0.0970836
7831.36 0.0257506
7833.68 0.00739533
7838.34 0.00274471
7847.65 0.00159183
7866.26 0.00135012
7903.50 0.00143552
7940.73 0.00170878
7959.35 0.00206158
7968.66 0.00290354
7973.31 0.00590033
7975.64 0.0175029
7976.80 0.0623541
7977.39 0.230505
7977.68 0.821690
7977.75 1.36115
7977.82 2.64041
7977.86 4.12777
7977.90 7.15212
7977.93 14.8514
7977.95 23.6216
7977.97 40.8936
7977.98 65.8310
7978.00 81.7861
7978.02 65.8309
7978.03 40.8935
7978.05 27.2329
7978.06 19.0406
7978.09 10.2221
7978.11 6.25023
7978.14 4.18396
7978.19 2.23460
7978.25 1.39385
7978.36 0.681788
7978.46 0.404760
7978.89 0.110712
7979.75 0.0302518
7981.47 0.00926284
7984.90 0.00393851
7991.77 0.00268439
8005.51 0.00258643
8032.98 0.00318071
8060.45 0.00427497
8087.93 0.00625271
8101.66 0.00788370
8115.40 0.0103164
8129.14 0.0141722
8142.87 0.0208132
8149.74 0.0260954
8153.18 0.0295370
8156.61 0.0337155
8160.05 0.0388569
8161.76 0.0418815
8163.48 0.0452742
8165.20 0.0490967
8166.91 0.0534237
8168.63 0.0583470
8170.35 0.0639794
8173.78 0.0779753
8177.22 0.0970325
8180.65 0.123839
8184.08 0.163027
8187.52 0.222997
8190.95 0.319728
8192.67 0.390697
8194.39 0.484245
8196.10 0.608123
8197.82 0.770634
8201.41 1.23189
8205.00 1.53850
8206.80 1.44769
8208.59 1.23055
8212.18 0.769406
8215.53 0.488823
8218.88 0.325555
8222.22 0.228599
8225.57 0.168196
8228.92 0.128925
8232.26 0.103279
8235.61 0.0931023
8236.45 0.0986708
8237.28 0.121778
8237.70 0.156707
8238.12 0.255580
8238.33 0.388491
8238.54 0.740468
8238.64 1.18888
8238.75 2.27363
8238.80 3.54597
8238.85 6.21432
8238.88 8.81204
8238.91 13.3288
8238.93 21.8842
8238.94 28.9964
8238.96 39.0650
8238.98 63.0441
8239.00 78.0652
8239.02 61.8829
8239.04 39.0646
8239.07 23.8090
8239.09 15.3785
8239.11 10.5693
8239.13 7.65184
8239.18 4.50634
8239.22 2.98617
8239.31 1.57526
8239.39 0.987292
8239.57 0.508432
8239.74 0.324425
8240.09 0.182910
8240.44 0.130383
8241.14 0.0902355
8241.84 0.0745309
8243.24 0.0607718
8244.64 0.0537666
8250.23 0.0393160
8261.41 0.0251767
8272.59 0.0176661
8283.77 0.0131293
8306.14 0.00814564
8328.50 0.00561868
8350.87 0.00417726
8373.24 0.00331581
8395.60 0.00299380
8401.19 0.00317057
8406.78 0.00390657
8412.37 0.00834372
8415.17 0.0261950
8416.57 0.0957597
8416.92 0.165994
8417.27 0.358654
8417.44 0.616287
8417.62 1.29328
8417.70 2.16292
8417.79 4.27694
8417.84 6.74956
8417.88 11.9187
8417.90 17.1036
8417.92 26.2663
8417.94 44.0208
8417.97 78.3560
8417.98 126.798
8418.00 156.712
8418.02 123.932
8418.04 78.3558
8418.05 52.9436
8418.06 36.9612
8418.08 26.8355
8418.09 20.1963
8418.12 12.4788
8418.15 8.51847
8418.20 4.61387
8418.26 2.87762
8418.37 1.42226
8418.48 0.844885
8418.70 0.396341
8418.92 0.230140
8419.80 0.0614572
8421.56 0.0172640
8425.09 0.00590203
8432.14 0.00294502
8439.20 0.00232499
8446.25 0.00205886
8474.46 0.00162572
8530.88 0.00128038
8587.31 0.00113367
8643.73 0.00110446
8700.16 0.00120703
8756.58 0.00161725
8784.79 0.00220072
8798.90 0.00277765
8813.01 0.00381859
8827.11 0.00600260
8834.16 0.00813542
8841.22 0.0119401
8844.74 0.0150781
8848.27 0.0197701
8851.80 0.0272469
8855.32 0.0402314
8857.09 0.0506570
8858.85 0.0658269
8859.73 0.0761506
8860.61 0.0891158
8861.50 0.105739
8862.38 0.127468
8863.26 0.156667
8864.14 0.197078
8865.02 0.255103
8865.90 0.342139
8866.79 0.480451
8867.23 0.581441
8867.67 0.714976
8868.11 0.895764
8868.55 1.14432
8868.99 1.48969
8869.43 1.96482
8870.22 3.14339
8871.00 3.92744
8871.79 3.14122
8872.57 1.96441
8873.12 1.39751
8873.66 1.01815
8874.20 0.763960
8874.74 0.589759
8875.83 0.377727
8876.92 0.261081
8878.00 0.190956
8879.09 0.146010
8881.26 0.0946319
8883.44 0.0694011
8885.61 0.0610488
8886.70 0.0667926
8887.78 0.0947746
8888.33 0.137669
8888.87 0.260131
8889.14 0.426600
8889.41 0.871830
8889.55 1.44744
8889.68 2.89548
8889.75 4.61751
8889.82 8.46988
8889.85 12.4456
8889.89 19.8429
8889.90 26.0809
8889.92 35.4066
8889.94 49.7455
8889.95 71.0446
8889.98 113.156
8890.00 142.064
8890.02 113.155
8890.05 71.0441
8890.06 50.8011
8890.08 37.5029
8890.09 27.9403
8890.11 21.7771
8890.14 13.9534
8890.17 9.62654
8890.23 5.33160
8890.29 3.39368
8890.42 1.71353
8890.54 1.03485
8890.78 0.502336
8891.03 0.301582
8891.52 0.150648
8892.01 0.0952287
8893.00 0.0535831
8893.98 0.0377575
8895.95 0.0247691
8897.92 0.0189816
8901.85 0.0132183
8905.79 0.0101514
8913.66 0.00684211
8921.54 0.00510488
8937.28 0.00339241
8953.03 0.00261147
8984.52 0.00198007
9016.01 0.00179855
9078.99 0.00193728
9110.48 0.00227873
9126.22 0.00295667
9134.09 0.00515899
9138.03 0.0135856
9140.00 0.0464434
9140.98 0.172438
9141.23 0.297623
9141.47 0.636064
9141.60 1.07733
9141.72 2.20679
9141.78 3.59613
9141.84 6.75186
9141.87 10.1881
9141.90 16.9320
9141.92 23.1844
9141.94 32.4360
9141.95 47.4557
9141.97 72.1511
9141.98 116.756
9142.00 144.301
9142.02 114.118
9142.04 72.1510
9142.05 47.4557
9142.07 32.4360
9142.09 17.5716
9142.12 10.8110
9142.15 7.26797
9142.21 3.90235
9142.27 2.42224
9142.38 1.19132
9142.50 0.706053
9142.73 0.330690
9142.97 0.192017
9143.89 0.0517160
9145.75 0.0150349
9149.47 0.00569862
9156.90 0.00343442
9171.76 0.00309290
9201.49 0.00365550
9231.22 0.00485576
9246.09 0.00620338
9253.52 0.00889311
9257.23 0.0178140
9259.09 0.0514622
9259.56 0.0851929
9260.02 0.177353
9260.25 0.300244
9260.49 0.622256
9260.60 1.02712
9260.72 2.00863
9260.78 3.12411
9260.83 5.47042
9260.86 7.72779
9260.89 11.6010
9260.92 18.7945
9260.95 32.8520
9260.98 52.5600
9261.00 65.6987
9261.03 52.5597
9261.05 32.8518
9261.07 23.0590
9261.09 16.6016
9261.12 9.58736
9261.16 6.12612
9261.19 4.21951
9261.26 2.33201
9261.33 1.47208
9261.47 0.735564
9261.61 0.442166
9261.89 0.211924
9262.17 0.125792
9263.30 0.0378870
9265.54 0.0149137
9270.03 0.00941440
9274.52 0.00880363
9279.02 0.00898666
9283.51 0.00948164
9288.00 0.0102611
9292.49 0.0120115
9294.73 0.0165110
9295.86 0.0327650
9296.42 0.0942644
9296.70 0.320292
9296.84 1.07846
9296.91 3.23908
9296.94 7.89515
9296.96 15.0111
9296.98 32.6638
9296.99 53.0076
9297.00 65.3163
9297.01 53.0077
9297.02 32.6638
9297.03 17.7339
9297.05 10.2939
9297.08 4.54183
9297.13 1.58633
9297.24 0.484263
9297.47 0.141357
9297.91 0.0456044
9298.80 0.0205330
9300.58 0.0144455
9304.14 0.0136668
9311.26 0.0153307
9318.37 0.0179320
9325.49 0.0214251
9332.61 0.0261688
9339.73 0.0328676
9346.84 0.0436361
9350.40 0.0563704
9351.29 0.0649647
9352.18 0.0860875
9353.07 0.187556
9353.29 0.286198
9353.52 0.546961
9353.63 0.879472
9353.74 1.70361
9353.79 2.67866
9353.85 4.76950
9353.88 6.90583
9353.90 10.7789
9353.93 18.5898
9353.95 25.4766
9353.96 34.8154
9353.98 56.2136
9354.00 69.5771
9354.02 55.1284
9354.04 34.8154
9354.06 21.6885
9354.08 14.5166
9354.12 7.43191
9354.16 4.44111
9354.20 2.96977
9354.27 1.57794
9354.35 0.991394
9354.51 0.509419
9354.66 0.323575
9355.28 0.129297
9355.90 0.0918341
9356.52 0.0794589
9358.99 0.0727940
9363.94 0.0873072
9368.88 0.111448
9373.83 0.145062
9382.92 0.230763
9392.00 0.287673
9401.09 0.230210
9410.17 0.144468
9418.97 0.0908818
9427.77 0.0603741
9436.57 0.0425782
9445.37 0.0316286
9462.97 0.0197209
9480.57 0.0139057
9498.17 0.0107614
9515.77 0.00899884
9533.37 0.00820261
9542.17 0.00872453
9546.57 0.0117169
9548.77 0.0236418
9549.87 0.0696624
9550.42 0.241162
9550.69 0.836909
9550.76 1.37394
9550.83 2.62705
9550.86 4.05921
9550.90 6.89527
9550.93 13.7829
9550.95 21.2004
9550.97 34.4459
9550.98 55.1092
9551.00 68.8848
9551.02 55.1091
9551.03 34.4459
9551.05 20.6349
9551.07 13.1551
9551.11 6.54419
9551.14 3.84377
9551.18 2.51303
9551.25 1.30914
9551.32 0.800928
9551.60 0.231920
9552.16 0.0674029
9553.28 0.0231913
9555.52 0.0119020
9560.00 0.00994118
9564.48 0.0148184
9566.73 0.0361900
9567.85 0.119324
9568.41 0.429735
9568.55 0.729588
9568.69 1.51153
9568.76 2.48503
9568.83 4.81117
9568.86 7.40841
9568.90 12.7451
9568.92 17.9298
9568.93 26.0895
9568.95 41.5253
9568.97 68.4228
9568.98 110.795
9569.00 136.840
9569.02 108.142
9569.03 68.4227
9569.05 47.8584
9569.06 34.3568
9569.08 19.4855
9569.11 12.3078
9569.13 8.41160
9569.18 4.60377
9569.22 2.91393
9569.32 1.45609
9569.41 0.871189
9569.60 0.414522
9569.79 0.243233
9570.56 0.0688567
9572.08 0.0229741
9575.12 0.0111672
9581.20 0.00816529
9593.37 0.00752228
9617.71 0.00798975
9666.38 0.0113395
9690.72 0.0148535
9702.89 0.0174686
9715.06 0.0209972
9721.14 0.0232472
9727.23 0.0259443
9733.31 0.0292461
9739.40 0.0334347
9745.48 0.0391515
9751.56 0.0485519
9754.61 0.0574246
9757.65 0.0770412
9759.17 0.100695
9759.93 0.122784
9760.69 0.160931
9761.45 0.236788
9761.83 0.306802
9762.21 0.424377
9762.59 0.645332
9762.78 0.835571
9762.97 1.13160
9763.16 1.62561
9763.35 2.52837
9763.45 3.27610
9763.54 4.37524
9763.64 6.03087
9763.73 8.52537
9763.87 13.6092
9764.00 16.9987
9764.13 13.6090
9764.27 8.52573
9764.35 6.31676
9764.43 4.76332
9764.60 2.91296
9764.76 1.93844
9764.92 1.37882
9765.08 1.03248
9765.25 0.804844
9765.57 0.535327
9765.90 0.388788
9766.23 0.300755
9766.88 0.205283
9767.53 0.157708
9768.18 0.131011
9769.49 0.104344
9772.10 0.0875171
9774.70 0.0851104
9779.92 0.0924119
9785.14 0.106927
9790.36 0.127169
9795.58 0.153971
9800.79 0.188939
9806.01 0.233836
9812.01 0.298655
9818.01 0.372703
9830.00 0.464709
9836.00 0.436982
9842.00 0.371256
9853.99 0.232058
9861.55 0.170125
9869.11 0.127053
9884.23 0.0762187
9899.35 0.0499060
9914.47 0.0349731
9929.59 0.0258211
9944.71 0.0199050
9959.83 0.0162700
9967.39 0.0166448
9971.17 0.0236964
9973.06 0.0534534
9974.01 0.166421
9974.24 0.276976
9974.48 0.567182
9974.60 0.932756
9974.71 1.82140
9974.77 2.83464
9974.83 4.97520
9974.86 7.08977
9974.89 10.6148
9974.92 17.4558
9974.95 30.5071
9974.98 48.8044
9975.00 60.9782
9975.00 0.121907
10000.0 0.121725
12500.0 0.106737
15000.0 0.0962462
17000.0 0.0899361
20000.0 0.0827887
25000.0 0.0747610
30000.0 0.0695440
35000.0 0.0658773
40000.0 0.0631157
50000.0 0.0590246
60000.0 0.0558942
70000.0 0.0532530
80000.0 0.0509235
90000.0 0.0492308
100000 0.0487035
125000 0.0449746
150000 0.0421154
170000 0.0403003
200000 0.0382076
250000 0.0358843
250000 0.0358270
300000 0.0347100
400000 0.0342790
500000 0.0358790
600000 0.0386656
693000 0.0418642
693001 0.0418643
700000 0.0421050
701392 0.0419099
701392 0.0419099
800000 0.0280868
900000 0.0257331
1.00000E+06 0.0250191
1.10000E+06 0.0249814
1.20000E+06 0.0253242
1.30000E+06 0.0261105
1.32375E+06 0.0252424
1.32376E+06 0.0252423
1.40000E+06 0.0224555
1.50000E+06 0.0223882
1.52112E+06 0.0217224
1.52112E+06 0.0217223
1.57185E+06 0.0201228
1.57185E+06 0.0201227
1.60000E+06 0.0192352
1.70000E+06 0.0184171
1.80000E+06 0.0184356
1.80401E+06 0.0184390
1.80401E+06 0.0184390
1.90000E+06 0.0185201
2.00000E+06 0.0187646
2.08727E+06 0.0189779
2.08727E+06 0.0189779
2.09906E+06 0.0190067
2.09906E+06 0.0190067
2.10000E+06 0.0190090
2.10813E+06 0.0189260
2.10813E+06 0.0189259
2.12425E+06 0.0187614
2.12425E+06 0.0187613
2.19364E+06 0.0180526
2.19364E+06 0.0180526
2.20000E+06 0.0179876
2.20100E+06 0.0179726
2.22003E+06 0.0176867
2.22003E+06 0.0176866
2.23053E+06 0.0175289
2.23367E+06 0.0174818
2.23367E+06 0.0174817
2.28603E+06 0.0166951
2.28603E+06 0.0166951
2.30000E+06 0.0164852
2.31119E+06 0.0163771
2.31119E+06 0.0163770
2.33797E+06 0.0161182
2.33797E+06 0.0161181
2.38483E+06 0.0156652
2.40000E+06 0.0155186
2.41622E+06 0.0153943
2.41622E+06 0.0153943
2.43689E+06 0.0152360
2.43689E+06 0.0152359
2.46435E+06 0.0150256
2.46435E+06 0.0150255
2.46845E+06 0.0149941
2.46845E+06 0.0149941
2.50000E+06 0.0147524
2.52599E+06 0.0145654
2.52599E+06 0.0145654
2.54463E+06 0.0144313
2.54463E+06 0.0144313
2.58181E+06 0.0141638
2.58181E+06 0.0141638
2.59975E+06 0.0140347
2.59975E+06 0.0140347
2.60000E+06 0.0140329
2.60994E+06 0.0139070
2.60994E+06 0.0139069
2.61902E+06 0.0137918
2.62334E+06 0.0137371
2.63088E+06 0.0136415
2.63088E+06 0.0136415
2.63222E+06 0.0136245
2.63222E+06 0.0136245
2.67321E+06 0.0131050
2.67321E+06 0.0131050
2.67339E+06 0.0131027
2.67339E+06 0.0131027
2.69408E+06 0.0128404
2.69408E+06 0.0128404
2.70000E+06 0.0127654
2.70013E+06 0.0127642
2.70013E+06 0.0127642
2.71151E+06 0.0126623
2.71151E+06 0.0126622
2.72887E+06 0.0125067
2.72888E+06 0.0125066
2.73440E+06 0.0124571
2.73440E+06 0.0124571
2.73816E+06 0.0124234
2.73816E+06 0.0124234
2.75123E+06 0.0123063
2.80000E+06 0.0118692
2.90000E+06 0.0109730
3.00000E+06 0.0103801
3.10000E+06 0.00985516
3.20000E+06 0.00941197
3.30000E+06 0.00858721
3.50000E+06 0.00785832
4.00000E+06 0.00637071
5.00000E+06 0.00400189
6.00000E+06 0.00247636
7.00000E+06 0.00152451
7.34613E+06 0.00133923
7.87078E+06 0.00105838
7.87078E+06 0.00105838
8.00000E+06 0.000989211
8.02385E+06 0.000981830
8.02385E+06 0.000981830
9.00000E+06 0.000679722
1.00000E+07 0.000700381
1.10000E+07 0.000829530
1.20000E+07 0.000958678
1.30000E+07 0.000978254
1.40000E+07 0.000942399
1.40367E+07 0.000938404
1.40367E+07 0.000938403
1.45000E+07 0.000887972
1.50000E+07 0.000819024
1.54274E+07 0.000744556
1.60000E+07 0.000644781
1.70000E+07 0.000477475
1.80000E+07 0.000342446
1.90000E+07 0.000242950
2.00000E+07 0.000173960