Gd-156(n,g) ENDF/B-VII.1
Energy(eV) XS(b)
1.00000E-05 90.1816
1.25000E-05 80.6609
1.50000E-05 73.6330
2.00000E-05 63.7681
2.75000E-05 54.3816
3.50000E-05 48.2042
4.25000E-05 43.7446
5.00000E-05 40.3305
6.25000E-05 36.0727
7.50000E-05 32.9298
0.000100000 28.5180
0.000125000 25.5073
0.000150000 23.2849
0.000200000 20.1654
0.000275000 17.1971
0.000350000 15.2437
0.000425000 13.8334
0.000500000 12.7538
0.000625000 11.4074
0.000750000 10.4136
0.00100000 9.01850
0.00125000 8.06646
0.00150000 7.36371
0.00200000 6.37728
0.00275000 5.43871
0.00350000 4.82104
0.00425000 4.37514
0.00500000 4.03380
0.00625000 3.60811
0.00750000 3.29389
0.0100000 2.85286
0.0125000 2.55191
0.0150000 2.32979
0.0200000 2.01803
0.0253000 1.79460
0.0314750 1.60933
0.0376500 1.47179
0.0500000 1.27775
0.0625000 1.14339
0.0750000 1.04426
0.100000 0.905200
0.125000 0.810396
0.150000 0.740482
0.200000 0.642484
0.275000 0.549465
0.350000 0.488433
0.500000 0.410989
0.750000 0.338802
1.00000 0.296265
1.50000 0.246701
2.00000 0.217980
2.75000 0.191730
3.50000 0.175466
5.00000 0.157009
7.50000 0.145015
10.0000 0.144512
15.0000 0.167839
20.0000 0.241548
23.2944 0.365267
24.9416 0.488338
26.5889 0.711772
27.4125 0.899492
28.2361 1.18585
29.0597 1.65525
29.8833 2.50711
30.2951 3.22248
30.7069 4.31244
31.1187 6.09470
31.5305 9.31306
31.7364 11.9998
31.9423 16.0669
32.0453 18.9346
32.1482 22.6541
32.1997 24.9430
32.2254 26.2208
32.2512 27.5996
32.2640 28.3306
32.2769 29.0913
32.2898 29.8833
32.3026 30.7082
32.3155 31.5679
32.3284 32.4645
32.3541 34.3761
32.3798 36.4634
32.4056 38.7477
32.4313 41.2547
32.4571 44.0131
32.5085 50.4362
32.5600 58.3793
32.6115 68.3662
32.6630 81.1564
32.7144 97.9104
32.7659 120.436
32.8174 151.724
32.8689 196.929
32.9203 265.650
32.9718 377.204
32.9975 460.920
33.0233 575.272
33.0490 736.725
33.0748 973.797
33.1005 1339.11
33.1262 1933.76
33.1520 2958.02
33.1777 4769.30
33.2039 7628.16
33.2300 9533.00
33.2562 7624.65
33.2823 4763.74
33.2986 3499.35
33.3150 2616.90
33.3476 1571.41
33.3803 1027.96
33.4129 718.641
33.4456 528.318
33.4782 403.803
33.5435 256.958
33.6088 177.353
33.6741 129.584
33.8047 77.6829
33.9353 51.6388
34.0660 36.7667
34.1966 27.4903
34.3272 21.3213
34.5884 13.8879
34.8496 9.75433
35.1108 7.22323
35.3720 5.56300
35.8945 3.59124
36.4169 2.51112
36.9393 1.85709
37.4617 1.43189
38.5066 0.932183
39.5514 0.662053
40.5963 0.500600
41.6412 0.397143
43.7309 0.278732
45.8206 0.218321
50.0000 0.169037
53.3788 0.162613
55.0681 0.169171
55.9128 0.184421
56.3352 0.229000
56.4408 0.268643
56.5463 0.364990
56.5991 0.475582
56.6519 0.711910
56.6783 0.943652
56.7047 1.34979
56.7311 2.12924
56.7443 2.78523
56.7575 3.72229
56.7788 5.85297
56.8000 7.27425
56.8213 5.85535
56.8425 3.72546
56.8575 2.68598
56.8724 1.99393
56.9023 1.21938
56.9322 0.839457
56.9622 0.631166
57.0220 0.425975
57.0818 0.333073
57.2015 0.254510
57.3211 0.223469
57.7997 0.192733
58.7569 0.191433
60.6713 0.211128
64.5000 0.289146
66.4144 0.357936
68.3288 0.464387
70.2431 0.641974
71.2003 0.788519
71.6789 0.925332
71.9182 1.14700
71.9780 1.30600
72.0379 1.64172
72.0678 1.97592
72.0977 2.58018
72.1276 3.80537
72.1426 4.89762
72.1575 6.53538
72.1788 9.89166
72.2000 12.1316
72.2213 9.90400
72.2425 6.55810
72.2577 4.90581
72.2729 3.81399
72.3033 2.60429
72.3336 2.01884
72.3640 1.70278
72.4248 1.40010
72.4855 1.27178
72.7285 1.16616
73.2145 1.26509
74.1864 1.67186
75.1584 2.36095
76.1303 3.61674
76.3733 4.09286
76.6163 4.67162
76.7378 5.00898
76.7985 5.19174
76.8593 5.38481
76.9200 5.58903
76.9808 5.80521
77.0415 6.03439
77.1023 6.27754
77.1630 6.53592
77.2238 6.81077
77.2845 7.10354
77.3452 7.41575
77.4667 8.10609
77.5882 8.89851
77.7097 9.81437
77.8312 10.8805
77.9527 12.1319
78.0742 13.6141
78.3172 17.5340
78.5602 23.4415
78.6817 27.5892
78.8032 32.9478
78.9247 40.0391
79.0462 49.6983
79.1677 63.3319
79.2891 83.4502
79.4106 114.910
79.5321 168.078
79.5929 209.580
79.6536 268.402
79.7144 355.527
79.7751 491.971
79.8359 721.807
79.8966 1147.55
79.9270 1505.25
79.9574 2038.01
79.9877 2854.14
80.0181 4107.73
80.0591 6572.19
80.1000 8220.74
80.1410 6581.00
80.1819 4113.03
80.2206 2595.21
80.2593 1718.24
80.2980 1200.24
80.3367 878.120
80.4142 522.470
80.4916 343.921
80.5690 242.701
80.6464 180.118
80.8012 110.208
80.9561 74.2105
81.1109 53.3105
81.2657 40.1219
81.4205 31.2746
81.7302 20.5185
82.0399 14.4815
82.3495 10.7604
82.6592 8.30691
83.2785 5.37635
83.8978 3.76069
84.5171 2.77717
85.1364 2.13476
86.3751 1.37502
87.6137 0.960554
88.8523 0.710279
90.0910 0.547903
92.5682 0.357544
95.0455 0.255084
97.5227 0.194402
100.000 0.156477
102.614 0.132002
105.229 0.122067
106.536 0.127240
107.843 0.155907
108.496 0.200925
108.823 0.246866
109.150 0.330990
109.477 0.509170
109.640 0.683632
109.804 0.994554
109.885 1.25028
109.967 1.63145
110.049 2.23540
110.130 3.27552
110.212 5.29569
110.253 7.10752
110.294 10.0316
110.335 15.2076
110.375 25.5055
110.396 34.8444
110.416 49.8765
110.437 75.3721
110.457 119.619
110.468 153.317
110.479 191.496
110.500 239.476
110.522 191.466
110.543 119.578
110.563 76.8153
110.582 51.6727
110.601 36.4616
110.621 26.9181
110.660 16.2081
110.699 10.7725
110.737 7.65674
110.776 5.71981
110.854 3.54723
110.932 2.42121
111.010 1.76601
111.087 1.35137
111.165 1.07256
111.320 0.732531
111.476 0.541208
111.787 0.344622
112.098 0.250713
112.409 0.198537
113.030 0.145305
114.274 0.105405
115.518 0.0903011
120.492 0.0742493
125.467 0.0749400
130.441 0.0856196
135.416 0.114059
137.903 0.143478
140.390 0.197438
142.877 0.312607
144.121 0.427086
145.365 0.635617
145.986 0.811369
146.608 1.07996
147.230 1.52090
147.852 2.32134
148.163 2.99282
148.474 4.01396
148.785 5.67774
148.940 6.93422
148.979 7.31451
149.018 7.72614
149.057 8.17502
149.095 8.66319
149.134 9.19818
149.173 9.78466
149.212 10.4294
149.251 11.1386
149.290 11.9252
149.329 12.7961
149.406 14.8552
149.484 17.4606
149.562 20.8141
149.640 25.2377
149.717 31.2391
149.795 39.6784
149.873 52.0360
149.950 71.1819
150.028 103.116
150.067 127.754
150.106 162.259
150.145 212.567
150.184 289.449
150.223 415.273
150.261 637.118
150.281 815.834
150.300 1069.30
150.320 1436.69
150.339 1967.29
150.370 3153.06
150.400 3950.21
150.431 3161.06
150.461 1973.22
150.484 1352.88
150.508 955.596
150.531 699.936
150.555 530.256
150.601 330.569
150.648 224.179
150.695 161.319
150.742 121.405
150.835 75.7231
150.929 51.6054
151.022 37.4002
151.116 28.3366
151.209 22.2062
151.396 14.6867
151.584 10.4308
151.771 7.79182
151.958 6.04479
152.332 3.94689
152.706 2.78474
153.080 2.07448
153.454 1.60935
154.203 1.05753
154.951 0.755635
155.699 0.573097
156.447 0.454705
157.944 0.316363
159.440 0.242776
162.434 0.174343
165.427 0.149523
168.420 0.144311
174.406 0.170339
177.399 0.203011
180.392 0.256704
183.385 0.347231
186.379 0.512322
187.875 0.650260
189.372 0.858893
190.868 1.19664
191.243 1.31407
191.617 1.45045
191.804 1.52708
191.991 1.61016
192.178 1.70051
192.365 1.79892
192.552 1.90651
192.739 2.02439
192.926 2.15396
193.113 2.29673
193.300 2.45477
193.487 2.63026
193.861 3.04482
194.236 3.56969
194.610 4.24803
194.984 5.14733
195.358 6.37675
195.732 8.12351
196.106 10.7279
196.480 14.8709
196.855 22.0688
197.042 27.8589
197.229 36.3167
197.416 49.3735
197.603 71.0540
197.790 110.973
197.883 144.752
197.977 196.309
198.071 280.160
198.164 427.277
198.258 710.376
198.304 949.846
198.351 1292.97
198.426 2071.43
198.500 2609.53
198.575 2105.09
198.649 1319.05
198.734 763.427
198.818 475.294
198.902 318.558
198.987 226.843
199.071 169.263
199.156 131.139
199.325 85.7001
199.493 60.9690
199.662 46.2891
200.000 31.2602
200.216 26.9825
200.431 25.4260
200.647 26.5756
200.862 31.5888
200.970 36.5517
201.078 44.3843
201.131 49.9566
201.158 53.3229
201.185 57.1463
201.199 59.2676
201.212 61.5405
201.226 63.9787
201.239 66.5777
201.253 69.3936
201.266 72.4040
201.293 79.1845
201.320 87.1617
201.347 96.5493
201.374 107.776
201.401 121.231
201.428 137.656
201.455 157.806
201.482 182.956
201.509 214.848
201.536 256.204
201.562 310.550
201.589 384.232
201.616 486.078
201.643 632.157
201.670 846.440
201.697 1169.31
201.724 1655.03
201.762 2637.18
201.800 3257.97
201.838 2578.03
201.876 1608.39
201.918 946.170
201.960 596.841
202.002 404.094
202.044 289.774
202.086 217.371
202.128 168.955
202.212 110.632
202.296 78.2461
202.380 58.5021
202.548 36.6322
202.716 25.4059
202.884 18.8572
203.219 11.8468
203.555 8.31450
203.891 6.25328
204.563 4.01436
205.234 2.85396
205.906 2.15877
207.249 1.38344
208.592 0.973628
209.935 0.727183
212.622 0.454932
215.308 0.314545
217.995 0.232505
223.367 0.145531
228.740 0.103715
234.113 0.0830316
236.799 0.0794825
239.486 0.0858768
240.829 0.100842
241.501 0.117195
242.172 0.148104
242.844 0.215345
243.180 0.282558
243.515 0.404749
243.683 0.507170
243.851 0.662623
244.019 0.915056
244.187 1.36547
244.271 1.73679
244.355 2.29060
244.439 3.17144
244.523 4.69240
244.607 7.66821
244.649 10.3516
244.691 14.7116
244.733 22.5068
244.754 28.8941
244.775 38.3248
244.796 52.9500
244.817 76.9743
244.827 94.9013
244.838 118.874
244.848 151.133
244.859 193.683
244.869 247.955
244.879 309.930
244.900 386.853
244.910 364.054
244.921 309.349
244.942 193.682
244.955 141.896
244.968 106.104
244.994 63.7172
245.020 41.7003
245.046 29.1728
245.072 21.4677
245.098 16.4251
245.150 10.4778
245.202 7.24874
245.254 5.31467
245.358 3.21190
245.462 2.15501
245.566 1.55159
245.670 1.17479
245.774 0.923906
245.982 0.621015
246.190 0.452257
246.398 0.348601
246.606 0.280441
247.022 0.199073
247.438 0.154163
248.271 0.108676
249.103 0.0870863
249.935 0.0750602
251.600 0.0627174
254.929 0.0552704
256.593 0.0632953
257.009 0.0733741
257.425 0.101945
257.633 0.140359
257.737 0.177347
257.841 0.242065
257.946 0.370975
257.998 0.489299
258.050 0.685998
258.102 1.04768
258.128 1.35331
258.154 1.81871
258.180 2.57170
258.206 3.88558
258.232 6.38729
258.245 8.47718
258.258 11.4470
258.279 18.2923
258.300 22.8228
258.321 18.2595
258.343 11.4488
258.363 7.24495
258.383 4.81487
258.403 3.37892
258.423 2.48547
258.463 1.49894
258.503 1.00427
258.543 0.722886
258.584 0.548847
258.664 0.354534
258.744 0.254246
258.825 0.196029
258.985 0.134492
259.146 0.104361
259.307 0.0873825
259.628 0.0698902
260.271 0.0567420
260.914 0.0518195
263.485 0.0463686
268.627 0.0448304
278.912 0.0482992
289.196 0.0586310
299.481 0.0803259
304.623 0.0992827
309.765 0.128552
314.908 0.176790
320.050 0.264428
322.621 0.337958
325.192 0.449830
326.478 0.529109
327.121 0.577192
327.763 0.632397
328.085 0.663118
328.406 0.696206
328.728 0.731909
329.049 0.770511
329.370 0.812337
329.692 0.857756
330.013 0.907193
330.335 0.961119
330.656 1.02014
330.977 1.08488
331.620 1.23478
332.263 1.41875
332.906 1.64796
333.549 1.93860
334.191 2.31476
334.834 2.81366
335.477 3.49500
336.120 4.46023
336.762 5.89156
337.405 8.14458
338.048 11.9887
338.369 15.0186
338.691 19.3529
339.012 25.8518
339.334 36.2052
339.655 54.0766
339.816 68.2362
339.976 88.4720
340.137 118.527
340.298 165.092
340.458 240.126
340.619 362.338
340.810 579.535
341.000 725.992
341.191 582.688
341.381 364.654
341.519 255.666
341.656 183.885
341.794 136.544
341.931 104.517
342.206 66.0721
342.481 45.1752
342.756 32.7053
343.031 24.7228
343.581 15.5040
344.132 10.6071
344.682 7.70660
345.232 5.85085
345.782 4.59337
346.882 3.04916
347.982 2.17423
349.082 1.63193
350.183 1.27344
352.383 0.845717
354.583 0.612862
356.784 0.475998
358.984 0.393668
363.385 0.330435
365.585 0.345689
367.786 0.411158
369.986 0.587430
371.086 0.774553
372.186 1.12241
372.736 1.41718
373.287 1.86741
373.837 2.60299
374.387 3.92456
374.524 4.42086
374.662 5.02027
374.731 5.36824
374.799 5.75395
374.868 6.18433
374.937 6.66510
375.006 7.20604
375.074 7.81671
375.143 8.50959
375.212 9.29888
375.281 10.2060
375.349 11.2524
375.418 12.4718
375.487 13.8999
375.625 17.6152
375.762 23.0477
375.900 31.4420
375.968 37.4708
376.037 45.3894
376.106 56.1017
376.175 71.0199
376.243 92.6859
376.312 125.612
376.381 178.927
376.450 271.717
376.484 345.115
376.518 448.355
376.553 595.688
376.587 803.989
376.644 1285.20
376.700 1601.23
376.757 1276.82
376.813 797.351
376.862 520.774
376.912 354.106
376.961 252.177
377.010 187.215
377.109 113.550
377.207 75.6516
377.306 53.8184
377.404 40.1909
377.601 24.8145
377.798 16.8173
377.995 12.1475
378.192 9.18593
378.389 7.19338
378.784 4.76109
379.178 3.39028
379.572 2.54247
379.966 1.98180
380.754 1.30949
381.542 0.936745
382.330 0.708495
383.119 0.558449
384.695 0.379113
386.271 0.279599
389.424 0.177671
392.577 0.128378
395.729 0.100445
402.035 0.0714193
408.340 0.0581524
414.646 0.0531562
420.951 0.0585640
422.527 0.0655567
424.104 0.0844323
424.892 0.109659
425.286 0.134390
425.680 0.178960
426.074 0.272599
426.271 0.364253
426.468 0.527981
426.567 0.663349
426.665 0.865868
426.764 1.18888
426.862 1.75068
426.961 2.85919
427.010 3.87027
427.059 5.53314
427.109 8.55801
427.133 11.0757
427.158 14.8572
427.183 20.8917
427.207 31.1096
427.232 49.8095
427.244 64.8613
427.256 85.6367
427.267 109.752
427.278 137.073
427.300 171.403
427.322 137.075
427.344 85.6354
427.367 51.0647
427.391 32.4568
427.414 22.0524
427.438 15.8288
427.461 11.8654
427.484 9.20549
427.531 5.98899
427.578 4.20266
427.625 3.11301
427.718 1.91111
427.812 1.29940
427.906 0.946842
427.999 0.725499
428.093 0.577710
428.280 0.398550
428.467 0.298472
428.841 0.196756
429.216 0.148990
429.590 0.123091
430.339 0.0980541
431.836 0.0831983
433.333 0.0823448
436.328 0.0957999
439.323 0.128249
442.317 0.200763
443.815 0.273410
445.312 0.405795
446.061 0.517226
446.810 0.687258
447.558 0.965682
448.307 1.46905
448.681 1.88973
449.056 2.52670
449.430 3.55903
449.524 3.91775
449.617 4.33418
449.711 4.82136
449.804 5.39561
449.898 6.08050
449.991 6.90546
450.085 7.91136
450.179 9.15517
450.272 10.7181
450.366 12.7190
450.459 15.3376
450.553 18.8512
450.647 23.7286
450.740 30.7639
450.834 41.4302
450.927 58.6604
451.021 89.0966
451.068 113.758
451.114 149.771
451.161 204.806
451.208 293.404
451.255 443.692
451.302 703.790
451.351 1126.74
451.400 1409.31
451.449 1128.18
451.499 705.566
451.548 432.314
451.598 280.317
451.647 192.996
451.697 139.757
451.747 105.389
451.796 82.0913
451.895 53.6338
451.995 37.6616
452.094 27.8667
452.292 16.9962
452.491 11.4296
452.689 8.21132
452.888 6.18452
453.086 4.82800
453.483 3.18120
453.880 2.25853
454.277 1.69053
454.674 1.31647
455.468 0.870571
456.261 0.625743
457.055 0.477736
457.849 0.382156
459.437 0.272469
461.024 0.217787
464.199 0.183459
467.375 0.216920
468.962 0.270603
470.550 0.378119
471.344 0.471647
472.137 0.616277
472.931 0.855167
473.725 1.28958
474.122 1.65358
474.519 2.20581
474.916 3.10204
475.114 3.77600
475.213 4.19968
475.313 4.69990
475.412 5.29689
475.511 6.01574
475.610 6.89286
475.660 7.40567
475.709 7.97826
475.809 9.34489
475.908 11.0948
476.007 13.3879
476.106 16.4735
476.206 20.7665
476.305 26.9701
476.404 36.4085
476.503 51.7520
476.553 63.2776
476.602 79.0362
476.652 101.312
476.702 134.086
476.751 184.673
476.801 267.236
476.850 409.972
476.900 663.683
476.950 1061.80
477.000 1327.15
477.050 1061.66
477.100 663.522
477.132 484.829
477.164 361.275
477.227 215.843
477.290 140.690
477.354 98.1901
477.417 72.0889
477.481 55.0723
477.608 35.0390
477.734 24.1905
477.861 17.6913
478.115 10.6324
478.369 7.09190
478.622 5.07256
478.876 3.81469
479.130 2.98066
479.637 1.98883
480.145 1.48348
480.398 1.37020
480.652 1.42874
480.779 1.63767
480.906 2.27124
480.969 3.07384
481.001 3.78603
481.033 4.91810
481.064 6.85499
481.096 10.5148
481.112 13.6577
481.128 18.3907
481.144 25.8449
481.160 37.4974
481.180 59.5187
481.200 74.0722
481.220 59.3694
481.241 37.4525
481.253 27.6293
481.266 20.8425
481.291 12.8054
481.317 8.61638
481.342 6.24170
481.368 4.77336
481.393 3.81414
481.444 2.67624
481.495 2.05155
481.546 1.67177
481.647 1.24660
481.851 0.882548
482.054 0.719633
482.461 0.556283
482.868 0.464537
483.682 0.353040
484.495 0.283953
486.123 0.202146
487.750 0.156965
491.005 0.115423
492.633 0.117498
493.039 0.128502
493.446 0.162378
493.650 0.209029
493.751 0.254264
493.853 0.333735
493.955 0.492505
494.006 0.639052
494.057 0.883081
494.107 1.33516
494.133 1.71863
494.158 2.30561
494.184 3.26720
494.209 4.95878
494.235 8.23469
494.247 11.0164
494.260 15.0223
494.280 23.9990
494.300 29.9423
494.320 23.9522
494.340 15.0233
494.362 8.84186
494.384 5.59406
494.407 3.80238
494.429 2.74056
494.451 2.06876
494.473 1.62003
494.517 1.07993
494.561 0.780797
494.606 0.599339
494.694 0.399617
494.782 0.298029
494.871 0.239572
495.048 0.178263
495.401 0.131633
495.755 0.114443
497.170 0.0979176
500.000 0.102237
503.897 0.140137
505.845 0.183668
507.794 0.266141
508.768 0.336709
509.742 0.445232
510.717 0.624026
511.691 0.949010
512.178 1.22151
512.665 1.63538
513.152 2.30821
513.396 2.81501
513.517 3.13413
513.639 3.51092
513.761 3.96093
513.883 4.50395
514.005 5.16746
514.065 5.55583
514.126 5.98909
514.187 6.47608
514.248 7.02512
514.370 8.35585
514.492 10.1043
514.613 12.4623
514.735 15.7548
514.857 20.5416
514.979 27.8754
515.100 39.9024
515.161 49.0287
515.222 61.6169
515.283 79.6127
515.344 106.485
515.405 148.805
515.466 219.844
515.527 347.626
515.557 448.638
515.588 586.231
515.644 938.185
515.700 1171.99
515.756 937.003
515.813 585.780
515.877 336.287
515.942 208.194
516.007 138.861
516.072 98.4165
516.136 73.0427
516.201 56.2443
516.331 36.1559
516.460 25.1291
516.590 18.4548
516.848 11.1471
517.107 7.45025
517.366 5.32825
517.625 3.99956
517.884 3.11346
518.402 2.04159
518.920 1.44317
519.438 1.07545
519.956 0.833464
520.992 0.544821
522.028 0.385783
523.064 0.288891
524.099 0.225508
526.171 0.150291
528.243 0.108998
530.315 0.0838757
532.386 0.0674469
536.530 0.0480073
540.673 0.0376432
544.817 0.0331217
545.852 0.0338616
546.888 0.0381769
547.406 0.0450374
547.924 0.0648969
548.183 0.0920256
548.442 0.165334
548.572 0.260515
548.636 0.349964
548.701 0.502053
548.766 0.792738
548.798 1.04827
548.831 1.45200
548.863 2.14577
548.895 3.46058
548.911 4.59797
548.928 6.33832
548.944 9.09647
548.960 13.4677
548.980 21.5501
549.000 26.9012
549.020 21.5079
549.040 13.4686
549.054 9.51515
549.069 6.88950
549.083 5.14548
549.097 3.95862
549.125 2.52522
549.154 1.74277
549.182 1.27190
549.210 0.970307
549.267 0.620004
549.324 0.433211
549.380 0.322261
549.494 0.202805
549.607 0.143287
549.721 0.109472
549.948 0.0744211
550.401 0.0481061
550.855 0.0384543
551.762 0.0312377
552.670 0.0285979
556.299 0.0277043
558.114 0.0314900
559.021 0.0359220
559.929 0.0444524
560.836 0.0632092
561.290 0.0820723
561.744 0.116538
561.970 0.145566
562.197 0.189794
562.424 0.262058
562.651 0.392007
562.764 0.500053
562.878 0.662570
562.991 0.923588
563.105 1.38207
563.218 2.30073
563.275 3.15155
563.331 4.57923
563.388 7.24263
563.417 9.53280
563.445 13.0626
563.473 18.9228
563.502 29.4494
563.516 38.0775
563.530 50.6035
563.544 69.1792
563.558 96.4419
563.569 123.582
563.579 154.296
563.600 192.871
563.621 154.306
563.642 96.4474
563.663 59.0964
563.684 38.2940
563.705 26.3557
563.726 19.1095
563.747 14.4074
563.768 11.2343
563.810 7.34627
563.852 5.16505
563.895 3.82546
563.979 2.33847
564.063 1.57712
564.147 1.13658
564.231 0.859190
564.316 0.673386
564.484 0.447684
564.652 0.321217
564.821 0.243277
564.989 0.191875
565.326 0.130412
565.663 0.0964711
566.337 0.0621733
567.010 0.0460207
567.684 0.0371166
569.031 0.0280791
571.726 0.0213118
574.421 0.0187319
585.200 0.0160159
595.979 0.0173384
598.674 0.0192267
601.369 0.0245544
602.716 0.0318844
603.390 0.0391747
604.064 0.0524591
604.738 0.0807504
605.074 0.108794
605.411 0.159578
605.580 0.202101
605.748 0.266559
605.917 0.371170
606.085 0.557761
606.169 0.711461
606.253 0.940953
606.338 1.30552
606.422 1.93578
606.506 3.16744
606.548 4.27769
606.590 6.08670
606.632 9.31448
606.653 11.9665
606.674 15.8629
606.695 21.9347
606.716 31.8604
606.738 49.2600
606.748 62.6022
606.759 80.3931
606.769 102.901
606.779 128.628
606.800 160.809
606.821 128.665
606.842 80.4198
606.855 58.1275
606.869 42.9726
606.896 25.3452
606.924 16.3986
606.951 11.3987
606.978 8.34140
607.005 6.36156
607.060 4.03688
607.114 2.78458
607.169 2.03587
607.278 1.22507
607.387 0.819065
607.496 0.587794
607.605 0.443621
607.714 0.347753
607.932 0.232183
608.150 0.167906
608.586 0.102634
609.022 0.0718461
609.458 0.0549446
610.330 0.0380067
611.202 0.0301449
612.075 0.0258984
613.819 0.0217711
617.307 0.0191514
620.796 0.0186516
634.750 0.0212393
648.704 0.0286403
655.681 0.0391451
657.425 0.0464171
659.169 0.0643332
660.041 0.0876834
660.478 0.110480
660.914 0.151543
661.350 0.237999
661.568 0.322820
661.786 0.474937
661.895 0.601149
662.004 0.790663
662.113 1.09442
662.222 1.62651
662.331 2.68831
662.385 3.66741
662.440 5.30256
662.494 8.33107
662.522 10.9158
662.549 14.8682
662.576 21.3594
662.603 32.8302
662.617 42.1226
662.631 55.3132
662.637 63.9973
662.644 74.4919
662.651 87.1467
662.658 102.275
662.668 130.978
662.679 163.794
662.700 204.654
662.711 192.627
662.721 163.666
662.742 102.414
662.763 63.3789
662.784 41.4496
662.805 28.6676
662.826 20.8593
662.847 15.7687
662.867 12.3220
662.909 8.08409
662.951 5.69872
662.993 4.23053
663.076 2.59887
663.159 1.76063
663.243 1.27559
663.326 0.969562
663.409 0.764723
663.576 0.515652
663.743 0.376113
663.909 0.290181
664.076 0.233582
664.410 0.166106
664.743 0.129085
665.410 0.0922402
666.077 0.0755124
666.744 0.0668486
668.077 0.0593493
673.412 0.0610697
678.747 0.0760368
684.082 0.102293
689.417 0.149887
692.084 0.189786
694.752 0.251271
697.419 0.356244
698.086 0.395017
698.753 0.441969
699.420 0.500078
699.753 0.534666
700.087 0.573982
700.420 0.619118
700.754 0.671488
701.087 0.733094
701.420 0.806655
701.754 0.896196
702.087 1.00760
702.421 1.15008
702.754 1.33860
703.088 1.59900
703.421 1.97878
703.754 2.57454
704.088 3.60779
704.421 5.68636
704.588 7.64344
704.755 11.0118
704.921 17.5816
705.005 23.5117
705.088 33.1817
705.172 50.5288
705.213 64.8155
705.255 85.9638
705.297 119.086
705.338 174.155
705.380 272.058
705.422 452.857
705.461 729.191
705.500 933.418
705.539 764.807
705.579 481.238
705.607 336.466
705.635 241.492
705.664 179.050
705.692 136.954
705.749 86.5998
705.806 59.4175
705.863 43.2406
705.920 32.9342
705.977 25.9687
706.033 21.0688
706.147 14.8001
706.261 11.1095
706.374 8.76621
706.488 7.19529
706.545 6.59856
706.602 6.09611
706.715 5.30369
706.829 4.71906
706.943 4.28088
707.056 3.94835
707.170 3.69505
707.397 3.35759
707.625 3.17538
707.852 3.09967
708.307 3.17289
708.762 3.48405
709.216 4.03277
709.671 4.88213
710.126 6.17318
710.581 8.18763
711.035 11.5084
711.490 17.4682
711.717 22.3641
711.945 29.5980
712.172 40.8344
712.399 59.3117
712.627 91.6338
712.854 149.967
713.077 240.114
713.300 301.907
713.523 243.110
713.746 152.265
713.992 89.3058
714.239 56.0736
714.485 37.7866
714.732 26.9731
714.978 20.1439
715.224 15.5892
715.717 10.1171
716.210 7.09895
716.703 5.26803
717.688 3.26474
718.674 2.26184
719.659 1.70215
720.645 1.37365
721.631 1.18508
723.602 1.10261
724.587 1.22298
725.573 1.53744
726.558 2.28656
727.051 3.04057
727.298 3.60869
727.421 3.96537
727.544 4.38511
727.667 4.88420
727.790 5.48305
727.852 5.82827
727.914 6.20964
727.975 6.63233
728.037 7.10245
728.160 8.21560
728.283 9.62700
728.406 11.4521
728.530 13.8675
728.653 17.1540
728.776 21.7789
728.899 28.5630
729.022 39.0458
729.146 56.3546
729.207 69.4747
729.269 87.4590
729.330 112.773
729.392 149.349
729.454 203.230
729.515 282.100
729.608 449.658
729.700 554.481
729.793 437.765
729.885 272.776
729.948 195.437
730.011 143.241
730.073 108.009
730.136 83.7330
730.262 53.9138
730.387 37.3502
730.513 27.3103
730.638 20.8153
730.889 13.2315
731.140 9.15629
731.392 6.72356
731.894 4.09085
732.396 2.77146
732.898 2.01688
733.400 1.54427
733.902 1.22825
734.907 0.843385
735.911 0.625343
737.919 0.397109
739.928 0.283980
741.937 0.218520
745.954 0.148194
749.971 0.112791
753.988 0.0928911
762.023 0.0755956
770.057 0.0771819
774.074 0.0861276
778.091 0.105217
782.109 0.147133
784.117 0.188356
786.126 0.262286
788.134 0.417004
789.139 0.568564
790.143 0.840955
790.645 1.06768
791.147 1.41008
791.398 1.65116
791.649 1.96345
791.901 2.37808
792.026 2.63825
792.152 2.94497
792.277 3.31038
792.403 3.74969
792.528 4.28517
792.654 4.94590
792.779 5.77554
792.905 6.83499
793.030 8.21847
793.156 10.0722
793.281 12.6372
793.407 16.3195
793.532 21.8717
793.658 30.7856
793.784 46.3635
793.846 58.8520
793.909 76.8677
793.972 104.059
794.035 146.940
794.097 217.964
794.160 337.271
794.230 540.082
794.300 677.706
794.370 544.307
794.440 340.550
794.493 234.788
794.546 166.650
794.599 122.511
794.652 93.0714
794.758 58.2313
794.863 39.5753
794.969 28.5399
795.075 21.5254
795.287 13.4740
795.498 9.21906
795.710 6.70906
795.922 5.10628
796.133 4.02266
796.557 2.69398
796.980 1.94257
797.403 1.47747
797.827 1.17034
798.673 0.804254
799.520 0.604771
801.213 0.412373
802.906 0.335351
804.600 0.309321
807.986 0.344694
809.679 0.404928
811.373 0.508052
813.066 0.684847
814.759 1.00876
815.182 1.13096
815.606 1.27874
815.817 1.36453
816.029 1.45973
816.241 1.56585
816.452 1.68450
816.664 1.81786
816.876 1.96827
817.087 2.13895
817.299 2.33346
817.511 2.55668
817.722 2.81424
818.146 3.46477
818.569 4.37517
818.992 5.70301
819.416 7.74662
819.839 11.1229
820.051 13.7001
820.262 17.2740
820.474 22.4244
820.685 30.1886
820.897 42.5915
821.109 63.8119
821.320 103.098
821.426 135.023
821.532 179.405
821.716 286.789
821.900 357.532
822.084 285.313
822.268 178.222
822.423 118.099
822.578 81.2095
822.733 58.3124
822.888 43.5395
823.197 26.6228
823.507 17.8321
823.817 12.7399
824.126 9.54410
824.746 5.92463
825.365 4.03700
825.985 2.93260
826.604 2.23257
827.223 1.76205
828.462 1.19102
829.701 0.874750
830.940 0.686646
832.179 0.572583
834.656 0.484818
835.895 0.506860
837.134 0.599861
838.373 0.848424
838.992 1.11032
839.611 1.59286
839.921 1.99801
840.231 2.61112
840.541 3.60004
840.850 5.34353
841.005 6.76185
841.160 8.85062
841.237 10.2887
841.276 11.1436
841.315 12.1111
841.354 13.2114
841.392 14.4701
841.431 15.9186
841.470 17.5969
841.508 19.5613
841.547 21.8673
841.586 24.6052
841.625 27.8884
841.663 31.8697
841.702 36.7578
841.741 42.8443
841.779 50.5443
841.818 60.4924
841.857 73.5443
841.896 91.1130
841.934 115.391
841.973 149.917
842.012 200.462
842.050 276.168
842.089 389.360
842.145 621.598
842.200 770.475
842.256 611.253
842.311 381.259
842.357 253.661
842.404 175.057
842.450 126.060
842.496 94.3180
842.589 57.8502
842.681 38.8442
842.774 27.7912
842.866 20.8479
843.052 12.9616
843.237 8.83635
843.422 6.41844
843.607 4.88135
843.792 3.84432
844.162 2.57532
844.533 1.85825
844.903 1.41356
845.273 1.11896
846.014 0.764861
846.754 0.568404
848.235 0.371318
849.716 0.285820
851.197 0.258310
851.938 0.268093
852.678 0.312184
853.048 0.368703
853.419 0.505753
853.604 0.672611
853.696 0.826478
853.789 1.08814
853.881 1.59645
853.928 2.05560
853.974 2.80698
854.020 4.16897
854.043 5.30617
854.067 7.00663
854.090 9.71954
854.113 14.3108
854.136 22.7129
854.159 38.8118
854.180 61.9604
854.200 77.2897
854.221 61.8162
854.241 38.8014
854.261 24.5383
854.280 16.3426
854.300 11.5222
854.320 8.54598
854.359 5.25339
854.398 3.61233
854.437 2.68509
854.476 2.11781
854.554 1.49485
854.633 1.18712
854.711 1.02212
854.867 0.885359
855.180 0.928697
855.493 1.23240
855.650 1.51817
855.807 1.96190
855.963 2.68672
856.120 3.97297
856.276 6.57100
856.354 8.99372
856.433 13.0771
856.511 20.7688
856.550 27.4171
856.570 32.0033
856.589 37.7875
856.599 41.2922
856.609 45.2956
856.618 49.8935
856.628 55.2053
856.638 61.3800
856.648 68.6056
856.667 87.1173
856.687 113.745
856.706 152.841
856.726 212.314
856.746 301.879
856.759 386.818
856.773 482.883
856.800 601.093
856.814 564.237
856.827 478.903
856.855 299.313
856.876 204.789
856.897 144.450
856.918 105.714
856.939 80.1489
856.981 49.9952
857.023 33.9114
857.065 24.4173
857.107 18.4057
857.192 11.5174
857.276 7.88057
857.360 5.73841
857.444 4.37116
857.528 3.44599
857.697 2.31020
857.865 1.66672
858.034 1.26669
858.202 1.00129
858.539 0.681372
858.876 0.502852
859.550 0.319992
860.224 0.232043
860.897 0.182423
862.245 0.130219
863.593 0.103826
864.940 0.0881100
867.635 0.0704683
873.026 0.0560549
878.416 0.0538882
883.807 0.0636886
886.502 0.0772112
889.197 0.104130
890.545 0.127628
891.892 0.164114
893.240 0.224678
894.588 0.335491
895.261 0.428855
895.935 0.571222
896.609 0.803817
897.283 1.22245
897.620 1.57034
897.957 2.09425
898.294 2.93626
898.462 3.56371
898.546 3.95584
898.630 4.41667
898.715 4.96394
898.799 5.61895
898.883 6.41282
898.967 7.38759
899.052 8.60404
899.136 10.1447
899.220 12.1376
899.304 14.7769
899.389 18.3775
899.473 23.4484
899.557 30.9064
899.641 42.4755
899.725 61.7191
899.768 76.3800
899.810 96.5907
899.852 125.248
899.894 167.053
899.936 229.410
899.978 322.283
900.039 515.162
900.100 641.601
900.161 511.413
900.222 319.339
900.294 180.945
900.366 111.054
900.438 73.7030
900.510 52.0393
900.582 38.5373
900.654 29.6162
900.798 18.9948
900.942 13.1807
901.086 9.67201
901.374 5.83660
901.662 3.90008
901.950 2.79011
902.238 2.09554
902.526 1.63240
903.102 1.07257
903.678 0.760142
904.255 0.568174
904.831 0.441881
905.983 0.291227
907.135 0.208185
908.287 0.157569
909.439 0.124428
911.743 0.0850438
914.047 0.0633675
918.656 0.0414588
923.264 0.0311278
927.873 0.0254974
937.090 0.0203164
946.306 0.0193625
955.523 0.0226321
960.132 0.0274695
964.740 0.0378871
967.044 0.0479135
969.349 0.0657657
970.501 0.0812399
971.653 0.108562
972.229 0.134682
972.805 0.191048
973.093 0.257477
973.237 0.318914
973.381 0.424954
973.525 0.636386
973.597 0.833399
973.669 1.16812
973.741 1.80717
973.777 2.37011
973.813 3.26589
973.849 4.81020
973.885 7.77752
973.903 10.3662
973.921 14.3701
973.939 20.8073
973.957 31.2683
973.979 49.9443
974.000 62.3960
974.022 49.9470
974.043 31.2730
974.057 22.9293
974.070 17.1333
974.097 10.3045
974.125 6.77681
974.152 4.78278
974.179 3.55424
974.206 2.75460
974.260 1.81146
974.315 1.30112
974.369 0.996638
974.478 0.668201
974.586 0.505982
974.695 0.415928
974.912 0.328483
975.347 0.282046
975.781 0.290283
976.650 0.374758
977.520 0.556844
977.954 0.713336
978.389 0.952355
978.823 1.34180
979.258 2.03803
979.475 2.61257
979.692 3.47153
979.801 4.07034
979.910 4.83818
980.018 5.84594
980.073 6.47217
980.127 7.20457
980.181 8.07017
980.236 9.09913
980.290 10.3374
980.344 11.8455
980.399 13.7109
980.453 16.0458
980.507 19.0257
980.562 22.9086
980.616 28.1040
980.670 35.2335
980.725 45.3794
980.779 60.4388
980.833 83.9614
980.887 122.993
980.942 192.052
980.969 246.044
980.996 318.510
981.048 509.492
981.100 636.339
981.152 508.658
981.204 317.846
981.241 224.406
981.278 162.480
981.314 121.295
981.351 93.2367
981.424 59.3077
981.498 40.7140
981.571 29.5513
981.645 22.3871
981.791 14.0822
981.938 9.65095
982.085 7.02118
982.232 5.33397
982.379 4.18950
982.673 2.78043
982.966 1.97969
983.260 1.48175
983.554 1.15132
984.141 0.753659
984.728 0.532738
985.316 0.397476
985.903 0.308722
987.078 0.203181
988.253 0.145270
989.427 0.110157
990.602 0.0873341
992.952 0.0606725
995.301 0.0467677
997.651 0.0396880
1000.00 0.0389827
1001.12 0.0435212
1001.67 0.0490932
1002.23 0.0599711
1002.79 0.0840269
1003.07 0.108172
1003.34 0.151860
1003.62 0.244047
1003.76 0.333517
1003.90 0.491975
1004.04 0.816946
1004.11 1.12377
1004.18 1.63962
1004.25 2.64218
1004.29 3.53016
1004.32 4.89818
1004.35 7.31792
1004.39 11.9861
1004.41 16.2174
1004.42 22.4147
1004.44 32.2742
1004.46 48.1192
1004.47 62.4670
1004.48 77.4181
1004.50 97.1329
1004.52 77.4062
1004.54 48.1092
1004.56 35.3589
1004.57 27.0418
1004.59 16.5076
1004.62 10.9224
1004.64 7.80016
1004.67 5.76255
1004.69 4.42243
1004.74 2.85711
1004.79 1.98267
1004.84 1.46539
1004.94 0.896871
1005.04 0.606208
1005.13 0.441035
1005.33 0.267421
1005.53 0.183360
1005.73 0.136382
1006.12 0.0884572
1006.51 0.0656859
1006.91 0.0531623
1007.70 0.0405694
1009.27 0.0318457
1010.85 0.0299784
1012.43 0.0319336
1014.00 0.0411704
1014.79 0.0546859
1015.19 0.0681757
1015.58 0.0926751
1015.98 0.144597
1016.17 0.195464
1016.37 0.286556
1016.57 0.474883
1016.67 0.656578
1016.76 0.970152
1016.86 1.59817
1016.91 2.16746
1016.96 3.10778
1017.01 4.86925
1017.04 6.36225
1017.06 8.52888
1017.09 12.1511
1017.11 18.1321
1017.13 29.7850
1017.16 51.7802
1017.17 67.1495
1017.18 83.1312
1017.20 104.157
1017.22 83.1308
1017.24 51.7792
1017.26 34.7684
1017.28 24.1634
1017.29 17.4896
1017.31 13.3462
1017.34 8.20261
1017.38 5.57118
1017.41 3.98311
1017.44 3.00955
1017.51 1.87902
1017.58 1.28560
1017.64 0.936730
1017.78 0.566547
1017.91 0.382135
1018.04 0.278615
1018.31 0.171499
1018.58 0.120251
1018.85 0.0920894
1019.38 0.0638640
1019.92 0.0509305
1020.45 0.0442225
1021.52 0.0385353
1023.66 0.0385822
1025.79 0.0467411
1027.93 0.0672623
1029.00 0.0881546
1030.07 0.126297
1030.60 0.158497
1031.14 0.207591
1031.67 0.288073
1032.20 0.433898
1032.47 0.556569
1032.74 0.742271
1033.01 1.04424
1033.27 1.58450
1033.41 2.03296
1033.54 2.69967
1033.67 3.77178
1033.81 5.62315
1033.94 9.30770
1033.98 10.8227
1034.01 12.6746
1034.04 15.0419
1034.07 18.1329
1034.09 20.1068
1034.11 22.4170
1034.13 25.1430
1034.14 28.1815
1034.16 32.0424
1034.18 36.7344
1034.19 42.5068
1034.21 49.2346
1034.23 58.2191
1034.24 69.7741
1034.26 84.9079
1034.28 103.753
1034.29 130.770
1034.31 165.615
1034.33 216.898
1034.34 283.115
1034.37 453.755
1034.40 561.826
1034.42 528.415
1034.43 448.184
1034.46 283.473
1034.48 203.484
1034.50 151.419
1034.54 90.3177
1034.57 58.8576
1034.61 41.0552
1034.65 29.9187
1034.69 22.8713
1034.77 14.5667
1034.84 10.0227
1034.92 7.33898
1035.07 4.40614
1035.22 2.93747
1035.38 2.09961
1035.53 1.57723
1035.68 1.23175
1035.99 0.812350
1036.29 0.579772
1036.60 0.436850
1036.90 0.343440
1037.52 0.232509
1038.13 0.172153
1039.35 0.113271
1040.57 0.0882598
1041.79 0.0776554
1044.24 0.0787049
1046.68 0.107498
1047.90 0.141227
1049.13 0.205106
1049.74 0.259750
1050.35 0.343510
1050.96 0.481170
1051.57 0.730571
1051.88 0.939455
1052.18 1.25471
1052.49 1.76687
1052.79 2.67389
1052.95 3.42043
1053.10 4.53155
1053.18 5.30829
1053.25 6.28884
1053.33 7.56829
1053.40 9.28101
1053.44 10.3943
1053.48 11.6826
1053.52 13.2246
1053.56 15.0911
1053.60 17.4458
1053.63 20.3071
1053.67 23.9247
1053.71 28.5855
1053.75 34.9099
1053.79 43.2707
1053.83 54.9212
1053.86 71.7451
1053.90 97.0719
1053.94 137.016
1053.98 202.890
1054.02 313.193
1054.06 501.707
1054.10 622.994
1054.14 497.417
1054.19 313.473
1054.23 196.509
1054.27 129.439
1054.31 90.0875
1054.35 66.2093
1054.39 50.1619
1054.43 39.2090
1054.51 25.8589
1054.59 18.2062
1054.67 13.5376
1054.84 8.28808
1055.00 5.58720
1055.16 4.01963
1055.33 3.03055
1055.49 2.36701
1055.82 1.56013
1056.14 1.10703
1056.47 0.827552
1056.79 0.643142
1057.45 0.422629
1058.10 0.300850
1058.75 0.226600
1059.40 0.178029
1060.71 0.120503
1062.01 0.0891091
1064.62 0.0580527
1067.23 0.0442027
1069.83 0.0374408
1075.05 0.0337375
1080.26 0.0391862
1082.87 0.0469821
1085.48 0.0621718
1088.09 0.0953484
1089.39 0.128527
1090.70 0.189024
1091.35 0.239970
1092.00 0.317736
1092.65 0.445108
1093.30 0.675442
1093.63 0.867864
1093.96 1.15923
1094.28 1.63108
1094.61 2.47008
1094.77 3.15903
1094.85 3.62084
1094.93 4.18457
1095.02 4.90126
1095.10 5.80685
1095.18 7.00563
1095.26 8.59447
1095.30 9.61260
1095.34 10.8222
1095.38 12.2742
1095.42 13.9898
1095.46 16.1473
1095.51 18.8399
1095.55 22.2575
1095.59 26.5583
1095.63 32.3741
1095.67 40.2780
1095.71 51.3633
1095.75 67.0255
1095.79 91.3073
1095.83 128.865
1095.87 192.882
1095.91 298.394
1095.96 478.171
1096.00 594.885
1096.05 475.781
1096.09 299.846
1096.12 215.438
1096.15 158.077
1096.21 93.1102
1096.27 60.1917
1096.33 41.7607
1096.39 30.5475
1096.44 23.2657
1096.56 14.7419
1096.68 10.1245
1096.80 7.39387
1097.04 4.43613
1097.27 2.95112
1097.51 2.10859
1097.75 1.58141
1097.98 1.23254
1098.45 0.811318
1098.93 0.577108
1099.40 0.433682
1099.87 0.339589
1100.82 0.227865
1101.77 0.166764
1102.71 0.129922
1103.66 0.106161
1105.55 0.0788415
1107.44 0.0649569
1111.23 0.0541704
1115.01 0.0540703
1118.79 0.0611004
1122.58 0.0778670
1124.47 0.0987419
1124.94 0.111719
1125.42 0.141717
1125.65 0.179028
1125.89 0.275234
1126.01 0.397338
1126.12 0.701863
1126.18 1.06190
1126.24 1.86267
1126.27 2.70250
1126.30 4.20211
1126.32 5.49963
1126.33 7.44122
1126.35 10.4267
1126.36 14.6465
1126.38 23.2871
1126.40 29.0123
1126.42 23.2879
1126.44 14.6478
1126.46 9.95066
1126.47 7.13456
1126.49 5.29818
1126.50 4.06573
1126.53 2.59779
1126.56 1.80492
1126.62 1.02507
1126.68 0.682826
1126.80 0.392470
1126.92 0.278478
1127.16 0.191031
1127.41 0.160200
1127.89 0.141291
1128.37 0.139073
1130.30 0.166191
1132.23 0.222724
1134.16 0.325581
1135.12 0.410832
1136.09 0.538897
1137.05 0.745263
1137.53 0.899477
1137.77 0.996245
1138.01 1.11034
1138.26 1.24681
1138.50 1.41051
1138.74 1.61010
1138.98 1.85695
1139.22 2.16733
1139.46 2.56514
1139.70 3.08664
1139.94 3.78901
1140.18 4.76655
1140.43 6.18361
1140.67 8.34717
1140.91 11.8831
1141.03 14.5665
1141.15 18.2237
1141.27 23.4724
1141.39 31.1994
1141.51 43.3777
1141.63 63.4354
1141.75 99.3083
1141.87 164.750
1141.99 264.547
1142.10 332.942
1142.22 268.270
1142.33 168.377
1142.42 114.970
1142.51 81.2084
1142.59 59.4856
1142.68 45.0750
1142.86 28.0609
1143.04 19.0565
1143.21 13.7293
1143.39 10.3713
1143.74 6.52777
1144.09 4.50137
1144.45 3.31306
1145.15 2.05930
1145.86 1.45915
1146.56 1.14472
1147.97 0.914545
1149.38 1.02968
1150.09 1.25872
1150.79 1.72226
1151.15 2.12116
1151.50 2.72645
1151.68 3.15224
1151.85 3.69692
1151.94 4.02917
1152.03 4.41204
1152.12 4.85616
1152.20 5.37510
1152.29 5.99397
1152.38 6.72207
1152.47 7.59645
1152.56 8.65851
1152.65 9.96532
1152.73 11.5971
1152.82 13.6695
1152.91 16.3534
1153.00 19.9566
1153.09 24.8156
1153.17 31.6476
1153.26 41.6279
1153.35 56.8825
1153.44 81.4383
1153.53 123.059
1153.61 195.091
1153.71 311.364
1153.80 385.896
1153.89 306.202
1153.99 191.042
1154.04 141.245
1154.10 106.779
1154.21 65.2073
1154.32 43.1666
1154.44 30.4456
1154.55 22.4860
1154.66 17.2935
1154.88 11.1199
1155.11 7.73448
1155.33 5.70150
1155.78 3.47450
1156.23 2.34991
1156.68 1.70404
1157.13 1.29895
1157.58 1.02803
1158.48 0.699045
1159.37 0.514120
1161.17 0.324483
1162.97 0.235043
1164.76 0.187950
1168.35 0.152882
1171.94 0.170736
1173.74 0.207339
1175.54 0.283205
1176.43 0.349875
1177.33 0.453138
1178.23 0.623346
1179.13 0.930866
1179.58 1.18648
1180.03 1.57093
1180.47 2.18720
1180.70 2.64613
1180.81 2.93131
1180.92 3.26585
1181.04 3.66562
1181.15 4.13960
1181.26 4.71250
1181.37 5.41374
1181.49 6.29313
1181.60 7.39458
1181.71 8.81204
1181.82 10.6776
1181.93 13.2258
1182.05 16.7570
1182.16 21.8855
1182.27 29.7063
1182.38 42.3843
1182.49 64.5634
1182.55 82.1431
1182.61 106.936
1182.66 142.419
1182.72 192.880
1182.81 307.580
1182.90 381.614
1182.99 303.705
1183.08 189.831
1183.15 129.642
1183.22 91.7357
1183.29 67.3022
1183.36 51.0583
1183.50 31.8052
1183.64 21.6008
1183.79 15.5401
1183.93 11.7175
1184.21 7.31790
1184.49 4.99693
1184.77 3.62795
1185.05 2.75439
1185.33 2.16520
1185.89 1.43956
1186.45 1.02857
1187.02 0.773505
1187.58 0.604648
1188.70 0.401259
1189.82 0.288396
1190.95 0.219278
1192.07 0.174115
1194.32 0.121588
1196.56 0.0977574
1197.69 0.0965612
1198.81 0.114106
1199.37 0.146085
1199.65 0.179576
1199.93 0.241181
1200.22 0.372351
1200.36 0.501220
1200.50 0.728494
1200.64 1.19465
1200.71 1.63054
1200.78 2.37331
1200.85 3.79204
1200.88 5.03989
1200.92 7.02051
1200.95 10.4205
1200.99 16.9069
1201.01 22.7197
1201.02 31.1428
1201.04 45.3631
1201.06 66.9195
1201.07 86.2322
1201.08 108.321
1201.10 134.289
1201.12 106.156
1201.14 66.7968
1201.17 39.7586
1201.19 25.7135
1201.21 17.4169
1201.23 12.6432
1201.26 9.44587
1201.28 7.38704
1201.32 4.86227
1201.37 3.41516
1201.41 2.54759
1201.50 1.57203
1201.59 1.06879
1201.68 0.781660
1201.86 0.479308
1202.04 0.331044
1202.21 0.248196
1202.57 0.162852
1202.93 0.121656
1203.28 0.0985068
1204.00 0.0743798
1205.42 0.0553678
1206.85 0.0482485
1208.28 0.0467627
1209.71 0.0539403
1210.42 0.0674886
1210.78 0.0817470
1211.13 0.108114
1211.49 0.164627
1211.67 0.220140
1211.85 0.319473
1212.02 0.525753
1212.11 0.721902
1212.20 1.06208
1212.29 1.72996
1212.34 2.34351
1212.38 3.32596
1212.43 5.13554
1212.45 6.59980
1212.47 8.77010
1212.49 12.3509
1212.51 18.0979
1212.54 28.2889
1212.56 47.0143
1212.57 60.9013
1212.58 75.3063
1212.60 94.1831
1212.62 75.2540
1212.64 46.9728
1212.66 31.5812
1212.68 21.9675
1212.69 15.9102
1212.71 11.9550
1212.74 7.37611
1212.78 4.97077
1212.81 3.56759
1212.85 2.68267
1212.91 1.68592
1212.98 1.15353
1213.05 0.841248
1213.18 0.510491
1213.32 0.345968
1213.46 0.253622
1213.73 0.158187
1214.00 0.112223
1214.27 0.0867225
1214.81 0.0606080
1215.35 0.0480710
1215.89 0.0410317
1216.97 0.0336500
1219.14 0.0278223
1221.30 0.0257886
1223.47 0.0257021
1225.63 0.0284356
1226.71 0.0327114
1227.80 0.0444759
1228.34 0.0602377
1228.88 0.103292
1229.15 0.161072
1229.42 0.315638
1229.55 0.517836
1229.62 0.708600
1229.69 1.02898
1229.76 1.65148
1229.79 2.20254
1229.82 3.05013
1229.86 4.54916
1229.89 7.43746
1229.91 9.96301
1229.93 13.8764
1229.94 20.1772
1229.96 29.6733
1229.98 48.2327
1230.00 59.9457
1230.02 47.2866
1230.04 29.6744
1230.06 17.9945
1230.08 11.5846
1230.10 7.94277
1230.12 5.82234
1230.15 4.37839
1230.17 3.44402
1230.21 2.26508
1230.25 1.60179
1230.29 1.19359
1230.37 0.739569
1230.45 0.506687
1230.53 0.371814
1230.70 0.229989
1231.03 0.122328
1231.36 0.0834793
1232.01 0.0562227
1232.67 0.0483769
1233.98 0.0488177
1235.29 0.0611366
1236.61 0.0922675
1237.26 0.124227
1237.92 0.182771
1238.25 0.232312
1238.58 0.307709
1238.91 0.430998
1239.23 0.653221
1239.40 0.839546
1239.56 1.11929
1239.73 1.57013
1239.89 2.36598
1239.97 3.01471
1240.05 3.97343
1240.14 5.47519
1240.22 8.01945
1240.30 12.8367
1240.34 17.0349
1240.36 20.0177
1240.38 23.6347
1240.40 28.5688
1240.42 34.8068
1240.43 39.1156
1240.44 43.7366
1240.45 49.1869
1240.46 55.6645
1240.48 64.2840
1240.49 73.8429
1240.51 99.8185
1240.52 119.531
1240.53 142.038
1240.55 204.389
1240.56 263.931
1240.57 326.939
1240.60 408.317
1240.61 382.400
1240.63 326.373
1240.65 203.943
1240.67 149.487
1240.69 113.456
1240.72 69.6764
1240.75 45.7399
1240.78 32.3733
1240.82 23.8122
1240.85 18.3471
1240.91 11.7397
1240.98 8.13693
1241.04 5.96569
1241.17 3.60965
1241.30 2.41083
1241.43 1.72892
1241.56 1.29885
1241.69 1.01435
1241.95 0.668040
1242.21 0.475766
1242.47 0.357696
1242.73 0.280071
1243.25 0.187548
1243.77 0.136930
1244.28 0.106292
1244.80 0.0865534
1245.84 0.0638890
1246.88 0.0526281
1248.95 0.0458437
1251.02 0.0538275
1252.06 0.0661897
1253.10 0.0909267
1253.62 0.112511
1254.14 0.145894
1254.65 0.201299
1255.17 0.302224
1255.43 0.387435
1255.69 0.516678
1255.95 0.727228
1256.21 1.10464
1256.34 1.41844
1256.47 1.88548
1256.60 2.63797
1256.73 3.94015
1256.86 6.54182
1256.92 8.92866
1256.99 12.8123
1257.02 15.8758
1257.05 20.0102
1257.07 22.8842
1257.08 26.1810
1257.10 30.2249
1257.12 35.2515
1257.13 42.0428
1257.15 50.3078
1257.17 61.1136
1257.18 75.5205
1257.20 95.1194
1257.21 122.278
1257.23 160.348
1257.25 213.297
1257.26 273.489
1257.27 341.770
1257.30 422.280
1257.31 396.805
1257.33 336.302
1257.36 212.813
1257.38 146.718
1257.40 105.685
1257.42 78.5969
1257.44 60.2453
1257.48 38.1778
1257.52 26.1482
1257.56 18.8176
1257.60 14.2535
1257.68 8.96615
1257.76 6.12129
1257.84 4.45751
1257.92 3.37908
1258.00 2.65719
1258.16 1.76343
1258.32 1.25627
1258.48 0.941191
1258.64 0.732190
1258.97 0.480908
1259.29 0.341359
1259.61 0.255914
1259.93 0.199820
1260.58 0.133054
1261.22 0.0963170
1261.86 0.0739460
1262.51 0.0593257
1263.79 0.0419358
1265.08 0.0323941
1267.66 0.0229120
1270.23 0.0189021
1272.81 0.0181750
1275.38 0.0264970
1276.03 0.0362765
1276.67 0.0641086
1276.99 0.102119
1277.32 0.205812
1277.48 0.342302
1277.56 0.473150
1277.64 0.696427
1277.72 1.13820
1277.76 1.53153
1277.80 2.16970
1277.84 3.30117
1277.86 4.22213
1277.88 5.57302
1277.90 7.64955
1277.92 11.0192
1277.94 16.7973
1277.96 26.9576
1277.98 43.4797
1278.00 53.7732
1278.02 42.6437
1278.04 26.9584
1278.06 16.4249
1278.08 10.5990
1278.10 7.27446
1278.12 5.33395
1278.15 4.01046
1278.17 3.11759
1278.21 2.05131
1278.25 1.43815
1278.29 1.07082
1278.37 0.657111
1278.46 0.445394
1278.54 0.322924
1278.70 0.194695
1279.04 0.0966253
1279.37 0.0605192
1280.03 0.0337883
1280.69 0.0241418
1283.34 0.0144151
1288.64 0.0119023
1293.94 0.0121073
1299.24 0.0137312
1304.54 0.0178784
1307.18 0.0221292
1309.83 0.0299030
1312.48 0.0464682
1313.81 0.0629195
1315.13 0.0928422
1315.80 0.118086
1316.46 0.156606
1317.12 0.219808
1317.78 0.334452
1318.11 0.430901
1318.44 0.577111
1318.78 0.815099
1319.11 1.24146
1319.27 1.59554
1319.44 2.12338
1319.60 2.97235
1319.77 4.44421
1319.85 5.63659
1319.93 7.38049
1319.98 8.58745
1320.02 10.0738
1320.06 11.9791
1320.10 14.4750
1320.14 17.9253
1320.16 20.1257
1320.18 22.6142
1320.20 25.7488
1320.22 29.5678
1320.27 39.8645
1320.29 47.2750
1320.31 56.8567
1320.33 69.4887
1320.35 85.5610
1320.37 108.601
1320.39 139.112
1320.41 184.266
1320.43 244.424
1320.47 391.124
1320.50 489.186
1320.54 391.577
1320.57 244.773
1320.59 179.492
1320.61 135.754
1320.66 82.0379
1320.70 53.8949
1320.74 38.0811
1320.78 28.0339
1320.83 21.5750
1320.91 13.8022
1321.00 9.56419
1321.08 7.01015
1321.25 4.22402
1321.42 2.82031
1321.59 2.01637
1321.76 1.51375
1321.93 1.17884
1322.27 0.774392
1322.61 0.548886
1322.95 0.410513
1323.29 0.319592
1323.97 0.211323
1324.65 0.152088
1325.33 0.116292
1326.01 0.0931604
1327.37 0.0665100
1328.73 0.0530648
1331.45 0.0438396
1334.17 0.0497597
1335.53 0.0605482
1336.89 0.0825771
1337.58 0.101923
1338.26 0.131934
1338.94 0.181720
1339.62 0.272720
1339.96 0.349321
1340.30 0.466031
1340.64 0.656512
1340.98 0.998858
1341.15 1.28295
1341.32 1.71019
1341.49 2.39553
1341.66 3.59715
1341.83 5.99789
1341.91 8.21428
1341.95 9.83298
1342.00 11.9204
1342.04 14.8217
1342.06 16.6346
1342.08 18.7968
1342.10 21.5396
1342.12 24.7474
1342.14 28.7116
1342.17 33.6828
1342.19 40.3642
1342.21 48.7017
1342.23 59.7686
1342.25 74.8016
1342.27 96.9218
1342.29 127.302
1342.31 171.441
1342.34 235.273
1342.37 377.012
1342.40 467.157
1342.42 437.770
1342.43 372.719
1342.47 231.909
1342.49 161.831
1342.51 115.994
1342.54 85.9283
1342.56 65.6664
1342.61 41.4371
1342.66 28.3020
1342.71 20.4804
1342.75 15.4768
1342.85 9.70418
1342.95 6.63949
1343.04 4.82444
1343.14 3.66297
1343.23 2.87568
1343.43 1.90812
1343.62 1.35904
1343.81 1.01790
1344.00 0.791613
1344.39 0.519553
1344.77 0.368481
1345.15 0.275999
1345.54 0.215304
1346.31 0.143108
1347.07 0.103434
1347.84 0.0793184
1348.61 0.0635939
1350.15 0.0449854
1351.68 0.0348736
1354.75 0.0249753
1357.82 0.0207486
1360.89 0.0189514
1367.04 0.0191354
1373.18 0.0238793
1376.25 0.0292905
1379.32 0.0393430
1382.39 0.0607870
1383.93 0.0820422
1385.46 0.120617
1386.23 0.153065
1387.00 0.202571
1387.77 0.283668
1388.53 0.430199
1388.92 0.552873
1389.30 0.738881
1389.69 1.04073
1390.07 1.57911
1390.26 2.02262
1390.45 2.68491
1390.55 3.14592
1390.65 3.73715
1390.74 4.51248
1390.84 5.55674
1390.93 7.00959
1390.98 7.95886
1391.03 9.11389
1391.08 10.5382
1391.13 12.3217
1391.17 14.5944
1391.22 17.5503
1391.27 21.4880
1391.32 26.8844
1391.37 34.5352
1391.41 45.8345
1391.46 63.3631
1391.51 92.1665
1391.56 142.414
1391.61 230.229
1391.65 370.161
1391.70 462.013
1391.75 369.070
1391.80 231.802
1391.83 159.756
1391.87 113.295
1391.90 83.2304
1391.94 63.6532
1392.01 39.7499
1392.08 27.0976
1392.15 19.5018
1392.22 14.7327
1392.37 9.23524
1392.51 6.30320
1392.65 4.57280
1392.80 3.46828
1392.94 2.72535
1393.22 1.80681
1393.51 1.28824
1393.79 0.966207
1394.08 0.752693
1394.65 0.495894
1395.22 0.353664
1395.79 0.266864
1396.36 0.210205
1397.50 0.143217
1398.64 0.107096
1400.93 0.0726328
1403.21 0.0595106
1405.49 0.0575603
1406.64 0.0616632
1407.78 0.0753049
1408.35 0.0939147
1408.92 0.144566
1409.20 0.212406
1409.35 0.278331
1409.49 0.394242
1409.63 0.631802
1409.70 0.854248
1409.77 1.23424
1409.85 1.97798
1409.88 2.64196
1409.92 3.67432
1409.95 5.52093
1409.99 9.00637
1410.01 12.1656
1410.02 17.1427
1410.04 25.3313
1410.06 38.1226
1410.08 61.5414
1410.10 76.2783
1410.12 61.5423
1410.14 38.1239
1410.16 24.7585
1410.18 16.8001
1410.20 11.9530
1410.21 8.86839
1410.25 5.38701
1410.29 3.60189
1410.32 2.57648
1410.36 1.93662
1410.43 1.21576
1410.50 0.837757
1410.57 0.620936
1410.72 0.391148
1410.86 0.278051
1411.01 0.215166
1411.30 0.151299
1411.87 0.106303
1412.45 0.0934887
1413.61 0.0995572
1414.18 0.139928
1414.33 0.177090
1414.47 0.270401
1414.54 0.383199
1414.62 0.643264
1414.65 0.922119
1414.69 1.46694
1414.72 2.71422
1414.74 3.97460
1414.76 6.23303
1414.78 9.92050
1414.80 12.3599
1414.82 9.92101
1414.84 6.23396
1414.86 3.88726
1414.88 2.56174
1414.92 1.34796
1414.96 0.838855
1415.00 0.584464
1415.08 0.350371
1415.15 0.252853
1415.31 0.174205
1415.47 0.145097
1416.10 0.122097
1417.35 0.140585
1418.61 0.183954
1419.86 0.263954
1420.49 0.330461
1421.12 0.430602
1421.75 0.592112
1422.37 0.878646
1422.69 1.11513
1423.00 1.46946
1423.32 2.03631
1423.47 2.45731
1423.63 3.02885
1423.79 3.83247
1423.87 4.36643
1423.94 5.01322
1424.02 5.82904
1424.10 6.84937
1424.18 8.18504
1424.26 9.92978
1424.34 12.3349
1424.42 15.6780
1424.49 20.6515
1424.57 28.2520
1424.65 41.0075
1424.69 50.5930
1424.73 63.7498
1424.77 82.3075
1424.81 109.211
1424.85 149.064
1424.89 208.059
1424.94 334.602
1425.00 419.855
1425.06 337.255
1425.12 211.953
1425.17 137.433
1425.22 92.8738
1425.27 65.8407
1425.32 48.9683
1425.42 29.6841
1425.52 19.7949
1425.62 14.0720
1425.72 10.5448
1425.93 6.57265
1426.13 4.50746
1426.33 3.31481
1426.73 2.06697
1427.14 1.47772
1427.54 1.17622
1428.35 0.978950
1429.16 1.15469
1429.57 1.44111
1429.97 2.00365
1430.38 3.20767
1430.48 3.71260
1430.58 4.36040
1430.68 5.20903
1430.78 6.34906
1430.88 7.94686
1430.93 8.98922
1430.98 10.2282
1431.03 11.7801
1431.08 13.6752
1431.13 16.1235
1431.18 19.2212
1431.24 23.3917
1431.29 28.9284
1431.34 36.8168
1431.39 48.0122
1431.44 65.2701
1431.49 92.0694
1431.54 137.453
1431.59 212.483
1431.64 339.577
1431.70 422.982
1431.76 337.278
1431.81 210.677
1431.86 140.993
1431.90 97.7232
1431.95 70.5908
1432.00 53.2514
1432.09 32.7293
1432.18 22.0857
1432.27 15.8109
1432.36 11.8991
1432.54 7.43555
1432.73 5.07950
1432.91 3.70143
1433.09 2.81828
1433.27 2.22437
1433.64 1.49154
1434.00 1.07674
1434.37 0.818165
1434.73 0.645811
1435.47 0.436547
1436.20 0.318811
1437.66 0.196561
1439.12 0.136948
1440.58 0.103135
1443.50 0.0679376
1446.42 0.0509838
1449.34 0.0417919
1455.19 0.0337647
1461.03 0.0326545
1466.87 0.0366230
1472.72 0.0487188
1475.64 0.0654695
1476.37 0.0756981
1477.10 0.0986389
1477.46 0.126728
1477.83 0.199975
1478.01 0.295465
1478.19 0.542247
1478.29 0.854449
1478.33 1.14011
1478.38 1.59992
1478.42 2.45283
1478.45 3.16759
1478.47 4.18902
1478.49 5.87615
1478.51 8.75540
1478.54 14.0563
1478.56 23.9706
1478.58 38.4692
1478.60 47.8100
1478.62 38.4700
1478.64 23.9719
1478.65 17.7002
1478.67 13.1560
1478.69 7.98308
1478.72 5.27300
1478.74 3.72163
1478.77 2.76336
1478.79 2.13428
1478.84 1.39009
1478.89 0.985525
1478.94 0.742277
1479.04 0.477711
1479.24 0.269498
1479.44 0.191764
1479.84 0.135794
1480.24 0.118366
1481.04 0.112466
1481.84 0.119229
1483.45 0.151170
1485.05 0.213739
1485.85 0.266339
1486.65 0.346026
1487.45 0.475330
1488.25 0.706641
1488.65 0.898456
1489.05 1.18598
1489.25 1.38846
1489.45 1.64843
1489.65 1.99173
1489.85 2.45820
1489.96 2.76014
1490.06 3.11849
1490.16 3.55262
1490.26 4.08545
1490.36 4.74919
1490.46 5.59030
1490.56 6.67767
1490.66 8.11686
1490.76 10.0991
1490.86 12.8687
1490.96 16.9398
1491.06 23.2506
1491.16 33.7229
1491.21 41.7028
1491.26 52.6978
1491.31 68.2812
1491.36 91.0095
1491.41 124.927
1491.46 175.548
1491.53 280.930
1491.60 354.003
1491.67 284.760
1491.75 178.533
1491.82 105.197
1491.90 66.6047
1491.98 44.9179
1492.06 32.1913
1492.14 24.0164
1492.22 18.6186
1492.37 12.0947
1492.53 8.45562
1492.69 6.24262
1493.00 3.81473
1493.31 2.57861
1493.63 1.87091
1493.94 1.42841
1494.25 1.13486
1494.88 0.787986
1495.51 0.621043
1495.82 0.596340
1496.13 0.657829
1496.29 0.785943
1496.37 0.917588
1496.45 1.15192
1496.53 1.62449
1496.56 2.04793
1496.60 2.73606
1496.64 3.95500
1496.68 6.39271
1496.70 8.68062
1496.72 12.1862
1496.74 18.4799
1496.76 29.1088
1496.78 46.6856
1496.80 57.8835
1496.82 46.6823
1496.84 29.1017
1496.86 19.7657
1496.87 13.7030
1496.89 9.93376
1496.91 7.49942
1496.94 4.71294
1496.98 3.26488
1497.01 2.42553
1497.04 1.89807
1497.11 1.30488
1497.18 0.987290
1497.25 0.799694
1497.38 0.597611
1497.65 0.432057
1497.92 0.362898
1498.47 0.300419
1499.01 0.270752
1501.18 0.240043
1503.34 0.272039
1505.51 0.366434
1506.60 0.452707
1507.68 0.586295
1508.22 0.681073
1508.76 0.803993
1509.03 0.879491
1509.31 0.966936
1509.58 1.06894
1509.85 1.18885
1510.12 1.33106
1510.39 1.50140
1510.66 1.70772
1510.93 1.96080
1511.20 2.27576
1511.47 2.67436
1511.74 3.18873
1512.02 3.86789
1512.29 4.78952
1512.56 6.08228
1512.83 7.97091
1513.10 10.8739
1513.37 15.6329
1513.64 24.0980
1513.78 30.9503
1513.91 40.6931
1514.05 54.8868
1514.18 75.4901
1514.39 120.803
1514.60 150.866
1514.81 120.489
1515.02 75.2372
1515.17 52.9752
1515.32 38.2436
1515.47 28.4867
1515.61 21.8982
1515.91 13.8964
1516.21 9.53871
1516.51 6.92103
1516.80 5.24609
1517.40 3.30534
1517.99 2.26939
1518.59 1.65461
1519.18 1.26065
1519.78 0.993686
1520.97 0.664613
1522.16 0.477838
1523.34 0.361754
1524.53 0.284808
1526.91 0.192652
1529.29 0.142266
1531.67 0.112567
1534.05 0.0947195
1538.81 0.0814372
1541.19 0.0854399
1543.56 0.101078
1545.94 0.142589
1547.13 0.186484
1548.32 0.267984
1548.92 0.337078
1549.51 0.442623
1550.11 0.615113
1550.70 0.924461
1551.00 1.18180
1551.29 1.56706
1551.59 2.18346
1551.89 3.26000
1552.04 4.13155
1552.11 4.70958
1552.19 5.40782
1552.26 6.28690
1552.34 7.38214
1552.41 8.78955
1552.48 10.6387
1552.56 13.1724
1552.63 16.6615
1552.71 21.7131
1552.78 29.3852
1552.86 41.9702
1552.89 51.2070
1552.93 63.6223
1552.97 80.6824
1553.00 104.620
1553.04 138.688
1553.08 186.897
1553.14 300.428
1553.20 373.455
1553.26 296.140
1553.32 185.075
1553.38 115.057
1553.44 75.3972
1553.50 52.3079
1553.56 38.0899
1553.62 28.8434
1553.68 22.5403
1553.80 14.7967
1553.92 10.4287
1554.04 7.73625
1554.28 4.73709
1554.52 3.19643
1554.76 2.30306
1555.00 1.73970
1555.24 1.36190
1555.72 0.902601
1556.20 0.644699
1556.68 0.485589
1557.16 0.380556
1558.12 0.254843
1559.08 0.185296
1560.04 0.142803
1561.00 0.114947
1562.92 0.0818928
1564.84 0.0639105
1568.68 0.0469215
1572.52 0.0421675
1576.36 0.0492987
1578.28 0.0643169
1579.24 0.0802176
1580.20 0.109833
1581.16 0.173659
1581.64 0.237217
1582.12 0.352612
1582.36 0.449308
1582.60 0.596102
1582.84 0.834613
1583.08 1.26066
1583.20 1.61210
1583.32 2.13754
1583.44 2.97374
1583.56 4.42316
1583.68 7.26731
1583.74 9.84264
1583.80 14.0594
1583.83 17.2493
1583.86 21.6395
1583.88 24.4776
1583.89 27.8983
1583.91 32.0673
1583.92 37.2113
1583.94 43.6449
1583.95 51.8124
1583.97 62.3507
1583.98 76.1850
1584.00 94.6683
1584.01 119.763
1584.03 154.195
1584.04 201.260
1584.06 264.162
1584.08 364.514
1584.10 419.398
1584.12 364.321
1584.14 263.949
1584.16 201.086
1584.18 127.795
1584.21 86.5416
1584.23 61.5154
1584.26 45.6024
1584.31 27.6339
1584.36 18.4075
1584.41 13.1003
1584.46 9.78470
1584.56 6.04422
1584.66 4.08518
1584.76 2.95445
1584.86 2.23711
1584.96 1.75394
1585.16 1.16180
1585.36 0.829983
1585.56 0.623837
1585.76 0.488303
1586.16 0.325524
1586.56 0.235526
1586.96 0.180626
1587.37 0.144715
1588.17 0.102223
1588.97 0.0791087
1590.57 0.0565046
1592.18 0.0468230
1593.78 0.0426611
1596.99 0.0429686
1600.19 0.0541425
1601.80 0.0673069
1603.40 0.0922546
1604.20 0.113587
1605.00 0.146373
1605.81 0.200374
1606.61 0.298398
1607.01 0.380724
1607.41 0.505881
1607.81 0.709644
1608.21 1.07472
1608.41 1.37770
1608.61 1.82980
1608.81 2.55606
1609.01 3.81620
1609.11 4.84178
1609.21 6.32606
1609.26 7.33766
1609.31 8.61174
1609.36 10.2467
1609.41 12.3912
1609.46 15.2777
1609.51 19.2857
1609.56 25.0647
1609.61 33.7931
1609.66 47.7566
1609.69 58.0262
1609.71 71.7285
1609.74 90.3893
1609.76 116.290
1609.79 152.687
1609.81 203.506
1609.86 325.693
1609.90 407.613
1609.94 326.497
1609.99 204.130
1610.02 141.621
1610.05 102.007
1610.08 75.8587
1610.11 58.1451
1610.17 36.6026
1610.24 25.0971
1610.30 18.1249
1610.36 13.7341
1610.49 8.61646
1610.61 5.89878
1610.74 4.28902
1610.86 3.25885
1610.99 2.56519
1611.24 1.70483
1611.48 1.21833
1611.73 0.914725
1611.98 0.714123
1612.48 0.472384
1612.98 0.338216
1613.48 0.256165
1613.98 0.202401
1614.98 0.138638
1615.98 0.103955
1617.97 0.0700761
1619.97 0.0561123
1621.97 0.0529599
1622.96 0.0572117
1623.96 0.0742828
1624.46 0.0994255
1624.96 0.170223
1625.21 0.265969
1625.33 0.358892
1625.46 0.521237
1625.58 0.850699
1625.65 1.16117
1625.71 1.67784
1625.77 2.67034
1625.80 3.52042
1625.83 4.84835
1625.86 7.07646
1625.90 11.1823
1625.91 14.7474
1625.93 19.7028
1625.94 27.7746
1625.96 40.1028
1625.97 50.9141
1625.98 64.2666
1626.00 80.1895
1626.02 64.2945
1626.04 40.1242
1626.06 26.5711
1626.08 18.5553
1626.09 13.4845
1626.11 10.1611
1626.15 6.21828
1626.18 4.21391
1626.22 3.01111
1626.25 2.27558
1626.32 1.43328
1626.39 0.984206
1626.45 0.724066
1626.59 0.444014
1626.73 0.305062
1626.87 0.227202
1627.14 0.146924
1627.69 0.0871348
1628.24 0.0656052
1629.34 0.0500558
1630.43 0.0448856
1634.82 0.0434816
1639.21 0.0508849
1643.60 0.0658330
1647.99 0.0951582
1650.19 0.121315
1652.38 0.164354
1654.58 0.245760
1655.67 0.319685
1656.77 0.445378
1657.87 0.695363
1658.42 0.931391
1658.69 1.10575
1658.97 1.34247
1659.24 1.67778
1659.38 1.89936
1659.52 2.17248
1659.65 2.51469
1659.79 2.95169
1659.93 3.52230
1660.06 4.28743
1660.20 5.35604
1660.34 6.88669
1660.48 9.20637
1660.61 12.9597
1660.75 19.5939
1660.82 25.0271
1660.89 32.8649
1660.96 45.0699
1661.02 64.5474
1661.09 98.4334
1661.16 157.386
1661.30 323.972
1661.37 265.479
1661.44 166.994
1661.51 99.9408
1661.59 63.9458
1661.66 43.4382
1661.73 31.3170
1661.81 23.4838
1661.88 18.2983
1662.03 11.9801
1662.18 8.47678
1662.32 6.34489
1662.62 4.01089
1662.91 2.83194
1663.20 2.16813
1663.79 1.50799
1664.38 1.23920
1664.96 1.15003
1665.55 1.17135
1665.84 1.21670
1666.14 1.28505
1666.43 1.37897
1666.58 1.43654
1666.72 1.50154
1667.02 1.65944
1667.17 1.75404
1667.31 1.86011
1667.61 2.11738
1667.90 2.44766
1668.19 2.88041
1668.49 3.45414
1668.78 4.23880
1669.07 5.33763
1669.37 6.94797
1669.66 9.40851
1669.95 13.4361
1670.25 20.5138
1670.39 26.1844
1670.54 34.2411
1670.69 45.8729
1670.83 62.4364
1671.07 99.7216
1671.30 123.601
1671.53 98.1103
1671.77 61.2962
1671.98 39.4945
1672.19 26.6375
1672.40 18.8676
1672.61 13.9497
1673.03 8.42676
1673.45 5.60680
1673.87 3.98761
1674.29 2.98125
1675.13 1.84766
1675.97 1.25810
1676.81 0.913829
1677.65 0.695205
1678.49 0.547707
1680.17 0.366981
1681.85 0.264621
1683.53 0.201029
1685.21 0.158858
1688.58 0.108265
1691.94 0.0810037
1695.30 0.0693523
1696.14 0.0718423
1696.98 0.0849834
1697.40 0.105564
1697.82 0.164561
1698.03 0.244229
1698.24 0.455926
1698.34 0.724688
1698.40 0.975084
1698.45 1.38444
1698.50 2.15566
1698.53 2.79889
1698.55 3.77909
1698.58 5.44694
1698.61 8.29280
1698.63 13.7702
1698.65 18.3995
1698.66 25.4172
1698.68 40.4019
1698.70 50.7847
1698.72 40.4022
1698.74 25.4175
1698.76 16.4142
1698.78 10.9815
1698.80 7.73342
1698.82 5.69577
1698.86 3.42863
1698.89 2.30418
1698.93 1.64223
1698.97 1.23239
1699.04 0.778221
1699.19 0.403157
1699.35 0.257088
1699.65 0.144956
1699.95 0.103230
1700.55 0.0714670
1701.15 0.0592663
1702.36 0.0490236
1703.57 0.0442035
1708.39 0.0356742
1718.05 0.0306065
1722.87 0.0313897
1727.70 0.0359739
1730.11 0.0422611
1732.52 0.0589520
1733.73 0.0812000
1734.33 0.103023
1734.94 0.142451
1735.54 0.225888
1735.84 0.308095
1736.14 0.455514
1736.29 0.578486
1736.45 0.764007
1736.60 1.06297
1736.75 1.58605
1736.82 2.01767
1736.90 2.64679
1736.97 3.64520
1737.05 5.31256
1737.12 8.50960
1737.16 11.3029
1737.20 15.5579
1737.22 18.7188
1737.24 22.9159
1737.26 28.6327
1737.27 36.1516
1737.28 41.5926
1737.29 47.5265
1737.30 55.5899
1737.31 64.5276
1737.32 76.8495
1737.33 90.6488
1737.35 128.266
1737.36 164.954
1737.38 206.868
1737.40 256.833
1737.41 241.315
1737.43 204.073
1737.45 128.599
1737.47 94.3584
1737.48 70.4970
1737.52 42.2783
1737.55 27.6445
1737.58 19.5286
1737.61 14.3445
1737.64 10.9598
1737.71 7.02190
1737.77 4.84951
1737.83 3.56536
1737.96 2.15507
1738.09 1.44672
1738.21 1.04183
1738.34 0.789077
1738.47 0.620851
1738.72 0.417980
1738.98 0.305064
1739.23 0.235903
1739.48 0.190552
1739.99 0.136803
1740.50 0.107551
1741.52 0.0789073
1743.55 0.0605176
1745.58 0.0569926
1749.64 0.0632193
1753.70 0.0807171
1757.77 0.115171
1759.80 0.144639
1761.83 0.189925
1763.86 0.265037
1765.89 0.404738
1766.91 0.527127
1767.42 0.613778
1767.93 0.728875
1768.18 0.802643
1768.43 0.892959
1768.69 1.00859
1768.94 1.16825
1769.20 1.42123
1769.45 1.94615
1769.58 2.53565
1769.64 3.06321
1769.70 3.91713
1769.77 5.52125
1769.80 6.90458
1769.83 8.98119
1769.86 12.5552
1769.89 18.8755
1769.91 24.2768
1769.93 32.2832
1769.94 44.4656
1769.96 61.6224
1769.98 97.9566
1769.99 115.372
1770.00 123.053
1770.02 99.4683
1770.03 79.9833
1770.04 62.8372
1770.06 46.3054
1770.07 35.5313
1770.09 27.4219
1770.10 22.0891
1770.11 17.9264
1770.13 15.0650
1770.15 11.0600
1770.21 6.99257
1770.26 5.14020
1770.31 4.13409
1770.37 3.55268
1770.47 2.97950
1770.69 2.69182
1770.90 2.79797
1771.33 3.50977
1771.76 4.86544
1771.98 5.91354
1772.19 7.36068
1772.41 9.42175
1772.62 12.4763
1772.84 17.2314
1773.05 25.0812
1773.27 38.8732
1773.48 63.7880
1773.69 102.301
1773.90 128.951
1774.11 104.136
1774.32 65.3749
1774.47 45.6002
1774.62 32.6543
1774.78 24.1760
1774.93 18.4746
1775.24 11.6785
1775.54 8.00993
1775.85 5.83468
1776.15 4.44985
1776.76 2.86904
1777.38 2.04712
1777.99 1.58244
1779.21 1.16731
1780.44 1.16062
1781.05 1.32872
1781.66 1.71053
1782.27 2.56730
1782.58 3.39782
1782.73 4.00919
1782.88 4.82242
1782.96 5.34264
1783.03 5.95039
1783.11 6.68607
1783.19 7.56267
1783.26 8.64766
1783.34 9.97331
1783.42 11.6616
1783.49 13.7925
1783.57 16.6096
1783.65 20.3217
1783.72 25.4800
1783.80 32.6789
1783.88 43.3590
1783.95 59.3637
1784.03 84.3608
1784.10 123.475
1784.20 196.339
1784.30 240.104
1784.40 188.085
1784.50 117.014
1784.57 80.5432
1784.65 57.4182
1784.72 42.4020
1784.79 32.3514
1784.94 20.3504
1785.09 13.9341
1785.24 10.1018
1785.39 7.67275
1785.68 4.86330
1785.98 3.37226
1786.28 2.48803
1786.87 1.53601
1787.47 1.05825
1788.06 0.784113
1789.25 0.495559
1790.43 0.352752
1791.62 0.271041
1794.00 0.185239
1796.37 0.144239
1798.75 0.123414
1803.50 0.113829
1808.25 0.141205
1810.62 0.178277
1812.99 0.250084
1814.18 0.311464
1815.37 0.404918
1816.56 0.556525
1817.74 0.824651
1818.04 0.924110
1818.34 1.04349
1818.64 1.18845
1818.78 1.27316
1818.93 1.36682
1819.23 1.58961
1819.38 1.72288
1819.53 1.87282
1819.68 2.04471
1819.82 2.24024
1820.12 2.72667
1820.42 3.39407
1820.71 4.33993
1821.01 5.74060
1821.31 7.92413
1821.46 9.51574
1821.60 11.6066
1821.75 14.4605
1821.90 18.4124
1822.05 24.1346
1822.20 32.5729
1822.35 45.4137
1822.49 64.9541
1822.70 103.740
1822.90 128.234
1823.10 101.469
1823.31 63.3314
1823.43 46.8999
1823.56 35.3368
1823.80 21.5065
1824.05 14.1807
1824.30 9.98502
1824.55 7.37416
1824.79 5.66312
1825.29 3.62907
1825.78 2.52042
1826.28 1.85245
1827.27 1.12396
1828.26 0.757051
1829.25 0.547017
1830.24 0.415828
1831.23 0.328632
1833.21 0.223733
1835.19 0.166176
1837.17 0.132120
1839.14 0.111593
1843.10 0.0962309
1845.08 0.100827
1847.06 0.118907
1849.04 0.166991
1850.03 0.217857
1851.02 0.312083
1851.52 0.391827
1852.01 0.513394
1852.51 0.711479
1853.00 1.06595
1853.25 1.35929
1853.50 1.79622
1853.74 2.49457
1853.99 3.69995
1854.12 4.66814
1854.24 6.07433
1854.30 7.02848
1854.36 8.22565
1854.43 9.75489
1854.49 11.7127
1854.55 14.3658
1854.61 18.0152
1854.67 23.2127
1854.73 30.7814
1854.80 42.7584
1854.86 62.6168
1854.89 77.5581
1854.92 97.6695
1854.95 124.913
1854.98 160.093
1855.04 255.464
1855.10 315.957
1855.16 250.107
1855.22 155.904
1855.28 98.2838
1855.33 65.0965
1855.39 45.5074
1855.45 33.4923
1855.56 20.0237
1855.67 13.2291
1855.79 9.33848
1855.90 6.95238
1856.13 4.27856
1856.35 2.89264
1856.58 2.09039
1856.81 1.58300
1857.03 1.24197
1857.48 0.825714
1857.94 0.592028
1858.39 0.447285
1858.84 0.351805
1859.75 0.237038
1860.65 0.173420
1862.46 0.108657
1864.27 0.0777819
1866.08 0.0605749
1869.70 0.0429145
1873.32 0.0345275
1876.94 0.0301172
1884.19 0.0271820
1891.43 0.0302127
1895.05 0.0351286
1898.67 0.0449615
1902.29 0.0666660
1904.10 0.0884001
1905.91 0.127978
1906.82 0.161288
1907.72 0.211986
1908.63 0.294798
1909.53 0.443962
1909.98 0.568251
1910.44 0.755312
1910.89 1.05737
1911.34 1.58921
1911.57 2.02470
1911.79 2.66561
1911.91 3.10729
1912.02 3.66887
1912.13 4.39775
1912.25 5.36708
1912.36 6.70829
1912.42 7.57443
1912.47 8.59816
1912.53 9.86656
1912.59 11.4032
1912.64 13.3610
1912.70 15.8090
1912.76 19.0430
1912.81 23.2580
1912.87 29.0984
1912.92 37.1375
1912.98 48.9866
1913.04 66.4199
1913.09 93.7887
1913.15 135.354
1913.23 216.373
1913.30 269.583
1913.38 214.977
1913.45 134.260
1913.50 96.0714
1913.55 70.7038
1913.65 41.5239
1913.75 26.8012
1913.85 18.5782
1913.95 13.5830
1914.05 10.3425
1914.25 6.55279
1914.45 4.51467
1914.65 3.29743
1915.05 1.98054
1915.45 1.32217
1915.85 0.946979
1916.25 0.713243
1916.65 0.557923
1917.45 0.370779
1918.25 0.267006
1919.05 0.203579
1919.85 0.162097
1921.45 0.113187
1923.05 0.0869625
1926.25 0.0625076
1929.46 0.0541661
1932.66 0.0545998
1934.26 0.0587419
1935.86 0.0697341
1936.66 0.0833870
1937.46 0.119010
1937.86 0.165990
1938.26 0.292850
1938.46 0.460164
1938.56 0.620205
1938.66 0.898886
1938.76 1.45010
1938.81 1.95368
1938.86 2.78630
1938.91 4.30518
1938.93 5.57831
1938.96 7.50122
1938.98 10.5775
1939.01 15.8584
1939.03 25.6729
1939.05 34.0668
1939.06 44.8674
1939.07 57.7147
1939.08 72.3674
1939.10 89.5901
1939.12 71.0654
1939.14 44.7855
1939.16 29.1923
1939.18 19.7858
1939.20 14.0633
1939.22 10.5812
1939.26 6.39950
1939.29 4.30713
1939.33 3.06892
1939.37 2.31596
1939.44 1.46065
1939.52 1.00862
1939.59 0.745051
1939.74 0.467464
1940.04 0.254196
1940.34 0.176361
1940.94 0.120537
1941.53 0.102845
1942.73 0.0957529
1943.92 0.100893
1946.31 0.128663
1948.70 0.185038
1949.90 0.232975
1951.09 0.305797
1952.29 0.423773
1953.48 0.633276
1954.08 0.805199
1954.38 0.919564
1954.68 1.06027
1954.98 1.23734
1955.28 1.46363
1955.43 1.60161
1955.57 1.75914
1955.72 1.94134
1955.87 2.15359
1956.02 2.40467
1956.17 2.70036
1956.32 3.05686
1956.47 3.48570
1956.62 4.01519
1956.77 4.66954
1956.92 5.49644
1957.07 6.56115
1957.22 7.97305
1957.37 9.86817
1957.52 12.5043
1957.66 16.3025
1957.81 22.0513
1957.96 31.0391
1958.11 45.7970
1958.26 70.3873
1958.43 112.730
1958.60 140.335
1958.77 111.693
1958.94 69.7812
1959.06 48.7021
1959.19 35.0004
1959.31 25.9841
1959.43 19.8917
1959.68 12.5860
1959.92 8.61466
1960.17 6.23797
1960.42 4.72311
1960.91 2.97303
1961.40 2.04144
1961.89 1.49082
1962.88 0.899291
1963.86 0.606299
1964.85 0.440807
1965.83 0.338807
1966.82 0.272011
1968.79 0.194292
1970.76 0.155048
1974.70 0.130289
1978.64 0.154988
1980.61 0.194260
1982.58 0.272063
1983.56 0.338990
1984.55 0.441218
1985.53 0.607121
1986.52 0.900908
1987.01 1.14076
1987.26 1.29928
1987.50 1.49421
1987.75 1.73866
1988.00 2.04803
1988.12 2.23501
1988.24 2.44905
1988.36 2.69557
1988.49 2.98144
1988.61 3.31837
1988.73 3.71232
1988.98 4.74304
1989.23 6.26632
1989.47 8.64459
1989.60 10.3628
1989.72 12.6303
1989.84 15.6959
1989.96 19.9554
1990.09 26.0541
1990.21 35.0588
1990.33 48.6849
1990.46 69.2804
1990.63 110.542
1990.80 136.320
1990.97 107.487
1991.14 66.8934
1991.28 45.0502
1991.42 31.4796
1991.56 22.8349
1991.70 17.2120
1991.98 10.6475
1992.25 7.19395
1992.53 5.16422
1992.81 3.88172
1993.36 2.42119
1993.91 1.65248
1994.47 1.20109
1995.02 0.913027
1995.57 0.718772
1996.68 0.480609
1997.79 0.345999
1998.89 0.262773
2000.00 0.208053
2001.86 0.151969
2003.73 0.124444
2004.66 0.122677
2005.59 0.142626
2006.06 0.179400
2006.29 0.217866
2006.52 0.288693
2006.76 0.438063
2006.87 0.583735
2006.99 0.837815
2007.11 1.35178
2007.17 1.82374
2007.22 2.61299
2007.28 4.11290
2007.31 5.37998
2007.34 7.33273
2007.37 10.5460
2007.40 16.2943
2007.43 27.6657
2007.44 37.9389
2007.46 52.2120
2007.47 66.5858
2007.48 83.2998
2007.50 104.060
2007.52 82.9147
2007.54 51.9107
2007.57 29.8565
2007.60 18.2583
2007.62 12.0944
2007.65 8.53577
2007.67 6.32567
2007.70 4.86937
2007.75 3.16423
2007.80 2.21085
2007.85 1.63699
2007.96 1.01574
2008.06 0.699015
2008.16 0.519110
2008.37 0.330612
2008.58 0.238511
2008.78 0.186808
2009.20 0.133648
2009.61 0.107967
2010.02 0.0937343
2010.85 0.0803911
2011.68 0.0789528
2012.50 0.0951686
2012.92 0.123428
2013.33 0.205391
2013.54 0.316568
2013.74 0.609796
2013.85 0.985075
2013.90 1.33123
2013.95 1.89466
2014.00 2.95008
2014.03 3.84532
2014.05 5.14840
2014.08 7.32837
2014.11 11.1430
2014.13 18.4357
2014.15 24.5488
2014.16 33.0197
2014.18 52.9910
2014.20 66.0710
2014.22 52.9913
2014.24 33.0199
2014.26 22.4272
2014.28 15.9515
2014.29 11.5456
2014.31 8.80936
2014.34 5.48560
2014.37 3.76194
2014.41 2.71071
2014.44 2.04614
2014.50 1.29623
2014.57 0.894673
2014.64 0.661638
2014.77 0.411314
2015.03 0.215621
2015.29 0.142148
2015.81 0.0866324
2016.33 0.0658324
2017.38 0.0494914
2018.42 0.0428144
2020.51 0.0372781
2022.60 0.0362461
2024.69 0.0398573
2025.73 0.0450930
2026.77 0.0556689
2027.82 0.0793960
2028.34 0.103394
2028.86 0.147301
2029.12 0.184273
2029.38 0.240606
2029.64 0.332537
2029.91 0.497709
2030.04 0.635359
2030.17 0.840700
2030.30 1.17255
2030.43 1.74944
2030.56 2.91022
2030.62 3.97315
2030.69 5.74483
2030.75 9.08687
2030.79 11.9518
2030.82 16.2098
2030.85 23.3907
2030.87 28.6253
2030.88 35.7031
2030.90 46.2333
2030.91 52.6965
2030.92 60.4326
2030.93 69.7262
2030.93 80.9062
2030.94 94.3219
2030.95 110.280
2030.96 141.796
2030.98 177.671
2031.00 219.660
2031.01 205.860
2031.03 173.778
2031.05 109.391
2031.07 70.4774
2031.10 47.4250
2031.12 33.5223
2031.14 25.0483
2031.19 15.0440
2031.23 10.0448
2031.28 7.11200
2031.32 5.32450
2031.41 3.30106
2031.51 2.23689
2031.60 1.61680
2031.69 1.22448
2031.78 0.963165
2031.96 0.640711
2032.14 0.460166
2032.32 0.348462
2032.50 0.274599
2032.87 0.185941
2033.23 0.137112
2033.95 0.0879554
2034.68 0.0653136
2035.40 0.0535083
2036.85 0.0442286
2038.30 0.0464903
2039.03 0.0531154
2039.75 0.0673652
2040.48 0.0998797
2040.84 0.132882
2041.20 0.192950
2041.57 0.320242
2041.75 0.444456
2041.93 0.665582
2042.11 1.12163
2042.20 1.55542
2042.29 2.29402
2042.38 3.74527
2042.43 5.03155
2042.47 7.10685
2042.52 10.8672
2042.56 18.2300
2042.59 25.0810
2042.61 35.6073
2042.62 44.0422
2042.63 54.2685
2042.64 67.6949
2042.65 86.0689
2042.66 109.320
2042.68 137.051
2042.70 171.669
2042.71 161.168
2042.72 136.467
2042.75 85.6130
2042.77 59.6192
2042.78 43.0429
2042.80 32.0702
2042.82 24.6193
2042.85 15.4496
2042.89 10.6199
2042.92 7.65465
2042.95 5.81235
2043.02 3.64879
2043.09 2.50036
2043.16 1.82032
2043.30 1.09385
2043.44 0.729787
2043.57 0.524497
2043.85 0.311126
2044.12 0.208411
2044.40 0.151551
2044.67 0.116675
2044.95 0.0937365
2045.50 0.0663198
2046.05 0.0511990
2047.15 0.0358536
2048.25 0.0285703
2049.35 0.0245588
2051.55 0.0206960
2053.76 0.0195902
2055.96 0.0213236
2058.16 0.0361705
2058.71 0.0518542
2059.26 0.0955788
2059.53 0.154657
2059.81 0.314044
2059.95 0.522298
2060.08 1.04871
2060.15 1.68930
2060.19 2.26621
2060.22 3.16089
2060.26 4.75793
2060.29 7.75400
2060.31 10.3602
2060.33 14.3791
2060.34 20.8140
2060.36 31.2196
2060.38 50.4094
2060.40 62.3864
2060.42 49.4371
2060.44 31.2203
2060.46 21.2996
2060.47 15.3021
2060.49 11.1507
2060.50 8.55525
2060.53 5.36033
2060.56 3.68821
2060.60 2.65870
2060.63 2.02186
2060.69 1.27246
2060.81 0.636199
2060.93 0.384976
2061.18 0.188680
2061.42 0.115544
2061.91 0.0607664
2062.40 0.0409851
2064.36 0.0213850
2068.27 0.0166229
2076.10 0.0171861
2083.93 0.0218388
2085.89 0.0245403
2087.84 0.0300757
2089.80 0.0530304
2090.29 0.0749490
2090.78 0.134573
2091.03 0.214355
2091.27 0.426295
2091.39 0.701227
2091.45 0.955852
2091.51 1.38579
2091.58 2.19575
2091.61 2.91224
2091.64 3.99639
2091.67 5.88236
2091.70 9.25296
2091.71 12.2818
2091.73 16.5332
2091.74 22.9985
2091.76 33.5980
2091.78 53.2505
2091.80 67.1289
2091.82 53.2510
2091.84 33.5986
2091.86 22.4766
2091.88 15.5389
2091.89 11.2025
2091.91 8.52480
2091.94 5.21991
2091.98 3.53901
2092.01 2.52851
2092.04 1.91073
2092.11 1.19525
2092.24 0.600837
2092.38 0.366806
2092.65 0.186553
2092.91 0.119991
2093.45 0.0708358
2093.98 0.0536604
2096.13 0.0394967
2100.41 0.0450532
2104.69 0.0609249
2108.98 0.0910494
2111.12 0.116455
2113.26 0.155029
2115.40 0.217589
2117.54 0.328832
2118.61 0.420220
2119.69 0.556250
2120.22 0.650754
2120.76 0.771404
2120.89 0.806895
2121.02 0.844895
2121.29 0.929422
2121.56 1.02730
2121.83 1.14102
2122.10 1.27524
2122.36 1.43453
2122.63 1.62551
2122.90 1.85615
2123.17 2.14039
2123.43 2.49464
2123.70 2.94357
2123.97 3.52108
2124.24 4.28653
2124.51 5.32469
2124.77 6.77709
2125.04 8.87549
2125.31 12.0642
2125.58 17.1108
2125.84 25.5436
2126.11 39.7520
2126.41 63.4204
2126.70 78.3882
2127.00 62.0141
2127.29 38.6498
2127.63 22.3484
2127.96 13.9285
2128.30 9.33073
2128.63 6.63790
2128.97 4.93934
2129.30 3.81343
2129.97 2.46358
2130.65 1.72551
2131.32 1.29324
2131.99 1.09876
2132.16 1.13735
2132.32 1.33454
2132.41 1.61949
2132.49 2.33080
2132.53 3.13339
2132.58 4.77721
2132.60 6.30490
2132.62 8.82274
2132.64 13.2281
2132.66 20.9657
2132.68 32.8938
2132.70 41.1559
2132.72 32.8836
2132.74 20.9456
2132.76 12.9235
2132.79 8.47898
2132.81 5.98730
2132.83 4.49370
2132.87 2.89889
2132.92 2.11931
2133.01 1.41198
2133.09 1.10848
2133.27 0.841683
2133.44 0.721459
2134.14 0.523898
2135.55 0.357914
2136.95 0.265796
2138.35 0.206768
2141.16 0.142861
2141.86 0.138378
2142.56 0.148704
2142.91 0.172179
2143.26 0.244448
2143.43 0.344276
2143.61 0.607212
2143.70 0.939080
2143.78 1.72522
2143.83 2.61495
2143.87 4.45725
2143.89 6.19785
2143.92 9.12308
2143.94 14.3874
2143.96 23.7437
2143.98 38.2297
2144.00 47.3934
2144.02 38.2295
2144.04 23.7432
2144.05 17.2823
2144.07 12.6135
2144.08 9.47899
2144.10 7.32910
2144.12 4.71289
2144.15 3.27093
2144.21 1.84391
2144.26 1.19420
2144.38 0.640141
2144.49 0.418259
2144.71 0.242120
2144.93 0.174659
2145.38 0.121852
2145.83 0.100488
2146.72 0.0809761
2147.61 0.0706502
2151.18 0.0491935
2154.75 0.0374482
2158.32 0.0297349
2165.46 0.0203860
2172.60 0.0151895
2179.74 0.0122113
2186.87 0.0110630
2190.44 0.0117458
2192.23 0.0129114
2194.01 0.0153917
2195.80 0.0211476
2196.69 0.0270665
2197.58 0.0380150
2198.03 0.0473356
2198.48 0.0616090
2198.92 0.0851016
2199.37 0.127806
2199.81 0.218099
2200.04 0.306736
2200.26 0.465447
2200.48 0.793337
2200.59 1.10911
2200.71 1.65400
2200.82 2.74150
2200.87 3.73710
2200.93 5.34815
2200.98 8.32910
2201.01 10.8287
2201.04 14.6048
2201.07 20.6468
2201.10 31.0173
2201.11 39.0850
2201.12 50.2710
2201.14 65.9588
2201.15 86.8816
2201.16 112.019
2201.18 139.484
2201.20 173.162
2201.21 162.908
2201.22 138.714
2201.25 86.2780
2201.27 52.8574
2201.30 33.9746
2201.32 23.2476
2201.35 16.9672
2201.37 12.7349
2201.40 9.97927
2201.45 6.52623
2201.50 4.55753
2201.54 3.37724
2201.64 2.06433
2201.74 1.38562
2201.84 0.997276
2201.94 0.750318
2202.04 0.586653
2202.23 0.386812
2202.43 0.274811
2202.63 0.205817
2202.82 0.160330
2203.22 0.105977
2203.61 0.0759701
2204.01 0.0576669
2204.40 0.0456807
2205.19 0.0314410
2205.98 0.0236101
2207.55 0.0157015
2209.13 0.0119478
2210.70 0.00985543
2213.85 0.00771926
2217.01 0.00681214
2220.16 0.00685479
2223.31 0.0105122
2224.89 0.0265367
2225.28 0.0428210
2225.67 0.0876358
2225.87 0.147307
2226.07 0.304887
2226.17 0.505660
2226.26 0.991465
2226.31 1.54698
2226.36 2.72529
2226.39 3.89995
2226.41 5.85524
2226.44 9.71153
2226.46 17.2426
2226.48 27.7867
2226.50 34.5047
2226.52 27.7868
2226.54 17.2428
2226.56 12.2012
2226.57 8.90072
2226.60 5.07382
2226.63 3.21381
2226.66 2.22700
2226.71 1.22928
2226.77 0.775589
2226.89 0.387241
2227.00 0.233076
2227.00 2.80808
2500.00 2.58312
3000.00 2.27213
3500.00 2.04580
4000.00 1.87326
5000.00 1.62642
6000.00 1.45689
7000.00 1.33200
8000.00 1.23525
9000.00 1.15742
10000.0 1.09296
12500.0 0.969833
15000.0 0.880289
17000.0 0.823521
20000.0 0.754698
25000.0 0.668003
30000.0 0.603254
35000.0 0.552461
40000.0 0.511367
50000.0 0.448555
60000.0 0.402685
70000.0 0.367716
80000.0 0.340222
89545.6 0.319101
89545.6 0.319101
90000.0 0.318096
90000.0 0.317645
100000 0.310475
110000 0.300068
120000 0.283417
130000 0.265914
150000 0.239331
170000 0.220061
198274 0.196024
200000 0.194557
250000 0.176761
270000 0.172798
290044 0.168827
290044 0.168827
300000 0.166854
320000 0.164587
350000 0.161187
370000 0.158920
400000 0.155520
420000 0.154507
450000 0.152987
470000 0.151974
500000 0.150454
520000 0.151747
570000 0.154978
588493 0.156173
588493 0.156173
600000 0.156917
613800 0.157809
613800 0.157809
620000 0.158210
650000 0.160149
670000 0.161441
700000 0.163380
800000 0.170785
900000 0.181156
971333 0.190489
971333 0.190489
1.00000E+06 0.194239
1.02000E+06 0.196312
1.04000E+06 0.198386
1.05629E+06 0.200075
1.06000E+06 0.200459
1.08000E+06 0.202533
1.10000E+06 0.204606
1.12000E+06 0.206679
1.13672E+06 0.208413
1.13672E+06 0.208413
1.14000E+06 0.208753
1.16000E+06 0.210826
1.16158E+06 0.210990
1.16158E+06 0.210990
1.17578E+06 0.212462
1.17578E+06 0.212462
1.18000E+06 0.212900
1.20000E+06 0.214973
1.22000E+06 0.210060
1.24000E+06 0.205148
1.25053E+06 0.202561
1.25053E+06 0.202561
1.25603E+06 0.201210
1.25603E+06 0.201209
1.26000E+06 0.200235
1.26619E+06 0.198715
1.26619E+06 0.198714
1.28000E+06 0.195322
1.28436E+06 0.194252
1.28436E+06 0.194251
1.30000E+06 0.190409
1.30619E+06 0.188890
1.30619E+06 0.188889
1.32000E+06 0.185497
1.32828E+06 0.183463
1.32828E+06 0.183463
1.34000E+06 0.180584
1.36000E+06 0.175671
1.36414E+06 0.174654
1.36414E+06 0.174654
1.37533E+06 0.171906
1.37533E+06 0.171905
1.38000E+06 0.170758
1.40000E+06 0.165846
1.41721E+06 0.161618
1.42000E+06 0.160933
1.42519E+06 0.159658
1.42519E+06 0.159658
1.44000E+06 0.156020
1.46000E+06 0.151108
1.47172E+06 0.148229
1.47803E+06 0.146679
1.47803E+06 0.146678
1.48000E+06 0.146195
1.48585E+06 0.144758
1.48585E+06 0.144758
1.50000E+06 0.141282
1.51656E+06 0.139154
1.51656E+06 0.139154
1.52000E+06 0.138712
1.52031E+06 0.138672
1.52031E+06 0.138672
1.54000E+06 0.136142
1.54879E+06 0.135013
1.54880E+06 0.135012
1.55019E+06 0.134833
1.55020E+06 0.134832
1.56000E+06 0.133572
1.58000E+06 0.131002
1.60000E+06 0.128432
1.67980E+06 0.118178
1.70000E+06 0.115582
1.70246E+06 0.115320
1.72778E+06 0.112623
1.76785E+06 0.108354
1.78406E+06 0.106628
1.80000E+06 0.104930
1.80629E+06 0.104260
1.82642E+06 0.102115
1.83044E+06 0.101687
1.84054E+06 0.100611
1.85608E+06 0.0989559
1.86519E+06 0.0979855
1.89612E+06 0.0946908
1.89899E+06 0.0943851
1.90000E+06 0.0942775
1.93159E+06 0.0909124
1.93961E+06 0.0900581
1.94166E+06 0.0898397
1.94847E+06 0.0891143
1.95029E+06 0.0889204
1.97298E+06 0.0865034
1.99492E+06 0.0841663
2.00000E+06 0.0836252
2.00660E+06 0.0831909
2.02534E+06 0.0819576
2.03552E+06 0.0812876
2.05072E+06 0.0802873
2.05760E+06 0.0798345
2.06862E+06 0.0791093
2.20000E+06 0.0704631
2.40000E+06 0.0573010
2.50000E+06 0.0507199
2.60000E+06 0.0471803
2.80000E+06 0.0401011
3.00000E+06 0.0330219
3.50000E+06 0.0217254
4.00000E+06 0.0140283
4.50000E+06 0.00923772
5.00000E+06 0.00644245
5.50000E+06 0.00363396
6.00000E+06 0.00266547
6.50000E+06 0.00205916
7.00000E+06 0.00161804
7.50000E+06 0.00145461
7.80000E+06 0.00139495
8.00000E+06 0.00135518
8.05779E+06 0.00135380
8.50000E+06 0.00134327
8.50970E+06 0.00134346
8.59122E+06 0.00134507
8.59122E+06 0.00134507
9.00000E+06 0.00135316
9.50000E+06 0.00144636
1.00000E+07 0.00153226
1.04900E+07 0.00157606
1.05000E+07 0.00157545
1.10000E+07 0.00154488
1.15000E+07 0.00146350
1.20000E+07 0.00135596
1.25000E+07 0.00126553
1.30000E+07 0.00117509
1.39500E+07 0.000988957
1.40000E+07 0.000979161
1.50000E+07 0.000783231
1.50678E+07 0.000765449
1.50679E+07 0.000765433
1.60000E+07 0.000520956
1.62615E+07 0.000471972
1.62615E+07 0.000471966
1.70000E+07 0.000333635
1.75000E+07 0.000239974
1.80000E+07 0.000195024
1.85000E+07 0.000150074
1.90000E+07 0.000123919
1.95000E+07 9.77632E-05
2.00000E+07 8.40927E-05