W-186(n,g) ENDF/B-VII.1
Energy(eV) XS(b)
1.00000E-05 1910.90
1.25000E-05 1709.16
1.50000E-05 1560.24
2.00000E-05 1351.21
2.75000E-05 1152.32
3.50000E-05 1021.42
4.25000E-05 926.926
5.00000E-05 854.584
6.25000E-05 764.364
7.50000E-05 697.766
0.000100000 604.285
0.000125000 540.490
0.000150000 493.399
0.000200000 427.298
0.000275000 364.404
0.000350000 323.012
0.000425000 293.130
0.000500000 270.255
0.000625000 241.726
0.000750000 220.668
0.00100000 191.108
0.00125000 170.937
0.00150000 156.047
0.00200000 135.147
0.00275000 115.262
0.00350000 102.177
0.00425000 92.7304
0.00500000 85.4994
0.00625000 76.4823
0.00750000 69.8269
0.0100000 60.4865
0.0125000 54.1139
0.0150000 49.4110
0.0200000 42.8120
0.0253000 38.0841
0.0314750 34.1650
0.0376500 31.2567
0.0500000 27.1558
0.0625000 24.3184
0.0750000 22.2267
0.100000 19.2959
0.125000 17.3010
0.150000 15.8322
0.200000 13.7786
0.275000 11.8376
0.350000 10.5711
0.500000 8.97779
0.750000 7.51802
1.00000 6.68035
1.50000 5.74991
2.00000 5.25894
2.75000 4.88540
3.50000 4.73957
5.00000 4.82642
6.25000 5.18172
7.50000 5.79665
8.75000 6.74497
10.0000 8.18541
11.0826 10.0667
12.1653 12.9460
13.2479 17.6404
13.7892 21.1793
14.3305 26.0460
14.8718 33.0021
15.4131 43.4493
15.9544 60.2081
16.4958 89.6670
16.7664 113.621
17.0371 148.979
17.3077 204.338
17.5784 298.194
17.8490 476.441
17.9844 632.475
18.1197 879.082
18.2550 1300.18
18.3904 2097.56
18.4580 2782.82
18.5257 3826.83
18.5933 5472.48
18.6610 8083.02
18.7455 12878.1
18.8300 16004.5
18.9145 12751.8
18.9990 7957.14
19.0616 5525.96
19.1241 3943.07
19.1867 2909.52
19.2493 2215.73
19.3744 1389.86
19.4995 944.509
19.6246 680.369
19.7498 511.982
20.0000 318.495
20.2344 221.215
20.4688 162.184
20.9375 97.4026
21.4063 64.6277
21.8750 45.8388
22.3438 34.1034
22.8125 26.3005
23.7500 16.9189
24.6875 11.7275
25.6250 8.56867
27.5000 5.10021
29.3750 3.35064
31.2500 2.35353
33.1250 1.73529
35.0000 1.32751
38.7500 0.842982
42.5000 0.579223
46.2500 0.421176
50.0000 0.319664
56.2500 0.216896
62.5000 0.157486
68.7500 0.120413
75.0000 0.0959641
87.5000 0.0673381
100.000 0.0527465
117.663 0.0441630
135.326 0.0458615
144.157 0.0525156
152.988 0.0702970
157.404 0.0924285
159.612 0.113295
161.820 0.150114
164.028 0.226757
165.132 0.302106
166.236 0.438701
166.788 0.553577
167.340 0.729035
167.892 1.01705
168.443 1.54012
168.719 1.97942
168.995 2.64824
169.271 3.73984
169.547 5.70261
169.685 7.33401
169.754 8.42897
169.789 9.07161
169.823 9.79124
169.858 10.6007
169.892 11.5154
169.927 12.5546
169.961 13.7419
169.996 15.1067
170.030 16.6862
170.065 18.5278
170.099 20.6928
170.134 23.2615
170.168 26.3403
170.237 34.6601
170.272 40.3797
170.306 47.6369
170.341 57.0324
170.375 69.4892
170.410 86.4823
170.444 110.480
170.479 145.856
170.513 200.904
170.548 292.739
170.582 460.430
170.600 599.675
170.617 802.972
170.634 1108.43
170.651 1567.41
170.676 2507.32
170.700 3136.94
170.724 2513.30
170.749 1571.92
170.777 894.350
170.806 549.803
170.835 365.195
170.863 258.262
170.892 191.275
170.920 147.001
170.977 94.3399
171.035 65.4611
171.092 48.0447
171.206 28.9944
171.320 19.3670
171.434 13.8509
171.549 10.3963
171.663 8.09499
171.892 5.31193
172.120 3.76005
172.349 2.80725
172.577 2.18081
173.034 1.43464
173.491 1.02468
173.948 0.775763
174.405 0.613694
175.319 0.423038
176.233 0.320203
178.062 0.220759
179.890 0.178643
181.718 0.159915
185.374 0.153457
189.031 0.169423
192.687 0.204322
196.344 0.265095
200.000 0.371700
202.152 0.474082
204.304 0.630990
204.842 0.683253
205.380 0.742628
205.649 0.775391
205.918 0.810459
206.187 0.848055
206.456 0.888425
206.725 0.931850
206.994 0.978645
207.263 1.02917
207.532 1.08382
207.801 1.14307
208.070 1.20745
208.608 1.35411
209.146 1.52989
209.684 1.74305
210.222 2.00499
210.760 2.33182
211.298 2.74689
211.836 3.28508
212.374 4.00038
212.912 4.97995
213.450 6.37193
213.988 8.44469
214.526 11.7258
215.064 17.3706
215.333 21.8554
215.602 28.3209
215.871 38.1163
216.140 53.9481
216.409 81.8618
216.544 104.457
216.678 137.423
216.813 187.740
216.947 268.614
217.082 405.501
217.216 642.394
217.358 1026.84
217.500 1283.76
217.642 1028.41
217.784 643.302
217.919 405.613
218.053 268.448
218.188 187.461
218.322 137.105
218.591 81.5321
218.860 53.6547
219.129 37.8528
219.398 28.0880
219.936 17.1817
220.475 11.5678
221.013 8.30931
221.551 6.25353
222.089 4.87494
223.165 3.19898
224.241 2.25871
225.317 1.67922
226.393 1.29727
228.546 0.841179
230.698 0.589836
232.850 0.436905
235.003 0.337065
239.307 0.219119
243.612 0.154955
247.916 0.116446
252.221 0.0917960
260.830 0.0645457
269.439 0.0556057
273.744 0.0602070
275.896 0.0679645
278.049 0.0843041
280.201 0.121919
281.277 0.160509
282.353 0.231857
282.891 0.292477
283.429 0.385585
283.967 0.539135
284.505 0.819115
284.775 1.05495
285.044 1.41460
285.313 2.00320
285.582 3.06483
285.716 3.95023
285.851 5.28655
285.985 7.44267
286.053 9.05634
286.086 10.0664
286.120 11.2556
286.153 12.6736
286.187 14.3721
286.204 15.3523
286.221 16.4363
286.237 17.6393
286.254 18.9791
286.288 22.1705
286.322 26.2243
286.355 31.4960
286.389 38.5237
286.422 48.2100
286.456 61.9763
286.490 82.5073
286.523 114.971
286.557 170.611
286.574 214.121
286.591 275.662
286.607 365.832
286.624 503.049
286.641 719.010
286.658 1061.23
286.679 1699.51
286.700 2122.36
286.721 1696.28
286.742 1061.16
286.757 755.416
286.771 551.359
286.786 414.186
286.800 319.919
286.829 204.883
286.858 141.268
286.888 102.781
286.917 78.0375
286.975 49.2326
287.033 33.7892
287.091 24.6118
287.149 18.7077
287.207 14.7020
287.323 9.76116
287.439 6.95002
287.555 5.20047
287.671 4.03850
287.903 2.63988
288.136 1.86242
288.368 1.38620
288.600 1.07356
289.064 0.701599
289.529 0.497175
289.993 0.372898
290.458 0.291729
291.386 0.195599
292.315 0.142935
294.173 0.0899856
296.030 0.0650300
297.888 0.0511727
301.603 0.0368445
309.033 0.0255382
316.463 0.0208386
331.324 0.0167981
346.184 0.0155550
361.045 0.0163608
375.905 0.0213274
383.335 0.0288827
387.050 0.0365330
390.766 0.0505877
392.623 0.0624965
394.481 0.0807762
396.338 0.110949
398.196 0.166133
399.125 0.212776
400.053 0.284231
400.982 0.401842
401.911 0.616000
402.375 0.796190
402.840 1.07094
403.304 1.52018
403.768 2.33030
403.885 2.63546
404.001 3.00507
404.117 3.45865
404.233 4.02369
404.291 4.36008
404.349 4.73990
404.407 5.17252
404.465 5.66639
404.523 6.23568
404.581 6.89416
404.697 8.56931
404.813 10.9382
404.929 14.4430
405.046 19.9414
405.104 23.9482
405.162 29.2775
405.220 36.6049
405.278 47.0163
405.336 62.5507
405.394 87.0258
405.452 128.775
405.481 161.350
405.510 207.287
405.539 274.344
405.568 375.903
405.597 534.803
405.626 785.012
405.663 1257.97
405.700 1576.51
405.737 1263.93
405.774 790.676
405.797 581.064
405.820 435.179
405.866 261.853
405.912 171.539
405.958 120.050
406.004 88.3413
406.050 67.5710
406.142 43.0535
406.234 29.7400
406.326 21.7536
406.510 13.0675
406.694 8.70181
406.878 6.20771
407.062 4.65030
407.246 3.61345
407.615 2.36214
407.983 1.66503
408.351 1.23741
408.719 0.956453
409.455 0.621810
410.191 0.437822
410.927 0.325963
411.663 0.252956
413.136 0.166627
414.608 0.119511
416.080 0.0910369
417.552 0.0725469
420.497 0.0508407
423.442 0.0391356
429.331 0.0277624
435.220 0.0228619
441.109 0.0205986
452.887 0.0196024
464.665 0.0213415
476.444 0.0260578
488.222 0.0376584
494.111 0.0517738
497.056 0.0654228
500.000 0.0911088
502.384 0.135776
503.576 0.178966
504.768 0.256486
505.364 0.321285
505.960 0.419873
506.556 0.581097
507.152 0.872728
507.450 1.11685
507.599 1.28156
507.748 1.48743
507.897 1.74942
508.046 2.08999
508.120 2.29995
508.195 2.54403
508.269 2.83005
508.344 3.16820
508.418 3.57195
508.493 4.05945
508.642 5.39494
508.716 6.32758
508.791 7.52699
508.865 9.10524
508.940 11.2399
509.014 14.2256
509.089 18.5802
509.163 25.2807
509.238 36.3485
509.312 56.5081
509.350 73.4078
509.387 98.8268
509.424 139.528
509.461 209.038
509.498 337.723
509.517 442.505
509.536 588.601
509.568 943.840
509.600 1189.69
509.632 959.534
509.664 600.830
509.695 377.476
509.726 249.310
509.756 173.837
509.787 127.011
509.818 96.3203
509.848 75.4034
509.909 49.6105
509.971 34.9925
510.032 25.9795
510.154 15.9130
510.277 10.7347
510.399 7.72969
510.522 5.83393
510.644 4.56323
510.889 3.01705
511.134 2.14958
511.379 1.61466
511.624 1.26218
512.114 0.841302
512.604 0.609823
513.094 0.469481
513.584 0.378409
514.564 0.272378
515.544 0.216763
517.503 0.167657
519.463 0.153994
521.422 0.157564
525.342 0.202829
527.301 0.249543
529.261 0.324056
531.221 0.448517
531.711 0.492375
532.201 0.543581
532.691 0.603840
533.180 0.675384
533.670 0.761207
533.915 0.810672
534.160 0.865295
534.405 0.925865
534.650 0.993218
535.140 1.15281
535.630 1.35542
536.120 1.61795
536.610 1.96656
537.100 2.44331
537.590 3.11967
538.080 4.12400
538.570 5.70784
539.059 8.41749
539.304 10.5586
539.549 13.6269
539.794 18.2430
540.039 25.6235
540.284 38.4435
540.407 48.6619
540.529 63.3357
540.652 85.3108
540.774 119.709
540.897 175.912
541.019 269.050
541.160 431.103
541.300 542.291
541.441 436.611
541.581 273.301
541.699 180.880
541.818 124.211
541.936 89.0690
542.054 66.4111
542.291 40.5177
542.528 27.0869
542.764 19.3141
543.001 14.4431
543.474 8.93037
543.947 6.05621
544.421 4.37457
544.894 3.30743
545.367 2.58855
546.313 1.71070
547.260 1.21584
548.206 0.909807
549.153 0.707551
551.046 0.465330
552.939 0.331459
554.832 0.249851
556.724 0.196523
560.510 0.133551
564.296 0.0994353
571.868 0.0663310
579.440 0.0523966
587.011 0.0465264
602.155 0.0467871
617.298 0.0602136
624.870 0.0749863
632.441 0.101483
640.013 0.155822
643.799 0.208155
647.585 0.301258
648.531 0.336156
649.478 0.378384
649.951 0.402920
650.424 0.430191
650.897 0.460633
651.371 0.494763
651.844 0.533219
652.317 0.576755
652.790 0.626328
653.264 0.683121
653.737 0.748637
654.210 0.824739
655.156 1.01923
656.103 1.29689
657.049 1.71316
657.996 2.37893
658.469 2.87277
658.942 3.54218
659.416 4.48150
659.889 5.85680
660.362 7.98510
660.835 11.5299
661.308 18.0720
661.545 23.6214
661.782 32.1078
662.018 45.9253
662.255 70.2723
662.373 89.7241
662.491 117.383
662.610 157.419
662.728 215.245
662.914 345.546
663.100 438.269
663.286 355.894
663.472 223.286
663.669 133.423
663.867 84.8125
664.064 57.5865
664.261 41.2956
664.458 30.9185
664.655 23.9607
665.050 15.5515
665.444 10.8841
665.839 8.03985
666.628 4.90553
667.416 3.31230
668.205 2.39551
668.994 1.82105
669.783 1.43813
671.361 0.976680
672.939 0.721605
676.094 0.469335
679.249 0.360590
682.405 0.313025
685.560 0.298937
688.716 0.308480
691.871 0.339872
693.449 0.364760
695.027 0.397060
695.816 0.416462
696.605 0.438365
697.393 0.463080
698.182 0.490979
698.577 0.506267
698.971 0.522525
699.366 0.539829
699.760 0.558258
700.549 0.598857
701.338 0.645133
702.127 0.698109
702.915 0.759042
704.493 0.911540
706.071 1.12144
707.649 1.42118
709.226 1.87169
710.804 2.60662
711.593 3.18476
712.382 4.09246
712.776 4.85898
713.171 6.33262
713.368 7.92983
713.466 9.34699
713.565 11.7176
713.664 16.2718
713.713 20.3737
713.762 27.1110
713.812 39.3558
713.836 49.6391
713.861 65.1277
713.886 90.0989
713.910 133.113
713.935 214.681
713.947 282.412
713.959 379.179
713.980 613.503
713.990 736.905
714.000 804.793
714.010 778.283
714.020 674.363
714.031 543.682
714.041 426.410
714.050 341.426
714.059 275.391
714.068 224.774
714.077 186.304
714.086 156.164
714.095 132.809
714.104 114.078
714.113 99.2036
714.131 77.0573
714.149 61.8246
714.186 42.9619
714.222 32.2617
714.258 25.6591
714.330 18.3406
714.403 14.6478
714.475 12.5768
714.620 10.5738
714.910 9.59071
715.199 9.90019
715.779 11.9713
716.358 15.5921
716.937 21.4232
717.516 31.1483
718.096 48.2982
718.675 79.4585
719.238 126.884
719.800 158.022
720.363 126.035
720.925 78.7238
721.355 54.0959
721.786 38.2884
722.216 28.0910
722.646 21.3093
723.506 13.3104
724.367 9.03330
725.227 6.50886
726.088 4.90425
727.809 3.06408
729.529 2.09257
731.250 1.51928
732.971 1.15328
734.692 0.905606
738.134 0.601649
741.575 0.429338
745.017 0.322307
748.459 0.251288
755.342 0.165827
762.226 0.118300
769.109 0.0891804
775.993 0.0700872
789.760 0.0475943
803.526 0.0360317
817.293 0.0332179
820.735 0.0365432
824.177 0.0486010
825.898 0.0664787
826.758 0.0846403
827.618 0.118091
828.049 0.146459
828.479 0.189964
828.909 0.261610
829.339 0.392042
829.554 0.501679
829.770 0.668652
829.985 0.941163
830.200 1.43115
830.307 1.83825
830.415 2.45033
830.522 3.43412
830.630 5.16003
830.684 6.56068
830.738 8.62030
830.764 10.0338
830.791 11.8247
830.818 14.1391
830.845 17.1877
830.859 19.1081
830.872 21.3480
830.885 24.0232
830.899 27.2018
830.912 31.0774
830.926 35.7895
830.939 41.6851
830.953 49.0648
830.966 58.6067
830.980 71.0036
830.993 87.7230
831.006 110.497
831.020 142.852
831.033 189.366
831.047 258.046
831.060 359.217
831.080 575.021
831.100 717.298
831.110 674.598
831.120 572.874
831.140 358.432
831.156 241.437
831.172 168.503
831.188 122.093
831.204 91.9002
831.236 56.7246
831.268 38.2458
831.300 27.4081
831.332 20.5851
831.396 12.7948
831.461 8.70678
831.525 6.30387
831.589 4.77429
831.653 3.74151
831.781 2.47657
831.909 1.76227
832.038 1.31967
832.166 1.02665
832.422 0.674982
832.679 0.480195
832.935 0.361119
833.191 0.283049
833.704 0.190266
834.217 0.139331
835.243 0.0881394
836.269 0.0641525
837.294 0.0509730
839.346 0.0376356
843.448 0.0276700
847.551 0.0238540
863.963 0.0195992
880.374 0.0197801
896.785 0.0230778
913.196 0.0323525
921.402 0.0422100
929.608 0.0605239
933.710 0.0760541
937.813 0.0998183
941.916 0.138784
946.019 0.209250
948.070 0.268086
950.122 0.357115
950.635 0.386542
951.147 0.419849
951.660 0.457763
952.173 0.501157
952.686 0.551159
953.199 0.609159
953.712 0.676983
954.224 0.756947
954.737 0.852166
955.250 0.966730
955.763 1.10631
956.276 1.27865
956.789 1.49495
957.302 1.77136
957.814 2.13245
958.327 2.61631
958.840 3.28550
959.353 4.24695
959.866 5.69758
960.379 8.02742
960.892 12.0991
961.148 15.3641
961.404 20.0851
961.661 27.2090
961.917 38.4727
962.174 57.1284
962.430 88.5715
962.715 141.776
963.000 177.631
963.285 142.440
963.570 89.0711
963.855 54.8216
964.139 35.6356
964.424 24.5752
964.709 17.8160
964.993 13.4454
965.278 10.4793
965.847 6.85197
966.416 4.81523
966.985 3.56411
968.124 2.17488
969.262 1.46343
970.401 1.05182
971.539 0.792696
972.678 0.619165
974.954 0.408560
977.231 0.290580
979.508 0.217971
981.785 0.170174
986.339 0.113244
990.893 0.0820569
995.446 0.0632867
1000.00 0.0512707
1008.84 0.0381499
1017.68 0.0322829
1026.52 0.0309561
1035.36 0.0342107
1044.19 0.0455781
1048.61 0.0580653
1053.03 0.0814335
1055.24 0.101296
1057.45 0.131714
1059.66 0.181623
1061.87 0.271900
1062.98 0.347371
1064.08 0.461682
1065.19 0.646890
1065.46 0.711182
1065.74 0.785803
1066.01 0.873086
1066.29 0.976067
1066.57 1.09923
1066.84 1.24706
1067.12 1.42727
1067.40 1.65005
1067.67 1.93105
1067.95 2.28954
1068.22 2.75856
1068.50 3.38845
1068.78 4.26541
1069.05 5.52610
1069.33 7.43655
1069.61 10.5250
1069.88 15.9720
1070.02 20.3820
1070.16 26.8174
1070.30 36.6423
1070.43 52.4388
1070.57 79.1900
1070.71 125.528
1070.86 201.041
1071.00 251.441
1071.15 201.530
1071.29 126.331
1071.39 90.9870
1071.49 66.9065
1071.68 39.3150
1071.87 25.3230
1072.07 17.5561
1072.26 12.8168
1072.45 9.76052
1072.84 6.18475
1073.23 4.25724
1073.61 3.10950
1074.38 1.86631
1075.16 1.24511
1075.93 0.891264
1076.70 0.670934
1077.48 0.524602
1079.02 0.348622
1080.57 0.251089
1082.11 0.191685
1083.66 0.153054
1086.75 0.108211
1089.84 0.0852634
1096.03 0.0687142
1102.21 0.0767373
1105.31 0.0929882
1108.40 0.126477
1109.94 0.155835
1111.49 0.201321
1113.04 0.276447
1114.58 0.412793
1115.35 0.526730
1116.13 0.699074
1116.51 0.820603
1116.90 0.977570
1117.29 1.18637
1117.48 1.31702
1117.67 1.47091
1117.87 1.65492
1118.06 1.87501
1118.25 2.14264
1118.45 2.47254
1118.64 2.88795
1118.83 3.41507
1119.03 4.10136
1119.22 5.01753
1119.41 6.28580
1119.61 8.08917
1119.80 10.7871
1119.99 15.0716
1120.19 22.4834
1120.28 28.3438
1120.38 36.5981
1120.48 48.9213
1120.57 67.6794
1120.67 97.9396
1120.77 146.191
1120.88 234.541
1121.00 292.896
1121.12 233.761
1121.24 146.195
1121.36 86.2900
1121.49 54.4379
1121.62 36.7903
1121.75 26.3649
1121.87 19.6924
1122.00 15.2595
1122.26 9.88547
1122.51 6.89833
1122.77 5.08734
1123.28 3.09161
1123.79 2.07516
1124.30 1.49095
1124.81 1.12415
1125.32 0.878972
1126.34 0.581725
1127.36 0.415650
1128.38 0.313420
1129.40 0.246207
1131.44 0.166089
1133.48 0.122142
1137.56 0.0785802
1141.65 0.0593104
1145.73 0.0502662
1153.89 0.0472983
1162.06 0.0611490
1166.14 0.0788916
1170.22 0.113051
1172.26 0.142298
1174.30 0.187109
1176.35 0.260393
1178.39 0.391972
1178.90 0.441380
1179.41 0.500942
1179.92 0.573780
1180.17 0.616442
1180.43 0.664139
1180.68 0.717916
1180.94 0.778354
1181.19 0.846869
1181.45 0.924963
1181.70 1.01450
1181.96 1.11783
1182.21 1.23792
1182.47 1.37860
1182.98 1.74397
1183.49 2.27562
1184.00 3.09289
1184.25 3.67650
1184.51 4.44085
1184.77 5.47252
1185.02 6.89708
1185.28 8.94525
1185.53 12.0268
1185.79 16.9303
1186.04 25.2821
1186.30 40.6225
1186.42 53.0628
1186.55 70.1239
1186.78 111.992
1187.00 139.491
1187.23 111.348
1187.45 69.6100
1187.68 42.7871
1187.90 27.8412
1188.13 19.2175
1188.35 13.9424
1188.58 10.5286
1188.80 8.21017
1189.25 5.37279
1189.70 3.77572
1190.15 2.79647
1191.05 1.70823
1191.95 1.14997
1192.85 0.827161
1193.75 0.623787
1194.65 0.487493
1196.45 0.321842
1198.25 0.228947
1200.06 0.171626
1201.86 0.133812
1205.46 0.0885290
1209.06 0.0634533
1212.66 0.0481035
1216.26 0.0380109
1223.46 0.0259443
1230.66 0.0192473
1245.07 0.0124005
1259.47 0.00912008
1273.88 0.00730154
1302.69 0.00554814
1331.50 0.00501565
1360.30 0.00544388
1374.71 0.00630721
1389.11 0.00852473
1396.32 0.0112933
1399.92 0.0139207
1403.52 0.0185835
1407.12 0.0283452
1408.92 0.0379820
1410.72 0.0554851
1411.62 0.0702451
1412.52 0.0927904
1413.42 0.129832
1414.32 0.197176
1414.77 0.253913
1415.22 0.340182
1415.67 0.481061
1416.12 0.734659
1416.35 0.945512
1416.57 1.26326
1416.80 1.77444
1416.91 2.15758
1417.02 2.67459
1417.14 3.41044
1417.25 4.48566
1417.30 5.23915
1417.36 6.18002
1417.42 7.39779
1417.47 9.01189
1417.53 11.2594
1417.59 14.3871
1417.64 19.0000
1417.70 26.1836
1417.75 38.4663
1417.78 47.7749
1417.81 60.6943
1417.84 79.1737
1417.87 106.440
1417.89 147.718
1417.92 210.323
1417.96 337.267
1418.00 423.786
1418.04 340.291
1418.08 212.676
1418.10 153.011
1418.13 113.704
1418.18 67.0579
1418.23 43.3752
1418.28 30.3014
1418.33 22.1479
1418.38 16.8571
1418.48 10.7126
1418.59 7.36692
1418.69 5.38629
1418.89 3.23516
1419.09 2.15180
1419.30 1.53430
1419.50 1.14952
1419.70 0.894789
1420.11 0.586168
1420.51 0.414855
1420.92 0.309585
1421.32 0.240628
1422.13 0.158474
1422.94 0.113369
1423.76 0.0860054
1424.57 0.0682096
1426.19 0.0472566
1427.81 0.0359639
1431.05 0.0250695
1434.30 0.0204916
1437.54 0.0185079
1444.03 0.0180431
1450.51 0.0202770
1457.00 0.0252246
1463.49 0.0364255
1465.11 0.0429138
1466.73 0.0569408
1467.54 0.0739242
1468.35 0.118894
1468.76 0.179388
1468.96 0.238932
1469.16 0.345717
1469.37 0.570681
1469.47 0.788848
1469.57 1.17593
1469.62 1.49694
1469.67 1.97607
1469.72 2.73677
1469.77 4.01639
1469.82 6.54197
1469.85 8.75130
1469.87 12.2896
1469.90 18.7813
1469.92 31.1523
1469.94 42.7308
1469.95 59.6212
1469.96 90.0179
1469.97 138.766
1469.99 220.837
1470.00 277.067
1470.01 220.840
1470.03 138.769
1470.04 84.1966
1470.06 54.6355
1470.07 36.7384
1470.09 26.7145
1470.10 19.8427
1470.11 15.5340
1470.14 10.2305
1470.17 7.15001
1470.20 5.27521
1470.26 3.23657
1470.32 2.17804
1470.37 1.57815
1470.49 0.946002
1470.60 0.635589
1470.72 0.463313
1470.94 0.286599
1471.17 0.203111
1471.40 0.157381
1471.86 0.112054
1472.78 0.0813213
1473.69 0.0728681
1475.52 0.0726159
1477.36 0.0801102
1481.02 0.108935
1484.68 0.164017
1486.52 0.210226
1488.35 0.279975
1489.26 0.328945
1489.72 0.358463
1489.95 0.374751
1490.18 0.392185
1490.64 0.430947
1491.10 0.475801
1491.55 0.528090
1492.01 0.589547
1492.47 0.662440
1492.93 0.749782
1493.39 0.855645
1493.84 0.985636
1494.30 1.14765
1494.76 1.35306
1495.22 1.61878
1495.68 1.97071
1496.13 2.45017
1496.59 3.12616
1497.05 4.12052
1497.51 5.66336
1497.97 8.22683
1498.42 12.8798
1498.65 16.7073
1498.88 22.2975
1499.11 30.6519
1499.34 43.1327
1499.67 69.0696
1500.00 86.5298
1500.33 69.3379
1500.66 43.3349
1501.02 25.5270
1501.38 16.0766
1501.74 10.8506
1502.10 7.75567
1502.46 5.78913
1502.82 4.47796
1503.55 2.89581
1504.27 2.01948
1504.99 1.48716
1506.43 0.901278
1507.87 0.603536
1509.32 0.432286
1510.76 0.324840
1512.20 0.253057
1515.08 0.166114
1517.97 0.117506
1520.85 0.0876155
1523.74 0.0679414
1529.51 0.0444581
1535.28 0.0315193
1541.05 0.0236403
1546.82 0.0184942
1558.36 0.0124224
1569.89 0.00919917
1581.43 0.00785741
1584.32 0.00818976
1587.20 0.00988045
1590.09 0.0204566
1590.81 0.0315457
1591.53 0.0628948
1591.89 0.106100
1592.25 0.225609
1592.43 0.387715
1592.52 0.544596
1592.61 0.822185
1592.70 1.38493
1592.75 1.91278
1592.79 2.81101
1592.84 4.52333
1592.86 6.06790
1592.88 8.40743
1592.91 12.6036
1592.93 20.2205
1592.94 27.4359
1592.95 37.6342
1592.96 53.6155
1592.97 78.8120
1592.99 126.091
1593.00 157.611
1593.01 126.096
1593.03 78.8159
1593.04 53.6185
1593.05 37.6364
1593.06 27.4376
1593.07 20.7130
1593.09 12.8521
1593.12 8.82740
1593.14 6.32614
1593.16 4.74707
1593.20 2.97732
1593.25 2.02174
1593.29 1.47159
1593.38 0.874983
1593.46 0.580035
1593.55 0.413104
1593.72 0.241658
1594.07 0.113214
1594.42 0.0669457
1595.11 0.0331129
1595.81 0.0210457
1598.59 0.00909889
1604.15 0.00573063
1615.26 0.00435412
1637.50 0.00336971
1659.74 0.00303197
1665.30 0.00313186
1670.85 0.00359796
1676.41 0.00646214
1679.19 0.0180276
1679.89 0.0299060
1680.58 0.0633358
1680.93 0.109317
1681.28 0.236281
1681.45 0.407520
1681.54 0.573813
1681.62 0.863423
1681.71 1.45414
1681.76 2.01488
1681.80 2.94453
1681.84 4.75308
1681.86 6.34515
1681.89 8.72819
1681.91 12.9520
1681.93 20.4449
1681.94 27.0537
1681.95 37.0492
1681.96 52.6459
1681.97 75.9924
1681.99 122.370
1682.00 152.187
1682.01 122.373
1682.03 75.9955
1682.04 47.6676
1682.06 31.0714
1682.07 21.4639
1682.08 15.5774
1682.10 11.7647
1682.11 9.17407
1682.14 6.08569
1682.17 4.26925
1682.19 3.18739
1682.25 1.95185
1682.31 1.30733
1682.36 0.941368
1682.47 0.554743
1682.58 0.364346
1682.69 0.258492
1682.91 0.149885
1683.35 0.0694449
1683.79 0.0405604
1684.68 0.0195688
1685.56 0.0121336
1689.09 0.00486642
1696.15 0.00298869
1710.26 0.00246701
1738.50 0.00239844
1752.61 0.00255630
1766.73 0.00302752
1773.79 0.00364160
1777.32 0.00423130
1780.84 0.00528257
1784.37 0.00748827
1786.14 0.00966771
1787.90 0.0136306
1788.79 0.0169775
1789.67 0.0220991
1790.55 0.0305381
1791.43 0.0459526
1791.87 0.0590047
1792.31 0.0789506
1792.76 0.111755
1793.20 0.171430
1793.42 0.221715
1793.64 0.297948
1793.86 0.422976
1794.08 0.646834
1794.19 0.834632
1794.30 1.11512
1794.41 1.56546
1794.52 2.35615
1794.58 3.01120
1794.63 3.96076
1794.69 5.43952
1794.71 6.53085
1794.74 7.92416
1794.77 9.89339
1794.80 12.5694
1794.82 16.6537
1794.84 19.4698
1794.85 22.7602
1794.86 27.3010
1794.88 33.2941
1794.89 41.3967
1794.91 51.7134
1794.92 67.4011
1794.93 90.4942
1794.95 125.328
1794.96 176.062
1794.98 280.310
1795.00 353.756
1795.01 332.938
1795.02 282.084
1795.04 177.441
1795.06 104.402
1795.08 66.4767
1795.10 44.4593
1795.13 32.0002
1795.15 23.7256
1795.17 18.4510
1795.21 11.9213
1795.25 8.31222
1795.30 6.11784
1795.38 3.72389
1795.47 2.49038
1795.55 1.78146
1795.64 1.33720
1795.73 1.04351
1795.90 0.683395
1796.07 0.483237
1796.24 0.359973
1796.41 0.278734
1796.75 0.181507
1797.10 0.127962
1797.44 0.0953804
1797.78 0.0741501
1798.47 0.0489561
1799.15 0.0352338
1799.84 0.0269569
1800.52 0.0216058
1801.89 0.0154055
1803.26 0.0122025
1806.01 0.00966948
1808.75 0.0100787
1811.49 0.0148956
1812.86 0.0224969
1814.23 0.0445767
1814.92 0.0754169
1815.60 0.162142
1815.94 0.281275
1816.11 0.398487
1816.29 0.609374
1816.46 1.05231
1816.54 1.48216
1816.63 2.23003
1816.67 2.84485
1816.71 3.75335
1816.76 5.17604
1816.80 7.51132
1816.84 11.9920
1816.86 15.9895
1816.89 21.9544
1816.91 32.4722
1816.93 50.9601
1816.94 67.0886
1816.95 88.5420
1816.96 123.975
1816.97 172.153
1816.99 275.328
1817.00 344.064
1817.02 275.331
1817.03 172.156
1817.05 105.973
1817.06 70.7651
1817.07 49.7763
1817.09 36.6139
1817.12 21.9558
1817.14 14.5284
1817.17 10.1762
1817.20 7.58573
1817.26 4.67163
1817.31 3.14050
1817.37 2.26653
1817.43 1.70436
1817.48 1.33364
1817.60 0.877706
1817.71 0.621508
1817.93 0.359816
1818.16 0.234618
1818.39 0.165480
1818.84 0.0958259
1819.74 0.0451269
1820.64 0.0271407
1822.45 0.0141358
1824.25 0.00953952
1831.47 0.00511551
1838.70 0.00444871
1845.92 0.00443888
1860.36 0.00519758
1874.80 0.00698292
1889.25 0.0109396
1896.47 0.0148850
1903.69 0.0220563
1907.30 0.0280859
1910.91 0.0372831
1914.52 0.0523453
1918.14 0.0796058
1919.94 0.102419
1921.75 0.137003
1923.55 0.193192
1925.36 0.293461
1925.81 0.331008
1926.26 0.376201
1926.71 0.431524
1927.16 0.499918
1927.62 0.586253
1928.07 0.696849
1928.29 0.764454
1928.52 0.842036
1928.97 1.03784
1929.42 1.31143
1929.87 1.70787
1930.32 2.31412
1930.77 3.30683
1931.00 4.05978
1931.23 5.09691
1931.45 6.57696
1931.68 8.77001
1931.90 12.2247
1932.13 17.9648
1932.35 28.2603
1932.47 36.3745
1932.58 47.2898
1932.79 75.8160
1933.00 95.6164
1933.21 77.2013
1933.42 48.3687
1933.55 35.5893
1933.68 26.6971
1933.94 16.0962
1934.20 10.5563
1934.46 7.39288
1934.72 5.44284
1934.98 4.16471
1935.50 2.65516
1936.02 1.83455
1936.54 1.34267
1937.58 0.807558
1938.63 0.538486
1939.67 0.384843
1940.71 0.288910
1941.75 0.225054
1943.83 0.148017
1945.91 0.105168
1947.99 0.0789197
1950.07 0.0617275
1954.23 0.0413850
1958.39 0.0303815
1962.55 0.0238949
1966.71 0.0198921
1975.03 0.0159610
1983.36 0.0153529
1991.68 0.0178036
2000.00 0.0257033
2003.09 0.0315996
2006.17 0.0408254
2009.26 0.0561893
2012.34 0.0843000
2013.89 0.107968
2015.43 0.144010
2016.97 0.202776
2018.51 0.308130
2019.29 0.395513
2020.06 0.526526
2020.44 0.618283
2020.83 0.736469
2021.22 0.892269
2021.41 0.989457
2021.60 1.10282
2021.79 1.23763
2021.99 1.39876
2022.18 1.59351
2022.37 1.83187
2022.57 2.12781
2022.76 2.50136
2022.95 2.98198
2023.14 3.61060
2023.34 4.46379
2023.53 5.65410
2023.72 7.38100
2023.91 9.99392
2024.11 14.2384
2024.30 21.6436
2024.40 27.5356
2024.49 35.7456
2024.59 47.4593
2024.69 64.0923
2024.84 102.759
2025.00 128.967
2025.16 103.678
2025.32 65.0117
2025.49 38.4549
2025.66 24.2790
2025.83 16.4119
2026.00 11.7540
2026.17 8.77888
2026.34 6.79865
2026.68 4.40142
2027.02 3.07327
2027.36 2.26441
2028.04 1.37355
2028.73 0.920247
2029.41 0.659657
2030.09 0.496094
2030.77 0.386788
2032.14 0.254320
2033.50 0.180294
2034.87 0.134759
2036.23 0.104776
2038.96 0.0690038
2041.69 0.0493306
2044.42 0.0373942
2047.14 0.0296604
2052.60 0.0207952
2058.06 0.0168448
2060.79 0.0165914
2063.52 0.0191765
2064.88 0.0239644
2066.24 0.0384730
2066.93 0.0589636
2067.61 0.116927
2067.95 0.196587
2068.12 0.275585
2068.29 0.417202
2068.46 0.715037
2068.55 1.00230
2068.63 1.50881
2068.72 2.54768
2068.76 3.52525
2068.80 5.14301
2068.85 8.28616
2068.87 10.9697
2068.89 15.1714
2068.91 22.6975
2068.93 36.2503
2068.94 48.3767
2068.95 64.9033
2068.96 93.0845
2068.97 134.821
2068.99 214.628
2069.00 270.001
2069.01 214.631
2069.03 134.823
2069.04 99.7878
2069.05 73.6674
2069.06 43.3868
2069.08 28.0290
2069.10 19.8023
2069.12 14.4395
2069.13 11.1289
2069.17 7.08779
2069.20 4.89823
2069.24 3.58411
2069.31 2.15592
2069.38 1.43882
2069.45 1.02899
2069.59 0.602786
2069.73 0.397266
2069.87 0.282740
2070.15 0.166267
2070.71 0.0808426
2071.27 0.0503951
2072.39 0.0282977
2073.51 0.0204633
2077.99 0.0130988
2082.48 0.0128019
2086.96 0.0150937
2091.44 0.0216191
2093.69 0.0285691
2095.93 0.0415351
2097.05 0.0525874
2098.17 0.0695752
2099.29 0.0975839
2100.41 0.148540
2100.97 0.191443
2101.53 0.256650
2102.09 0.363222
2102.65 0.554349
2102.93 0.713537
2103.21 0.952148
2103.49 1.33473
2103.63 1.61910
2103.77 2.00512
2103.91 2.54752
2104.05 3.34329
2104.12 3.88829
2104.19 4.57756
2104.26 5.46646
2104.33 6.63942
2104.40 8.23012
2104.47 10.4598
2104.54 13.7145
2104.61 18.7124
2104.68 26.8954
2104.72 33.0495
2104.75 41.4276
2104.79 53.1239
2104.82 69.8619
2104.86 94.2624
2104.89 129.731
2104.95 207.807
2105.00 260.944
2105.05 209.707
2105.11 131.213
2105.17 76.6976
2105.23 48.0289
2105.29 32.2908
2105.35 23.1197
2105.41 17.2145
2105.47 13.3359
2105.59 8.61980
2105.70 6.01233
2105.82 4.42646
2106.06 2.68185
2106.30 1.79603
2106.54 1.28618
2106.78 0.966324
2107.01 0.752649
2107.49 0.493917
2107.97 0.349234
2108.44 0.260245
2108.92 0.201645
2109.87 0.131653
2110.82 0.0931140
2111.77 0.0696292
2112.73 0.0542631
2114.63 0.0360240
2116.54 0.0260202
2118.44 0.0199334
2120.34 0.0159483
2124.15 0.0112014
2127.96 0.00857281
2135.58 0.00587881
2143.20 0.00456935
2150.81 0.00382136
2166.05 0.00302957
2196.52 0.00244240
2226.99 0.00233468
2257.46 0.00253405
2287.92 0.00329139
2303.16 0.00430970
2310.78 0.00529297
2318.39 0.00704869
2326.01 0.0107323
2329.82 0.0143661
2333.63 0.0209625
2335.53 0.0265186
2337.44 0.0350083
2339.34 0.0489603
2341.25 0.0743492
2342.20 0.0957359
2343.15 0.128331
2344.10 0.181671
2345.05 0.278001
2345.53 0.358363
2346.01 0.479874
2346.48 0.676272
2346.96 1.02449
2347.20 1.30960
2347.43 1.73280
2347.67 2.39968
2347.79 2.88725
2347.91 3.53934
2348.03 4.43864
2348.15 5.72654
2348.27 7.66051
2348.39 10.7477
2348.45 13.0484
2348.51 16.0924
2348.57 20.3820
2348.62 26.4279
2348.68 35.6009
2348.74 49.6541
2348.80 72.8855
2348.86 110.548
2348.93 177.304
2349.00 224.411
2349.07 182.008
2349.14 114.227
2349.21 68.8439
2349.28 44.0218
2349.35 30.0071
2349.43 21.5734
2349.50 16.1814
2349.57 12.5529
2349.71 8.15409
2349.86 5.70545
2350.00 4.20961
2350.29 2.56143
2350.58 1.71779
2350.86 1.23263
2351.15 0.926614
2351.44 0.722633
2352.02 0.474504
2352.59 0.335902
2353.17 0.250596
2353.74 0.194407
2354.89 0.127326
2356.04 0.0904395
2357.19 0.0680339
2358.34 0.0534510
2360.64 0.0363661
2362.94 0.0273163
2365.24 0.0222008
2367.54 0.0193658
2372.14 0.0183286
2374.45 0.0203449
2376.75 0.0254940
2379.05 0.0379691
2380.20 0.0509035
2381.35 0.0748787
2382.50 0.126614
2383.07 0.178224
2383.65 0.272236
2384.22 0.471704
2384.51 0.668722
2384.80 1.02183
2384.94 1.31608
2385.09 1.75938
2385.23 2.47218
2385.37 3.71454
2385.44 4.72825
2385.52 6.22031
2385.59 8.54465
2385.66 12.4515
2385.73 19.7585
2385.77 26.0446
2385.80 35.7936
2385.84 51.9788
2385.88 81.3136
2385.89 105.402
2385.91 140.513
2385.93 192.829
2385.95 269.086
2385.97 431.373
2386.00 537.856
2386.03 431.368
2386.05 269.084
2386.07 200.057
2386.08 150.384
2386.12 92.2720
2386.15 60.5009
2386.18 42.7951
2386.21 31.4528
2386.24 24.2241
2386.30 15.4856
2386.37 10.7242
2386.43 7.85616
2386.56 4.74603
2386.68 3.16369
2386.81 2.26404
2386.93 1.69658
2387.06 1.32129
2387.31 0.865649
2387.56 0.611382
2387.81 0.455212
2388.06 0.352477
2388.56 0.229817
2389.07 0.162430
2390.07 0.0945648
2391.08 0.0627342
2392.08 0.0453108
2394.09 0.0278143
2398.10 0.0151107
2402.12 0.0105756
2410.16 0.00731524
2418.19 0.00627202
2434.26 0.00602799
2450.33 0.00696598
2466.40 0.00934320
2474.43 0.0116349
2482.46 0.0156089
2490.50 0.0235890
2494.52 0.0311655
2498.53 0.0444823
2502.55 0.0717566
2504.56 0.0980110
2505.56 0.117618
2506.57 0.144428
2507.57 0.182576
2508.07 0.207995
2508.58 0.239475
2509.08 0.279127
2509.58 0.330073
2510.08 0.397074
2510.58 0.487699
2511.09 0.614852
2511.59 0.800325
2512.09 1.08664
2512.59 1.56210
2512.84 1.92699
2513.10 2.43606
2513.35 3.17489
2513.60 4.30103
2513.85 6.12677
2514.10 9.32556
2514.23 11.8804
2514.35 15.4699
2514.48 20.6881
2514.60 28.1493
2515.00 58.4596
2515.20 48.1387
2515.40 30.3307
2515.62 17.5823
2515.85 10.9275
2516.07 7.30955
2516.30 5.19058
2516.52 3.86212
2516.74 2.98113
2517.19 1.93090
2517.64 1.35390
2518.09 1.00646
2518.98 0.628403
2519.88 0.441329
2520.77 0.339181
2522.56 0.251881
2524.35 0.255728
2525.25 0.296172
2526.14 0.385363
2527.04 0.583311
2527.49 0.774658
2527.93 1.10323
2528.38 1.73553
2528.61 2.29284
2528.83 3.17290
2529.05 4.68799
2529.28 7.57310
2529.39 10.0648
2529.50 13.8787
2529.61 19.9248
2529.72 29.4744
2529.86 47.1672
2530.00 58.8329
2530.14 47.0221
2530.28 29.4664
2530.39 19.5830
2530.51 13.4992
2530.63 9.71420
2530.74 7.28406
2530.97 4.47831
2531.20 3.01545
2531.43 2.16311
2531.67 1.62991
2532.13 1.02423
2532.59 0.706496
2533.05 0.520196
2533.98 0.320963
2534.90 0.221892
2535.83 0.165435
2537.67 0.106354
2539.52 0.0774571
2541.37 0.0611579
2545.07 0.0445834
2548.77 0.0373201
2552.47 0.0343878
2559.86 0.0361637
2567.26 0.0487670
2570.96 0.0628474
2574.66 0.0888851
2576.51 0.110742
2577.43 0.125462
2578.36 0.143792
2579.28 0.167063
2580.21 0.197146
2581.13 0.237072
2582.06 0.291513
2582.98 0.368640
2583.90 0.482744
2584.83 0.662251
2585.29 0.793028
2585.75 0.967535
2586.22 1.20814
2586.68 1.55094
2587.14 2.06349
2587.60 2.87703
2588.07 4.27836
2588.30 5.38204
2588.53 6.95352
2588.76 9.27777
2588.99 12.8632
2589.22 18.6225
2589.45 28.0339
2590.00 58.7552
2590.14 56.5155
2590.28 48.7907
2590.55 30.7986
2590.81 19.4173
2591.07 12.8134
2591.32 8.92228
2591.58 6.51856
2591.84 4.94261
2592.10 3.86639
2592.61 2.54441
2593.13 1.79644
2593.64 1.33615
2594.67 0.822952
2595.70 0.559566
2596.74 0.407068
2597.77 0.311104
2598.80 0.246936
2600.86 0.169397
2602.92 0.126442
2607.05 0.0840197
2611.17 0.0660264
2615.29 0.0586837
2619.42 0.0574647
2621.48 0.0586468
2623.54 0.0609713
2625.60 0.0645071
2626.63 0.0667725
2627.66 0.0694046
2628.70 0.0724381
2629.73 0.0759161
2630.76 0.0798912
2631.79 0.0844276
2632.82 0.0896034
2633.85 0.0955143
2634.88 0.102277
2635.91 0.110036
2637.97 0.129301
2640.04 0.155344
2642.10 0.191522
2644.16 0.243515
2646.22 0.321656
2648.28 0.446184
2650.35 0.660810
2651.38 0.830470
2652.41 1.07235
2653.44 1.43046
2654.47 1.98302
2655.50 2.86904
2656.53 4.30504
2657.77 6.89604
2659.00 8.70959
2660.24 7.05141
2661.47 4.42486
2662.33 3.13658
2663.20 2.27617
2664.06 1.70147
2664.92 1.30971
2666.65 0.835053
2668.38 0.574835
2670.10 0.418619
2671.83 0.318226
2675.28 0.201785
2678.74 0.139651
2682.19 0.102742
2689.10 0.0629905
2696.00 0.0432143
2702.91 0.0320228
2716.72 0.0206965
2730.53 0.0159054
2744.35 0.0148487
2751.25 0.0161430
2758.16 0.0203516
2761.61 0.0250747
2765.07 0.0342094
2766.79 0.0423240
2768.52 0.0557368
2769.38 0.0666705
2770.25 0.0851147
2771.11 0.139703
2771.33 0.184184
2771.54 0.298038
2771.65 0.444006
2771.76 0.818548
2771.81 1.27957
2771.87 2.36767
2771.89 3.56605
2771.92 5.98586
2771.93 8.31545
2771.95 11.8455
2771.96 17.8273
2771.97 28.9685
2771.99 45.8488
2772.00 57.9092
2772.01 45.8439
2772.03 28.9657
2772.04 17.8272
2772.05 11.8473
2772.07 8.31850
2772.08 6.12253
2772.11 3.63301
2772.13 2.44102
2772.19 1.32764
2772.24 0.862221
2772.34 0.479849
2772.45 0.333760
2772.66 0.226849
2772.87 0.193274
2773.71 0.195136
2774.55 0.258311
2775.39 0.381789
2775.82 0.484681
2776.24 0.638190
2776.45 0.745022
2776.66 0.880944
2776.87 1.05931
2777.08 1.29711
2777.18 1.44893
2777.29 1.62726
2777.50 2.09886
2777.71 2.81251
2777.82 3.31012
2777.92 3.95050
2778.03 4.80190
2778.13 5.94110
2778.24 7.52434
2778.34 9.80306
2778.45 13.2191
2778.55 18.5784
2778.66 27.3611
2778.76 41.9827
2778.88 67.3579
2779.00 84.5878
2779.12 68.0375
2779.24 42.6896
2779.34 28.7955
2779.43 20.1378
2779.53 14.6389
2779.62 11.0273
2779.81 6.80702
2780.00 4.59348
2780.19 3.29209
2780.38 2.47450
2780.76 1.53978
2781.14 1.04931
2781.53 0.761030
2781.91 0.577532
2782.29 0.453902
2783.05 0.302105
2783.81 0.216305
2784.57 0.163139
2785.33 0.127974
2786.86 0.0857049
2788.38 0.0622799
2789.90 0.0479467
2791.43 0.0385410
2794.47 0.0273499
2797.52 0.0212028
2803.61 0.0150519
2809.71 0.0122390
2815.80 0.0108018
2827.99 0.00979454
2840.17 0.0103526
2852.36 0.0134121
2858.46 0.0178342
2861.50 0.0222177
2864.55 0.0301459
2867.60 0.0468696
2869.12 0.0632913
2870.64 0.0927770
2871.40 0.117268
2872.17 0.154136
2872.55 0.179998
2872.93 0.213386
2873.31 0.257531
2873.69 0.317409
2874.07 0.401978
2874.26 0.458035
2874.45 0.526532
2874.64 0.612396
2874.83 0.720755
2875.02 0.860928
2875.21 1.04660
2875.40 1.30117
2875.59 1.65869
2875.78 2.18840
2875.97 3.00817
2876.16 4.38333
2876.26 5.43179
2876.35 6.88284
2876.45 8.95168
2876.54 11.9938
2876.64 16.5852
2876.73 23.5452
2877.00 48.5843
2877.13 39.7888
2877.27 24.9928
2877.36 17.7483
2877.45 12.9279
2877.54 9.66246
2877.63 7.45198
2877.82 4.75120
2878.00 3.26679
2878.18 2.37529
2878.36 1.80174
2878.73 1.13662
2879.10 0.781864
2879.46 0.571191
2880.19 0.344751
2880.93 0.232040
2881.66 0.168266
2882.39 0.128793
2883.12 0.102952
2884.58 0.0733273
2886.05 0.0618806
2886.78 0.0644484
2887.51 0.0837205
2887.88 0.114749
2888.24 0.204697
2888.42 0.327682
2888.61 0.660946
2888.70 1.09839
2888.79 2.20141
2888.84 3.54998
2888.86 4.74533
2888.88 6.55229
2888.90 9.78549
2888.93 16.0169
2888.94 21.7601
2888.95 29.9123
2888.96 42.7693
2888.97 64.4073
2888.99 102.364
2889.00 128.959
2889.01 102.364
2889.03 64.4072
2889.04 44.2663
2889.05 30.8498
2889.06 22.3638
2889.07 17.2294
2889.09 10.5806
2889.11 7.22267
2889.14 5.15562
2889.16 3.90773
2889.20 2.44164
2889.29 1.21795
2889.37 0.734134
2889.54 0.359881
2889.71 0.220822
2890.06 0.116099
2890.40 0.0778202
2891.77 0.0376615
2893.15 0.0282393
2894.52 0.0239174
2897.27 0.0195820
2900.01 0.0173622
2911.00 0.0145757
2932.97 0.0168525
2943.96 0.0201964
2954.94 0.0261660
2960.43 0.0315497
2963.18 0.0357810
2965.93 0.0423601
2968.67 0.0545964
2970.05 0.0658712
2971.42 0.0855846
2972.79 0.126296
2973.48 0.166052
2974.16 0.237335
2974.51 0.296849
2974.85 0.386540
2975.19 0.531499
2975.54 0.788759
2975.71 1.00046
2975.88 1.31565
2976.05 1.81453
2976.22 2.66599
2976.40 4.32284
2976.48 5.80309
2976.57 8.15691
2976.65 12.3334
2976.74 20.6183
2976.78 28.1037
2976.83 40.1251
2976.87 60.5146
2976.91 95.3394
2977.00 202.993
2977.02 196.204
2977.05 170.399
2977.09 107.757
2977.13 71.4941
2977.17 48.6641
2977.20 34.6254
2977.24 25.6554
2977.32 15.5149
2977.39 10.3163
2977.47 7.33337
2977.55 5.47423
2977.70 3.38274
2977.85 2.29885
2978.00 1.66700
2978.15 1.26718
2978.31 0.998443
2978.61 0.671091
2978.91 0.487054
2979.22 0.373535
2979.52 0.298898
2980.13 0.209559
2980.74 0.160632
2981.95 0.112078
2983.17 0.0903170
2984.38 0.0793734
2985.60 0.0736540
2986.81 0.0708142
2989.24 0.0698245
2991.67 0.0723631
2994.10 0.0771554
2996.53 0.0838127
3001.39 0.102926
3006.25 0.132250
3011.11 0.178633
3013.54 0.214442
3014.76 0.246535
3015.37 0.303982
3015.67 0.477701
3015.75 0.636216
3015.82 1.03095
3015.86 1.49689
3015.90 2.53088
3015.92 3.58885
3015.94 5.53791
3015.96 9.57494
3015.96 13.0026
3015.97 18.6621
3015.99 29.7924
3016.00 37.0602
3016.01 29.7916
3016.03 18.6622
3016.04 10.2234
3016.06 6.15185
3016.08 4.07626
3016.09 2.91017
3016.13 1.73711
3016.16 1.20700
3016.23 0.738261
3016.30 0.547917
3016.56 0.344749
3017.10 0.298353
3018.18 0.309599
3020.33 0.371964
3022.47 0.461268
3024.62 0.586732
3026.77 0.767893
3028.92 1.03778
3031.07 1.45140
3033.22 2.08765
3036.11 3.34217
3039.00 4.20747
3041.89 3.39286
3044.78 2.12586
3046.88 1.48755
3048.98 1.06808
3051.08 0.792361
3053.18 0.606398
3057.38 0.384030
3061.58 0.263648
3065.78 0.192109
3069.98 0.146521
3078.38 0.0943919
3086.78 0.0674307
3095.18 0.0524468
3103.58 0.0445380
3107.78 0.0437972
3109.88 0.0492680
3110.93 0.0731797
3111.45 0.164538
3111.58 0.253810
3111.71 0.490014
3111.78 0.792870
3111.84 1.52483
3111.88 2.38248
3111.91 4.23830
3111.93 6.15330
3111.94 9.35149
3111.96 15.4652
3111.97 20.5934
3111.97 28.0154
3111.99 44.6925
3112.00 55.9091
3112.01 44.6926
3112.03 28.0156
3112.04 18.4495
3112.05 12.6672
3112.07 6.78524
3112.09 4.07266
3112.12 2.74502
3112.16 1.47112
3112.20 0.929284
3112.29 0.471945
3112.38 0.295501
3112.74 0.108942
3113.46 0.0580727
3114.89 0.0448226
3117.75 0.0418587
3123.46 0.0439792
3129.18 0.0510329
3134.90 0.0661987
3140.62 0.100109
3143.48 0.133529
3146.34 0.192462
3147.77 0.240218
3148.49 0.271680
3149.20 0.310207
3149.92 0.358053
3150.28 0.386472
3150.63 0.418448
3150.99 0.454805
3151.35 0.496131
3151.70 0.543497
3152.06 0.598124
3152.42 0.661747
3152.78 0.735981
3153.13 0.823803
3153.49 0.928053
3154.21 1.20614
3154.92 1.62833
3155.28 1.92580
3155.64 2.30818
3155.99 2.81185
3156.35 3.48510
3156.71 4.40919
3157.07 5.69460
3157.42 7.50712
3157.78 10.0368
3158.39 15.9360
3159.00 19.3154
3159.61 14.9871
3160.22 9.29458
3160.90 5.44624
3161.58 3.42917
3162.26 2.31808
3162.94 1.65926
3163.62 1.24200
3164.30 0.962972
3165.66 0.626825
3167.02 0.440470
3168.38 0.327032
3171.10 0.201974
3173.82 0.138460
3176.54 0.102350
3179.25 0.0830255
3180.61 0.0896943
3181.29 0.144056
3181.46 0.200676
3181.63 0.354570
3181.72 0.554742
3181.80 1.06315
3181.85 1.68467
3181.89 3.06231
3181.91 4.49606
3181.93 7.19167
3181.95 12.9640
3181.96 18.7094
3181.97 26.8857
3181.99 43.5830
3182.00 53.6485
3182.01 42.3123
3182.03 26.8836
3182.04 15.2384
3182.06 9.35747
3182.08 6.22165
3182.09 4.40610
3182.12 2.53011
3182.15 1.66289
3182.22 0.872462
3182.28 0.552117
3182.41 0.294426
3182.53 0.196645
3183.04 0.0936994
3184.05 0.0628616
3186.08 0.0492673
3190.13 0.0378035
3198.22 0.0260162
3206.32 0.0197708
3214.42 0.0160232
3230.61 0.0120305
3246.81 0.0103975
3263.00 0.0104484
3271.10 0.0113584
3279.20 0.0134696
3287.30 0.0184022
3291.34 0.0234257
3295.39 0.0326094
3299.44 0.0520807
3301.47 0.0712254
3303.49 0.105535
3304.50 0.133979
3305.52 0.176641
3306.53 0.244915
3307.54 0.364239
3308.05 0.460542
3308.30 0.523920
3308.55 0.601495
3308.80 0.697821
3309.06 0.819421
3309.31 0.975896
3309.56 1.18182
3309.82 1.46017
3310.07 1.84867
3310.32 2.41263
3310.58 3.27210
3310.83 4.66422
3310.96 5.70489
3311.08 7.09684
3311.21 9.03196
3311.33 11.7371
3311.46 15.6361
3311.59 21.1329
3311.79 33.7742
3312.00 41.9087
3312.21 33.3037
3312.41 20.8148
3312.61 13.0975
3312.81 8.67679
3313.00 6.06649
3313.20 4.44253
3313.59 2.64598
3313.98 1.74620
3314.38 1.23471
3314.77 0.919187
3315.55 0.566160
3316.34 0.384444
3317.12 0.279080
3317.91 0.212807
3318.69 0.168708
3320.26 0.116556
3321.83 0.0925491
3322.62 0.0911895
3323.40 0.108457
3323.80 0.140209
3324.19 0.234905
3324.38 0.365532
3324.58 0.720574
3324.68 1.18344
3324.78 2.36472
3324.82 3.79481
3324.85 5.09110
3324.87 7.07648
3324.90 10.6635
3324.92 17.3144
3324.94 23.6889
3324.95 32.9385
3324.96 47.8326
3324.97 73.4241
3324.99 118.379
3325.00 147.018
3325.01 118.379
3325.03 73.4244
3325.04 51.1128
3325.05 37.1176
3325.06 27.0389
3325.07 20.8939
3325.09 13.1413
3325.11 8.96156
3325.13 6.48253
3325.15 4.90130
3325.20 3.08239
3325.28 1.55022
3325.36 0.939940
3325.53 0.465443
3325.70 0.288360
3326.04 0.154404
3326.37 0.105113
3327.04 0.0673141
3327.71 0.0523302
3329.05 0.0391028
3330.40 0.0325877
3333.08 0.0254902
3335.76 0.0214939
3341.13 0.0172364
3346.50 0.0153259
3357.24 0.0149729
3362.60 0.0171814
3365.29 0.0238604
3366.63 0.0480609
3367.30 0.139116
3367.47 0.228985
3367.64 0.470068
3367.72 0.781332
3367.81 1.56627
3367.85 2.50277
3367.89 4.60699
3367.91 6.78883
3367.93 10.8691
3367.94 14.5267
3367.95 19.5122
3367.96 27.0471
3367.97 38.5831
3367.99 61.5680
3368.00 77.0079
3368.01 61.5632
3368.03 38.4417
3368.04 23.6467
3368.06 15.8181
3368.07 11.1436
3368.08 8.20816
3368.11 4.84932
3368.13 3.22647
3368.19 1.69892
3368.24 1.04677
3368.35 0.515718
3368.45 0.311169
3368.66 0.153249
3368.87 0.0953867
3369.72 0.0373427
3371.41 0.0228305
3374.80 0.0205473
3381.56 0.0242350
3388.33 0.0319567
3395.10 0.0462580
3398.48 0.0581394
3401.87 0.0759053
3405.25 0.104096
3406.10 0.113731
3406.94 0.124817
3407.79 0.137661
3408.64 0.152651
3409.48 0.170289
3410.33 0.191233
3411.17 0.216356
3412.02 0.246837
3412.87 0.284299
3413.71 0.331020
3414.56 0.390276
3415.40 0.466904
3416.25 0.568262
3417.10 0.705944
3417.94 0.898943
3418.79 1.17977
3419.63 1.60677
3420.48 2.28922
3421.33 3.43443
3422.17 5.38786
3423.09 8.59193
3424.00 10.6225
3424.92 8.41079
3425.83 5.24516
3426.41 3.83934
3426.99 2.86571
3428.15 1.71761
3429.31 1.12290
3430.46 0.785481
3431.62 0.578004
3432.78 0.442439
3435.10 0.282571
3437.42 0.195948
3439.73 0.143960
3444.37 0.0874685
3449.00 0.0591177
3453.63 0.0429324
3458.27 0.0328502
3462.90 0.0261668
3472.17 0.0182092
3481.44 0.0139988
3490.71 0.0120100
3495.34 0.0127592
3497.66 0.0181489
3498.82 0.0399179
3499.39 0.122655
3499.54 0.204011
3499.68 0.420773
3499.76 0.700887
3499.83 1.38775
3499.87 2.18858
3499.90 3.93247
3499.92 5.67762
3499.94 8.80996
3499.96 15.0404
3499.96 20.4738
3499.97 28.6907
3499.99 46.3972
3500.00 57.2743
3500.01 46.3947
3500.03 28.6888
3500.04 19.7577
3500.05 14.0957
3500.07 7.93136
3500.09 4.88549
3500.11 3.34246
3500.15 1.81078
3500.19 1.14287
3500.27 0.566915
3500.35 0.341601
3500.52 0.165638
3500.68 0.100093
3501.33 0.0337582
3502.63 0.0163668
3505.24 0.0119588
3510.45 0.0113364
3515.67 0.0124772
3520.88 0.0153924
3526.09 0.0223138
3528.70 0.0294183
3531.30 0.0424780
3532.61 0.0535032
3533.91 0.0702978
3535.21 0.0976984
3536.52 0.146881
3537.17 0.187666
3537.82 0.248799
3538.47 0.346772
3539.12 0.517642
3539.45 0.655649
3539.77 0.857543
3539.94 0.995448
3540.10 1.16946
3540.26 1.39324
3540.42 1.68546
3540.59 2.08210
3540.75 2.63491
3540.91 3.43580
3541.08 4.65299
3541.24 6.61661
3541.32 8.08225
3541.40 10.0267
3541.48 12.7288
3541.57 16.4660
3541.65 21.7553
3541.73 29.1827
3541.86 46.5925
3542.00 57.3541
3542.14 45.1921
3542.27 28.1927
3542.41 17.1703
3542.55 11.1221
3542.69 7.63764
3542.83 5.53394
3542.97 4.16782
3543.11 3.24927
3543.39 2.12331
3543.67 1.49219
3543.95 1.10480
3544.50 0.675476
3545.06 0.455221
3545.62 0.327820
3546.18 0.247618
3546.74 0.193984
3547.85 0.128735
3548.97 0.0921826
3550.08 0.0696386
3551.20 0.0547891
3553.43 0.0370472
3555.66 0.0272834
3560.12 0.0175932
3564.58 0.0135019
3569.04 0.0126987
3571.27 0.0143407
3573.51 0.0208327
3574.62 0.0305528
3575.74 0.0585728
3576.29 0.0975189
3576.85 0.206239
3577.13 0.354274
3577.41 0.758347
3577.55 1.29441
3577.62 1.80711
3577.69 2.68155
3577.76 4.42003
3577.79 5.99802
3577.83 8.49252
3577.86 13.0774
3577.88 16.9929
3577.90 22.4914
3577.92 31.6286
3577.93 45.9916
3577.95 71.1111
3577.97 119.449
3577.98 189.260
3578.00 238.875
3578.02 189.262
3578.03 119.451
3578.05 84.2085
3578.06 60.5236
3578.07 44.9182
3578.08 34.3693
3578.11 21.7208
3578.13 14.8481
3578.15 10.7502
3578.18 8.12655
3578.23 5.09761
3578.27 3.48859
3578.32 2.53533
3578.42 1.51877
3578.51 1.00703
3578.61 0.719251
3578.80 0.419436
3579.18 0.195198
3579.56 0.114215
3580.33 0.0549147
3581.09 0.0337512
3584.15 0.0127420
3587.21 0.00854398
3590.27 0.00691065
3596.39 0.00552615
3602.50 0.00491353
3614.74 0.00452883
3620.86 0.00517143
3623.92 0.00815948
3625.45 0.0199790
3626.21 0.0655138
3626.59 0.233629
3626.69 0.395488
3626.78 0.807344
3626.83 1.31652
3626.88 2.50993
3626.90 3.81107
3626.93 6.40146
3626.95 12.5065
3626.96 18.8429
3626.97 28.7840
3626.99 45.8753
3627.00 57.4915
3627.01 45.8727
3627.03 28.7820
3627.04 18.8417
3627.05 12.5059
3627.07 6.55981
3627.10 3.88537
3627.12 2.59105
3627.17 1.36329
3627.21 0.837388
3627.31 0.408280
3627.40 0.242888
3627.77 0.0680920
3628.52 0.0206875
3630.02 0.00835303
3633.01 0.00525814
3639.00 0.00476758
3644.99 0.00622295
3647.98 0.0123328
3649.48 0.0362127
3650.22 0.127566
3650.41 0.218138
3650.60 0.462340
3650.69 0.782155
3650.79 1.58783
3650.83 2.57203
3650.88 4.83964
3650.90 7.33230
3650.93 11.9687
3650.94 16.2279
3650.95 22.2630
3650.96 32.8933
3650.97 50.2494
3650.99 79.4295
3651.00 100.454
3651.01 79.4289
3651.03 50.2491
3651.04 28.7273
3651.06 18.1253
3651.07 12.2586
3651.09 8.77053
3651.12 5.07620
3651.15 3.28883
3651.21 1.67862
3651.27 1.02171
3651.39 0.490892
3651.51 0.288290
3651.75 0.135261
3651.99 0.0794812
3652.96 0.0236334
3654.89 0.00922927
3658.76 0.00567828
3666.49 0.00511656
3681.96 0.00648629
3689.69 0.00841785
3693.55 0.0102302
3697.42 0.0134002
3701.29 0.0199311
3703.22 0.0263060
3705.15 0.0378036
3706.12 0.0474416
3707.08 0.0621034
3708.05 0.0861124
3709.02 0.129479
3709.50 0.165817
3709.98 0.220807
3710.47 0.310021
3710.95 0.469122
3711.43 0.796873
3711.68 1.10927
3711.92 1.64750
3712.04 2.07919
3712.16 2.70534
3712.28 3.66166
3712.40 5.20794
3712.46 6.39354
3712.52 7.99470
3712.58 10.3092
3712.64 13.6825
3712.70 19.0308
3712.76 27.7329
3712.79 34.2504
3712.82 42.9975
3712.85 54.8248
3712.88 70.8167
3712.94 113.844
3713.00 143.002
3713.06 115.582
3713.12 72.1747
3713.16 50.5696
3713.20 36.3919
3713.24 26.8539
3713.29 20.5762
3713.37 12.9672
3713.46 8.84779
3713.54 6.39784
3713.63 4.83224
3713.80 3.03559
3713.97 2.07577
3714.14 1.50815
3714.31 1.14532
3714.47 0.900800
3714.81 0.598559
3715.15 0.427684
3715.49 0.321531
3715.83 0.251140
3716.51 0.166515
3717.19 0.119749
3717.87 0.0912432
3718.55 0.0727563
3719.90 0.0515098
3721.26 0.0421187
3722.62 0.0487252
3723.30 0.0988080
3723.64 0.289863
3723.72 0.472027
3723.81 0.936592
3723.85 1.50773
3723.89 2.78398
3723.91 4.12502
3723.93 6.67631
3723.95 12.2490
3723.96 17.9166
3723.97 26.2399
3723.99 41.8623
3724.00 52.3676
3724.01 41.8622
3724.03 26.2398
3724.04 14.4808
3724.06 8.50598
3724.08 5.48806
3724.09 3.88104
3724.13 2.18694
3724.16 1.39948
3724.23 0.711949
3724.29 0.437787
3724.56 0.138160
3725.09 0.0532282
3726.15 0.0293274
3728.27 0.0215483
3732.51 0.0190070
3736.76 0.0201031
3741.00 0.0235297
3745.24 0.0299600
3749.49 0.0417567
3753.73 0.0660696
3755.85 0.0925913
3756.91 0.130243
3757.44 0.226001
3757.71 0.539673
3757.78 0.829081
3757.84 1.52823
3757.87 2.33137
3757.91 4.04792
3757.92 5.79738
3757.94 8.68489
3757.96 14.6146
3757.97 19.3606
3757.97 27.0421
3757.99 43.2656
3758.00 53.9723
3758.01 43.2660
3758.03 27.0432
3758.04 18.6711
3758.05 13.2327
3758.07 7.40171
3758.09 4.66153
3758.11 3.19873
3758.15 1.78922
3758.19 1.17342
3758.27 0.641679
3758.34 0.434346
3758.66 0.217272
3759.30 0.172815
3759.93 0.181945
3760.57 0.203671
3761.21 0.234187
3761.84 0.274496
3762.48 0.327670
3762.80 0.360622
3763.11 0.398873
3763.43 0.443873
3763.75 0.497091
3764.39 0.637212
3765.02 0.846301
3765.34 0.991467
3765.66 1.17695
3765.98 1.41875
3766.29 1.74135
3766.61 2.18349
3766.93 2.80860
3767.25 3.72411
3767.57 5.11670
3767.88 7.30791
3768.20 10.7686
3768.60 17.2468
3769.00 21.6831
3769.40 17.4561
3769.80 10.9313
3770.19 6.78043
3770.59 4.43141
3770.98 3.06778
3771.37 2.23213
3771.76 1.68831
3772.16 1.31837
3772.94 0.865339
3773.73 0.610017
3774.51 0.453091
3776.08 0.278455
3777.66 0.188922
3779.23 0.137100
3780.80 0.104485
3782.37 0.0826755
3785.51 0.0562641
3788.65 0.0415840
3794.93 0.0269357
3801.22 0.0205127
3807.50 0.0176180
3820.07 0.0171844
3832.63 0.0229251
3838.92 0.0297954
3845.20 0.0426151
3848.34 0.0533313
3851.48 0.0693968
3854.62 0.0949532
3856.19 0.113764
3856.98 0.125422
3857.37 0.131967
3857.76 0.139034
3858.55 0.155078
3859.34 0.174113
3860.12 0.196988
3860.91 0.224721
3861.69 0.258869
3862.48 0.301433
3863.26 0.355452
3864.05 0.425361
3864.83 0.518058
3865.62 0.643993
3866.40 0.821080
3867.19 1.07905
3867.98 1.47314
3868.76 2.10515
3869.55 3.17277
3870.33 5.01394
3871.17 8.00881
3872.00 9.96103
3872.84 7.93216
3873.67 4.95321
3874.37 3.28336
3875.08 2.25890
3875.78 1.62286
3876.48 1.21216
3877.89 0.741917
3879.29 0.497607
3880.70 0.355917
3882.11 0.266977
3884.92 0.166238
3887.73 0.113648
3890.54 0.0828683
3893.35 0.0633384
3896.16 0.0501948
3901.78 0.0342010
3907.41 0.0252925
3913.03 0.0199340
3918.65 0.0166077
3929.90 0.0136683
3935.52 0.0138170
3941.14 0.0155835
3946.77 0.0208061
3949.58 0.0264623
3952.39 0.0370256
3953.79 0.0459813
3955.20 0.0596387
3956.61 0.0818798
3958.01 0.121575
3958.71 0.154291
3959.42 0.203109
3960.12 0.280560
3960.47 0.337445
3960.82 0.413908
3961.17 0.520372
3961.35 0.589827
3961.52 0.673701
3961.70 0.777498
3961.88 0.907221
3962.05 1.07216
3962.23 1.28469
3962.40 1.56820
3962.58 1.95497
3962.76 2.50008
3962.93 3.29328
3963.11 4.51578
3963.28 6.47868
3963.46 9.83928
3963.63 15.6462
3963.82 24.9496
3964.00 30.7832
3964.18 24.3122
3964.37 15.1476
3964.50 10.7364
3964.63 7.81655
3964.75 5.86285
3964.88 4.52433
3965.14 2.89067
3965.39 1.99366
3965.65 1.45128
3965.91 1.10291
3966.42 0.697469
3966.93 0.480079
3967.44 0.350918
3968.47 0.211401
3969.49 0.141808
3970.52 0.102187
3971.54 0.0775074
3972.57 0.0610994
3974.62 0.0413057
3976.67 0.0302728
3980.77 0.0190079
3984.87 0.0136346
3988.97 0.0106432
3997.17 0.00758392
4005.37 0.00614228
4013.57 0.00541727
4021.77 0.00533414
4025.87 0.00660235
4027.92 0.0120463
4028.95 0.0333089
4029.46 0.113526
4029.72 0.396956
4029.78 0.655813
4029.85 1.28548
4029.88 2.00405
4029.91 3.52390
4029.94 7.53758
4029.96 12.3087
4029.97 21.7685
4029.99 35.3593
4030.00 43.5687
4030.01 34.3248
4030.03 21.7676
4030.04 13.6244
4030.05 8.96866
4030.08 4.65893
4030.10 2.75108
4030.13 1.83002
4030.18 0.961701
4030.23 0.595865
4030.43 0.173119
4030.84 0.0497684
4031.65 0.0163178
4033.27 0.00762089
4036.51 0.00543270
4043.00 0.00515098
4049.49 0.00661181
4052.73 0.0125085
4054.35 0.0354902
4055.17 0.124137
4055.37 0.212997
4055.57 0.453766
4055.67 0.774576
4055.77 1.60198
4055.82 2.64086
4055.87 5.05345
4055.90 7.84612
4055.93 13.3370
4055.94 18.6528
4055.95 26.6785
4055.96 41.8244
4055.98 66.7589
4055.99 108.631
4056.00 133.747
4056.01 105.203
4056.03 66.7598
4056.04 43.4161
4056.05 29.4200
4056.06 20.8983
4056.07 15.8809
4056.09 9.55437
4056.11 6.44026
4056.15 3.42732
4056.20 2.11733
4056.28 1.03690
4056.37 0.617131
4056.54 0.290960
4056.71 0.169894
4057.39 0.0477297
4058.76 0.0158551
4061.50 0.00784026
4066.97 0.00620638
4072.45 0.00651685
4077.92 0.00759041
4083.40 0.00996596
4086.13 0.0122859
4088.87 0.0164420
4091.61 0.0251608
4092.98 0.0337334
4094.34 0.0491775
4095.03 0.0620853
4095.71 0.0816016
4096.40 0.113219
4097.08 0.169506
4097.76 0.284821
4098.11 0.394274
4098.28 0.474781
4098.45 0.583043
4098.62 0.733373
4098.79 0.950574
4098.88 1.09822
4098.96 1.28060
4099.05 1.51528
4099.13 1.81616
4099.22 2.22051
4099.30 2.76609
4099.39 3.54514
4099.47 4.67531
4099.56 6.43574
4099.65 9.26465
4099.73 14.1933
4099.82 22.8182
4099.90 36.6317
4099.99 46.2183
4100.08 37.2575
4100.16 23.3054
4100.25 14.0931
4100.34 9.08186
4100.43 6.22672
4100.52 4.49637
4100.61 3.38416
4100.70 2.63264
4100.88 1.71768
4101.06 1.20399
4101.23 0.891397
4101.59 0.545054
4101.95 0.367671
4102.30 0.265516
4102.66 0.201101
4103.02 0.158128
4103.73 0.105948
4104.44 0.0767625
4105.16 0.0588312
4105.87 0.0470656
4107.29 0.0330894
4108.72 0.0255076
4111.57 0.0182031
4114.42 0.0153208
4117.27 0.0147408
4120.12 0.0186914
4121.55 0.0361231
4122.26 0.103083
4122.62 0.347978
4122.71 0.579769
4122.80 1.16905
4122.84 1.89095
4122.88 3.50118
4122.91 5.29313
4122.93 8.60650
4122.95 15.9017
4122.96 22.9645
4122.97 34.8971
4122.99 56.2965
4123.00 69.7137
4123.01 56.2966
4123.03 34.8973
4123.04 23.7931
4123.05 16.9474
4123.07 9.27863
4123.09 5.73871
4123.11 3.93771
4123.15 2.14192
4123.19 1.34152
4123.27 0.664863
4123.36 0.400568
4123.52 0.194425
4123.69 0.117720
4124.35 0.0402746
4125.66 0.0201951
4128.30 0.0157487
4133.57 0.0170244
4138.85 0.0213941
4144.12 0.0297626
4149.40 0.0472940
4152.03 0.0642128
4154.67 0.0940119
4155.99 0.118311
4156.65 0.134409
4157.31 0.154239
4157.97 0.179095
4158.63 0.210727
4159.29 0.251902
4159.62 0.277355
4159.94 0.306875
4160.27 0.341594
4160.60 0.382674
4160.93 0.431758
4161.26 0.490851
4161.92 0.652861
4162.25 0.765977
4162.58 0.910593
4162.91 1.10055
4163.24 1.35466
4163.57 1.70656
4163.90 2.20724
4164.23 2.95200
4164.56 4.10039
4164.89 5.95409
4165.22 8.96758
4165.61 14.3978
4166.00 18.2308
4166.39 14.7808
4166.78 9.27806
4167.08 6.37507
4167.38 4.51286
4167.68 3.30760
4167.98 2.50958
4168.57 1.56813
4169.17 1.06646
4169.77 0.770379
4170.36 0.582509
4171.56 0.367730
4172.75 0.254658
4173.94 0.188296
4176.33 0.117943
4178.72 0.0839208
4181.10 0.0655023
4185.88 0.0490963
4190.65 0.0455810
4195.42 0.0503690
4200.20 0.0662218
4202.59 0.0873220
4203.78 0.129791
4204.38 0.264065
4204.52 0.391888
4204.67 0.728536
4204.75 1.15958
4204.82 2.20621
4204.86 3.45889
4204.90 6.11310
4204.92 8.83781
4204.93 13.4222
4204.95 22.9509
4204.96 30.7632
4204.97 43.2814
4204.99 69.4168
4205.00 86.5246
4205.01 69.4172
4205.03 43.2822
4205.04 25.2375
4205.06 16.1515
4205.07 11.0429
4205.09 7.97175
4205.12 4.61343
4205.15 3.04275
4205.21 1.61131
4205.27 1.02177
4205.39 0.540484
4205.51 0.358614
4205.76 0.221814
4206.00 0.173532
4206.97 0.135011
4208.92 0.155674
4209.89 0.177448
4210.86 0.206299
4211.35 0.223973
4211.83 0.244304
4212.32 0.267792
4212.80 0.295076
4213.29 0.326976
4213.78 0.364554
4214.26 0.409195
4214.75 0.462737
4215.23 0.527651
4215.72 0.607311
4216.21 0.706420
4216.69 0.831659
4217.18 0.992736
4217.66 1.20411
4218.15 1.48787
4218.64 1.87865
4219.12 2.43187
4219.61 3.23703
4220.09 4.43378
4220.58 6.20657
4221.29 9.88198
4222.00 12.2030
4222.71 9.66955
4223.42 6.03902
4224.07 3.87388
4224.72 2.60119
4225.37 1.83567
4226.02 1.35416
4227.32 0.815397
4228.62 0.541703
4229.91 0.385165
4231.21 0.287882
4233.81 0.178531
4236.41 0.121889
4239.00 0.0888626
4241.60 0.0679579
4244.20 0.0539082
4249.39 0.0368379
4254.59 0.0274002
4259.78 0.0222653
4262.38 0.0227737
4263.68 0.0317881
4264.32 0.0689523
4264.65 0.205567
4264.81 0.655959
4264.89 1.89677
4264.93 4.49151
4264.95 7.98994
4264.97 16.4541
4264.99 26.5633
4265.00 32.9118
4265.01 26.5627
4265.03 16.4536
4265.04 9.11273
4265.06 5.41489
4265.09 2.45350
4265.16 0.880165
4265.30 0.277317
4265.57 0.0888851
4266.11 0.0359808
4267.20 0.0215318
4269.37 0.0171134
4273.72 0.0151629
4282.42 0.0159850
4286.76 0.0199697
4288.94 0.0244499
4291.11 0.0329463
4293.29 0.0513981
4294.37 0.0697642
4295.46 0.102936
4296.00 0.130637
4296.55 0.172375
4297.09 0.239770
4297.63 0.358481
4298.18 0.598511
4298.45 0.822642
4298.72 1.20024
4298.86 1.49612
4298.99 1.91586
4299.13 2.53825
4299.20 2.96795
4299.26 3.50532
4299.33 4.21077
4299.40 5.14499
4299.47 6.41347
4299.53 8.18540
4299.60 10.7398
4299.67 14.5443
4299.74 20.3639
4299.81 29.1088
4299.90 46.5953
4299.99 57.5111
4300.08 45.3580
4300.18 28.2994
4300.25 19.3212
4300.32 13.6760
4300.39 10.0384
4300.46 7.61968
4300.60 4.76568
4300.74 3.23794
4300.89 2.33056
4301.03 1.75814
4301.31 1.10086
4301.60 0.752509
4301.88 0.547648
4302.17 0.416765
4302.45 0.328148
4303.02 0.219219
4303.59 0.157514
4304.16 0.119219
4304.73 0.0938687
4305.86 0.0633406
4307.00 0.0463986
4309.28 0.0291881
4311.55 0.0210540
4313.83 0.0165731
4318.38 0.0120773
4322.93 0.0100301
4327.48 0.00901267
4336.57 0.00843587
4345.67 0.00909660
4354.77 0.0111751
4363.87 0.0161821
4368.42 0.0219709
4370.70 0.0302995
4371.84 0.0518853
4372.40 0.127031
4372.69 0.391271
4372.76 0.634242
4372.83 1.23118
4372.87 1.93468
4372.90 3.40600
4372.94 7.56405
4372.96 12.8069
4372.97 23.2662
4372.99 37.0179
4373.00 46.4402
4373.01 37.0166
4373.03 23.2654
4373.04 16.1610
4373.05 11.6467
4373.07 6.48497
4373.09 4.05429
4373.11 2.80298
4373.15 1.54336
4373.19 0.977326
4373.27 0.499463
4373.36 0.308899
4373.68 0.105827
4374.34 0.0512017
4375.65 0.0403304
4378.28 0.0473685
4380.90 0.0640833
4383.53 0.0944514
4384.84 0.119241
4385.50 0.135616
4386.15 0.155722
4386.81 0.180770
4387.14 0.195667
4387.46 0.212511
4388.12 0.253532
4388.45 0.278686
4388.78 0.307798
4389.10 0.341848
4389.43 0.381747
4389.76 0.429044
4390.09 0.485662
4390.74 0.638097
4391.07 0.742305
4391.40 0.873710
4391.73 1.04232
4392.06 1.26300
4392.38 1.55831
4392.71 1.96347
4393.04 2.53449
4393.37 3.36108
4393.70 4.58222
4394.02 6.38092
4394.51 10.1911
4395.00 12.6640
4395.49 10.0750
4395.98 6.28968
4396.45 3.91439
4396.93 2.56924
4397.41 1.78339
4397.88 1.30010
4398.36 0.984936
4398.84 0.770469
4399.79 0.506556
4400.74 0.357641
4401.69 0.265831
4403.60 0.163589
4405.51 0.111034
4407.41 0.0805688
4409.32 0.0613676
4411.22 0.0485078
4415.03 0.0328974
4418.85 0.0241819
4426.47 0.0154193
4434.09 0.0115919
4441.71 0.0103170
4445.53 0.0108903
4449.34 0.0139652
4453.15 0.0327147
4454.10 0.0522200
4455.06 0.107209
4455.53 0.182819
4456.01 0.391694
4456.25 0.672130
4456.37 0.943742
4456.48 1.42282
4456.60 2.38920
4456.66 3.30035
4456.72 4.81569
4456.78 7.73020
4456.81 10.2780
4456.84 14.1260
4456.87 20.8215
4456.90 33.3326
4456.92 43.9268
4456.93 59.8260
4456.95 84.3805
4456.96 120.215
4456.98 191.663
4457.00 240.225
4457.02 191.668
4457.04 120.219
4457.06 80.4461
4457.07 56.0863
4457.09 40.6871
4457.10 30.6047
4457.14 18.8989
4457.17 12.7324
4457.20 9.04113
4457.23 6.79536
4457.30 4.23084
4457.36 2.86659
4457.43 2.07875
4457.55 1.23631
4457.68 0.817182
4457.81 0.580743
4458.07 0.338318
4458.58 0.157932
4459.10 0.0929822
4460.13 0.0455945
4461.16 0.0287441
4465.27 0.0123041
4473.51 0.00846850
4481.74 0.00888234
4485.85 0.0112783
4487.91 0.0194279
4488.94 0.0499730
4489.46 0.163842
4489.59 0.274432
4489.71 0.560876
4489.78 0.924987
4489.84 1.78792
4489.87 2.75463
4489.91 4.75097
4489.94 9.79847
4489.95 15.5101
4489.97 27.1342
4489.99 42.8871
4490.00 54.2939
4490.02 42.8852
4490.03 27.1328
4490.04 17.6001
4490.05 12.2130
4490.08 6.63398
4490.10 4.01703
4490.13 2.71377
4490.18 1.45197
4490.22 0.909092
4490.32 0.448526
4490.42 0.269598
4490.81 0.0796614
4491.59 0.0278429
4493.14 0.0146106
4496.26 0.0120241
4502.48 0.0137496
4508.71 0.0179972
4514.94 0.0260108
4518.05 0.0327399
4521.17 0.0428992
4524.28 0.0592494
4527.39 0.0879800
4528.95 0.111292
4529.73 0.126695
4530.51 0.145575
4531.29 0.169121
4532.06 0.198913
4532.84 0.237409
4533.23 0.261012
4533.62 0.288327
4534.01 0.320256
4534.40 0.357684
4534.79 0.402052
4535.18 0.455160
4535.96 0.598366
4536.34 0.696166
4536.73 0.819497
4537.12 0.978226
4537.51 1.18553
4537.90 1.46302
4538.29 1.84384
4538.68 2.38079
4539.07 3.15853
4539.46 4.30849
4539.85 6.00443
4540.42 9.59281
4541.00 11.9439
4541.58 9.52352
4542.15 5.94972
4542.61 4.05755
4543.06 2.85664
4543.51 2.08629
4543.96 1.57826
4544.86 0.982033
4545.76 0.665371
4546.66 0.478980
4547.56 0.360938
4549.36 0.225849
4551.16 0.154755
4552.96 0.112925
4554.76 0.0863224
4556.56 0.0684221
4560.17 0.0468359
4563.77 0.0356913
4565.57 0.0331560
4567.37 0.0345143
4569.17 0.0566190
4570.07 0.151031
4570.30 0.246162
4570.52 0.505596
4570.64 0.849339
4570.75 1.73335
4570.80 2.85091
4570.86 5.46280
4570.89 8.34387
4570.92 14.1709
4570.93 19.5397
4570.94 28.3271
4570.96 43.5796
4570.97 70.8358
4570.99 113.406
4571.00 141.821
4571.01 113.409
4571.03 70.8383
4571.04 51.5797
4571.05 39.5311
4571.06 23.9958
4571.08 15.8133
4571.10 11.3303
4571.13 6.48219
4571.16 4.17465
4571.23 2.14135
4571.29 1.30134
4571.43 0.629490
4571.56 0.376144
4571.82 0.184137
4572.09 0.114145
4573.15 0.0435486
4575.26 0.0242238
4577.38 0.0200178
4579.50 0.0186095
4583.74 0.0216699
4585.85 0.0382174
4586.91 0.100534
4587.18 0.162740
4587.44 0.332040
4587.58 0.558358
4587.71 1.14910
4587.77 1.89041
4587.84 3.68289
4587.87 5.71386
4587.91 9.96957
4587.92 14.2065
4587.94 21.0155
4587.96 34.4238
4587.97 59.5155
4587.99 96.1450
4588.00 119.020
4588.01 96.1398
4588.03 59.5116
4588.04 40.4549
4588.05 27.7999
4588.06 19.9392
4588.08 15.2160
4588.10 9.41709
4588.12 6.35603
4588.17 3.43216
4588.21 2.14063
4588.31 1.06342
4588.40 0.637861
4588.58 0.309167
4588.77 0.187053
4589.50 0.0646217
4590.97 0.0361080
4592.45 0.0366739
4593.92 0.0469954
4594.65 0.0569885
4595.39 0.0727060
4596.13 0.0986907
4596.86 0.145481
4597.23 0.184167
4597.60 0.242022
4597.97 0.334021
4598.33 0.493157
4598.52 0.620204
4598.70 0.804163
4598.89 1.08444
4598.98 1.28291
4599.07 1.54090
4599.16 1.88435
4599.25 2.35461
4599.35 3.02055
4599.44 4.00247
4599.53 5.52225
4599.62 8.01121
4599.67 9.86267
4599.71 12.3310
4599.76 15.6398
4599.81 20.0301
4599.90 32.0561
4599.99 39.4921
4600.08 31.0757
4600.18 19.3729
4600.27 11.6065
4600.37 7.44169
4600.47 5.06987
4600.57 3.65717
4600.66 2.74363
4600.76 2.13461
4600.95 1.39351
4601.15 0.977641
4601.34 0.724399
4601.73 0.443210
4602.12 0.299324
4602.51 0.216442
4602.90 0.164281
4603.29 0.129344
4604.07 0.0868653
4604.85 0.0630509
4605.63 0.0483262
4606.40 0.0386010
4607.96 0.0269050
4609.52 0.0203821
4612.63 0.0136774
4615.74 0.0104196
4618.86 0.00856027
4625.09 0.00658033
4637.54 0.00501377
4649.99 0.00450981
4662.45 0.00454290
4674.90 0.00528964
4681.13 0.00638132
4684.25 0.00744340
4687.36 0.00933732
4690.47 0.0132898
4692.03 0.0171590
4693.59 0.0241109
4695.14 0.0386733
4695.92 0.0528898
4696.70 0.0781951
4697.48 0.130284
4697.87 0.179898
4698.26 0.265939
4698.35 0.297652
4698.45 0.335073
4698.65 0.435028
4698.84 0.588942
4698.94 0.697967
4699.03 0.840262
4699.13 1.03294
4699.23 1.29625
4699.33 1.67245
4699.42 2.23390
4699.52 3.12915
4699.62 4.62040
4699.67 5.77059
4699.72 7.30557
4699.76 9.46151
4699.81 12.3455
4699.90 19.7635
4699.99 24.8799
4700.08 20.0824
4700.17 12.5954
4700.23 9.03997
4700.29 6.65951
4700.35 5.01658
4700.41 3.89878
4700.53 2.51151
4700.64 1.73950
4700.76 1.27194
4700.88 0.969403
4701.12 0.617844
4701.36 0.428804
4701.60 0.316878
4702.07 0.199150
4702.55 0.147553
4703.02 0.139410
4703.26 0.163623
4703.50 0.252296
4703.62 0.378183
4703.73 0.713429
4703.79 1.13867
4703.85 2.13911
4703.88 3.27436
4703.91 5.50686
4703.94 11.2110
4703.96 17.5411
4703.97 28.5423
4703.99 45.9675
4704.00 56.9302
4704.01 45.9655
4704.03 28.5399
4704.04 19.3371
4704.05 13.2969
4704.08 7.29463
4704.10 4.44673
4704.12 3.02373
4704.17 1.63901
4704.22 1.03245
4704.31 0.528933
4704.40 0.331506
4704.78 0.116445
4705.53 0.0507871
4706.28 0.0340520
4707.03 0.0261567
4708.52 0.0183197
4710.02 0.0144295
4713.02 0.0107469
4716.01 0.00917726
4722.01 0.00817473
4728.00 0.00829380
4739.99 0.0103165
4745.98 0.0131363
4748.97 0.0190735
4750.47 0.0388643
4751.22 0.112494
4751.60 0.380583
4751.69 0.634629
4751.78 1.26916
4751.83 2.03595
4751.88 3.77518
4751.90 5.65091
4751.92 9.05796
4751.95 16.3248
4751.96 23.4985
4751.97 34.1233
4751.99 54.3364
4752.00 68.1634
4752.02 54.3327
4752.03 34.1205
4752.04 22.7606
4752.05 15.8645
4752.08 8.65787
4752.10 5.25453
4752.13 3.55414
4752.18 1.90434
4752.23 1.18319
4752.32 0.586365
4752.42 0.353680
4752.81 0.105786
4753.59 0.0382929
4755.15 0.0213463
4758.27 0.0186698
4764.51 0.0226539
4770.75 0.0306500
4776.99 0.0448293
4778.55 0.0500242
4780.11 0.0562138
4781.67 0.0636647
4783.23 0.0727395
4784.01 0.0780357
4784.79 0.0839405
4785.57 0.0905496
4786.35 0.0979784
4787.91 0.115885
4789.47 0.139199
4791.03 0.170296
4792.59 0.212977
4794.15 0.273601
4795.71 0.363355
4797.27 0.503048
4798.83 0.733631
4799.61 0.906454
4800.39 1.13840
4801.17 1.45172
4801.95 1.87097
4803.48 2.98814
4805.00 3.70445
4806.53 2.93708
4808.05 1.83074
4809.17 1.27814
4810.28 0.917085
4811.40 0.680018
4812.51 0.520433
4814.74 0.330706
4815.86 0.277705
4816.42 0.276956
4816.70 0.349347
4816.84 0.611730
4816.91 1.32639
4816.94 2.72229
4816.96 4.45839
4816.97 8.21422
4817.00 16.1762
4817.03 8.21231
4817.05 4.17864
4817.06 2.45807
4817.10 1.18265
4817.18 0.547165
4817.33 0.310094
4817.63 0.229820
4818.24 0.193017
4819.46 0.159335
4821.90 0.117516
4826.77 0.0720067
4831.64 0.0487425
4836.51 0.0352871
4841.38 0.0268242
4846.25 0.0211710
4856.00 0.0143606
4865.74 0.0106604
4875.48 0.00869316
4880.35 0.00836885
4885.22 0.00912962
4887.66 0.0108381
4890.09 0.0162438
4892.53 0.0461359
4893.14 0.0767907
4893.75 0.162547
4894.05 0.279545
4894.36 0.598189
4894.51 1.01869
4894.66 2.11503
4894.74 3.47964
4894.77 4.71556
4894.81 6.73969
4894.85 10.3794
4894.87 13.3856
4894.89 17.8596
4894.91 24.8751
4894.93 36.5838
4894.95 57.4889
4894.96 97.6832
4894.98 155.287
4895.00 195.103
4895.02 155.287
4895.04 97.6835
4895.05 62.1401
4895.07 41.8775
4895.09 29.0475
4895.10 21.5088
4895.13 12.8324
4895.17 8.55972
4895.20 6.03836
4895.23 4.48077
4895.30 2.76092
4895.36 1.85871
4895.43 1.34214
4895.56 0.794121
4895.82 0.371477
4896.08 0.216240
4896.60 0.101229
4897.13 0.0598904
4899.22 0.0191175
4903.40 0.00849980
4907.58 0.00636122
4911.77 0.00552791
4920.13 0.00488203
4928.50 0.00478420
4936.86 0.00513987
4945.23 0.00631326
4949.41 0.00763604
4953.59 0.0104183
4955.69 0.0134072
4957.78 0.0203400
4959.87 0.0514933
4960.39 0.0816841
4960.91 0.164389
4961.18 0.275602
4961.44 0.573256
4961.57 0.960468
4961.70 1.93318
4961.76 3.12207
4961.83 5.78701
4961.86 8.63735
4961.89 13.8799
4961.91 18.7043
4961.93 25.6896
4961.94 36.6891
4961.96 55.4129
4961.98 88.7682
4962.00 110.863
4962.02 88.7561
4962.04 55.4037
4962.06 38.4571
4962.07 27.9764
4962.08 20.5685
4962.10 15.8971
4962.13 10.0543
4962.16 6.96182
4962.21 3.80584
4962.27 2.40545
4962.39 1.20431
4962.50 0.723850
4962.73 0.349753
4962.96 0.209965
4963.42 0.106332
4963.88 0.0696108
4965.72 0.0379455
4967.56 0.0404646
4969.40 0.0554086
4970.32 0.0693363
4971.24 0.0909605
4972.16 0.126475
4973.07 0.189974
4973.53 0.242321
4973.99 0.320380
4974.45 0.444077
4974.91 0.656435
4975.14 0.825451
4975.37 1.06909
4975.60 1.43809
4975.72 1.69793
4975.83 2.03073
4975.95 2.47440
4976.06 3.07720
4976.18 3.92242
4976.29 5.15266
4976.41 7.02387
4976.52 10.0155
4976.64 15.0364
4976.75 23.5148
4976.88 37.5644
4977.00 46.3360
4977.13 36.5924
4977.25 22.8477
4977.34 16.0875
4977.43 11.6200
4977.52 8.66081
4977.61 6.65033
4977.78 4.22524
4977.96 2.90470
4978.14 2.10821
4978.32 1.59674
4978.67 1.00565
4979.03 0.689588
4979.38 0.502426
4979.74 0.382076
4980.09 0.300609
4980.80 0.200163
4981.52 0.143067
4982.23 0.107549
4982.94 0.0839649
4984.36 0.0555753
4985.78 0.0397868
4987.20 0.0301086
4988.63 0.0237489
4991.47 0.0161722
4994.31 0.0120009
5000.00 0.00780541
5006.24 0.00572054
5012.48 0.00465462
5024.95 0.00371934
5037.42 0.00346951
5049.90 0.00361145
5062.37 0.00419719
5074.85 0.00578966
5081.09 0.00776091
5084.20 0.00960955
5087.32 0.0128524
5090.44 0.0195490
5092.00 0.0260735
5093.56 0.0377851
5094.34 0.0475430
5095.12 0.0623036
5095.90 0.0862117
5096.68 0.128720
5097.46 0.216000
5097.85 0.298991
5098.24 0.441940
5098.43 0.556225
5098.63 0.721678
5098.82 0.973765
5098.92 1.15334
5099.02 1.38445
5099.12 1.69549
5099.21 2.11734
5099.31 2.72178
5099.41 3.60580
5099.51 4.99406
5099.60 7.26158
5099.70 11.2546
5099.75 14.4276
5099.80 18.7192
5099.88 30.3792
5099.92 40.9543
5099.94 50.3232
5099.96 68.7307
5099.99 104.947
5100.02 68.9118
5100.04 50.6085
5100.06 41.3088
5100.10 30.7844
5100.18 19.0312
5100.24 13.9911
5100.30 10.5800
5100.41 6.48568
5100.52 4.30831
5100.63 3.04590
5100.75 2.25300
5100.86 1.73423
5101.08 1.11566
5101.31 0.775531
5101.53 0.570972
5101.98 0.347051
5102.43 0.233699
5102.88 0.168848
5103.33 0.128190
5103.77 0.101161
5104.67 0.0684858
5105.57 0.0503518
5107.36 0.0320801
5109.16 0.0236730
5110.95 0.0192847
5114.54 0.0155133
5118.13 0.0146540
5121.72 0.0152655
5128.90 0.0199354
5132.49 0.0245089
5136.07 0.0316507
5139.66 0.0433095
5143.25 0.0639148
5145.05 0.0806465
5146.84 0.105216
5147.74 0.122076
5148.64 0.143386
5149.53 0.170880
5149.98 0.187734
5150.43 0.207173
5150.88 0.229855
5151.33 0.256473
5151.78 0.287980
5152.23 0.325540
5152.67 0.370993
5153.12 0.426402
5153.57 0.495155
5154.02 0.581355
5154.47 0.691749
5154.92 0.835541
5155.37 1.02685
5155.81 1.28674
5156.26 1.65034
5156.71 2.16920
5157.16 2.92613
5157.61 4.02007
5158.30 6.41675
5159.00 7.95273
5159.70 6.30958
5160.39 3.93594
5160.82 2.90077
5161.25 2.17650
5162.12 1.31421
5162.98 0.863469
5163.84 0.606067
5164.70 0.447017
5165.56 0.342693
5167.29 0.219445
5169.01 0.152473
5170.73 0.112288
5174.18 0.0687836
5177.63 0.0475106
5181.07 0.0370922
5182.80 0.0357298
5184.52 0.0406164
5186.24 0.0817420
5186.67 0.125600
5187.11 0.248315
5187.32 0.414719
5187.54 0.860971
5187.64 1.44245
5187.75 2.89974
5187.81 4.66235
5187.86 8.66999
5187.89 12.8849
5187.91 20.9085
5187.93 28.1501
5187.94 38.4282
5187.95 54.4192
5187.97 80.4066
5187.98 127.931
5188.00 160.604
5188.02 127.951
5188.03 80.4219
5188.05 57.6005
5188.06 41.5124
5188.07 30.8661
5188.08 24.1537
5188.10 15.2338
5188.13 10.5509
5188.17 5.80767
5188.22 3.69006
5188.31 1.85448
5188.41 1.11544
5188.59 0.535324
5188.78 0.318881
5189.15 0.156415
5189.52 0.0974672
5191.02 0.0381940
5192.51 0.0265949
5194.00 0.0229179
5195.49 0.0230121
5196.98 0.0293655
5198.47 0.0714106
5198.84 0.115114
5199.21 0.236216
5199.40 0.400194
5199.59 0.838039
5199.68 1.40214
5199.77 2.81994
5199.82 4.53048
5199.87 8.27191
5199.89 12.3248
5199.91 19.6047
5199.93 26.0481
5199.94 34.8490
5199.95 49.6006
5199.96 70.5941
5199.98 114.187
5199.99 141.033
5200.01 114.172
5200.02 70.5826
5200.03 51.1531
5200.04 37.9282
5200.06 22.5031
5200.08 14.6147
5200.10 10.1716
5200.14 5.61852
5200.18 3.57873
5200.26 1.79897
5200.34 1.08016
5200.51 0.516576
5200.67 0.305352
5200.99 0.146214
5201.31 0.0882888
5202.61 0.0303060
5205.19 0.0144980
5207.78 0.0108825
5210.36 0.00922136
5215.53 0.00749148
5220.71 0.00654092
5231.05 0.00562251
5241.39 0.00556356
5251.73 0.00658550
5256.90 0.00791089
5262.08 0.0105051
5267.25 0.0162257
5269.83 0.0219717
5272.42 0.0324496
5273.71 0.0412653
5275.00 0.0546942
5276.30 0.0766134
5277.59 0.115989
5278.24 0.148736
5278.88 0.197946
5279.53 0.277108
5280.18 0.415942
5280.82 0.694627
5281.15 0.952407
5281.47 1.38486
5281.63 1.72110
5281.79 2.19130
5281.95 2.88553
5282.03 3.36067
5282.11 3.95207
5282.20 4.72001
5282.28 5.72609
5282.36 7.07410
5282.44 8.89927
5282.52 11.5021
5282.60 15.2752
5282.68 20.8575
5282.76 28.9669
5282.88 46.2415
5283.00 57.4214
5283.12 45.6796
5283.24 28.5268
5283.37 16.8521
5283.50 10.6416
5283.63 7.19732
5283.76 5.16047
5283.89 3.85618
5284.02 2.98902
5284.29 1.93725
5284.55 1.35230
5284.81 0.997468
5285.33 0.606282
5285.85 0.406985
5286.38 0.292420
5286.90 0.220387
5287.42 0.172363
5288.47 0.114200
5289.51 0.0817826
5290.56 0.0619932
5291.60 0.0491683
5293.69 0.0348437
5295.78 0.0302532
5296.83 0.0329987
5297.87 0.0467186
5298.92 0.128913
5299.18 0.212617
5299.44 0.441740
5299.57 0.746083
5299.70 1.53339
5299.76 2.53153
5299.83 4.88838
5299.86 7.57098
5299.89 12.9025
5299.91 18.2391
5299.93 26.6676
5299.94 41.5468
5299.96 69.4341
5299.98 112.051
5299.99 138.761
5300.01 112.050
5300.02 69.4333
5300.03 45.4837
5300.05 31.2445
5300.06 22.4211
5300.07 16.7312
5300.10 10.0527
5300.13 6.74976
5300.18 3.58524
5300.23 2.23227
5300.34 1.09272
5300.44 0.651536
5300.65 0.310553
5300.86 0.184654
5301.71 0.0566570
5303.39 0.0220161
5305.07 0.0146173
5306.76 0.0115260
5310.13 0.00869251
5313.50 0.00737194
5316.87 0.00673988
5320.23 0.00678567
5323.60 0.00947694
5325.29 0.0211651
5326.13 0.0664245
5326.55 0.233549
5326.66 0.394738
5326.76 0.806027
5326.81 1.31497
5326.87 2.47424
5326.89 3.78119
5326.92 6.27387
5326.95 12.0038
5326.96 17.8066
5326.97 27.5609
5326.99 44.6593
5327.00 55.0342
5327.02 43.4448
5327.03 27.5590
5327.04 17.2436
5327.06 11.3465
5327.09 5.75782
5327.11 3.41498
5327.14 2.27567
5327.20 1.19944
5327.25 0.738034
5327.47 0.214595
5327.91 0.0611322
5328.79 0.0196767
5330.56 0.00889940
5334.08 0.00621167
5341.14 0.00597693
5348.19 0.00690096
5355.24 0.00896445
5362.29 0.0134830
5365.82 0.0179036
5369.35 0.0257554
5372.87 0.0418871
5374.64 0.0573425
5376.40 0.0844407
5378.16 0.138968
5379.05 0.189879
5379.49 0.226921
5379.93 0.276149
5380.37 0.343875
5380.59 0.387733
5380.81 0.440368
5381.03 0.504889
5381.25 0.584335
5381.47 0.684083
5381.69 0.811544
5381.91 0.978616
5382.13 1.20078
5382.35 1.50718
5382.57 1.93935
5382.79 2.57711
5383.01 3.54660
5383.23 5.07846
5383.45 7.52008
5383.73 12.0494
5384.00 15.1572
5384.27 12.2196
5384.55 7.66744
5384.79 4.98961
5385.03 3.38194
5385.27 2.40362
5385.51 1.78187
5385.99 1.08157
5386.47 0.724075
5386.96 0.518841
5387.44 0.391506
5388.40 0.249004
5389.36 0.176482
5390.33 0.135925
5392.25 0.0990578
5394.18 0.0938708
5396.11 0.119663
5397.07 0.155469
5398.03 0.231368
5398.52 0.306470
5399.00 0.453590
5399.24 0.604577
5399.48 0.939350
5399.60 1.33324
5399.72 2.28483
5399.78 3.42351
5399.84 6.06671
5399.87 8.94579
5399.90 14.7039
5399.91 19.9542
5399.93 28.4605
5399.94 43.0277
5399.96 69.0835
5399.98 111.215
5399.99 137.393
5400.01 111.234
5400.02 69.1230
5400.03 45.7283
5400.05 31.6631
5400.06 22.9411
5400.07 17.3158
5400.10 10.7180
5400.13 7.46371
5400.18 4.36934
5400.23 3.05733
5400.34 2.04820
5400.44 1.74436
5400.65 1.76382
5400.76 1.93521
5400.87 2.19638
5400.97 2.56764
5401.08 3.07472
5401.18 3.78421
5401.29 4.77569
5401.39 6.22454
5401.50 8.36152
5401.60 11.6507
5401.71 16.6007
5401.86 26.3900
5402.00 32.1461
5402.15 25.0951
5402.29 15.6308
5402.44 9.69854
5402.58 6.37605
5402.72 4.42870
5402.87 3.23716
5403.01 2.45580
5403.15 1.92625
5403.44 1.27341
5403.73 0.902599
5404.01 0.674140
5404.58 0.418081
5405.16 0.285632
5405.73 0.208564
5406.88 0.126693
5408.02 0.0862029
5409.17 0.0631807
5411.46 0.0391134
5413.76 0.0272944
5416.05 0.0205526
5420.63 0.0134487
5425.22 0.00995165
5429.80 0.00804520
5434.39 0.00736741
5436.68 0.00909731
5437.83 0.0172928
5438.40 0.0488908
5438.69 0.162847
5438.83 0.529068
5438.90 1.50945
5438.94 3.41838
5438.96 5.89521
5438.97 11.1884
5438.99 17.9709
5439.00 22.3534
5439.01 17.9709
5439.03 11.1884
5439.04 6.09683
5439.06 3.61237
5439.09 1.66316
5439.16 0.601938
5439.29 0.187208
5439.56 0.0558051
5440.09 0.0189239
5441.14 0.00905358
5443.26 0.00641829
5447.50 0.00596815
5451.73 0.00850692
5453.85 0.0197280
5454.91 0.0634272
5455.44 0.226333
5455.57 0.384741
5455.70 0.794793
5455.77 1.30379
5455.84 2.51492
5455.87 3.86052
5455.90 6.60822
5455.92 9.26553
5455.94 13.4049
5455.95 21.1930
5455.97 35.0235
5455.98 55.7030
5456.00 69.9377
5456.02 55.6969
5456.03 35.0189
5456.04 25.3274
5456.05 18.3828
5456.07 10.8159
5456.10 6.85855
5456.12 4.77164
5456.16 2.63715
5456.20 1.67971
5456.29 0.838783
5456.37 0.504286
5456.54 0.240363
5456.72 0.141231
5457.40 0.0402605
5458.77 0.0136407
5461.50 0.00682736
5466.97 0.00532102
5472.44 0.00555028
5477.91 0.00659526
5483.38 0.00914672
5486.11 0.0117543
5488.85 0.0165297
5490.22 0.0205577
5491.58 0.0266992
5492.95 0.0367459
5494.32 0.0548771
5495.00 0.0700061
5495.69 0.0928766
5496.37 0.129833
5497.05 0.195210
5497.74 0.328256
5498.08 0.453443
5498.42 0.666393
5498.59 0.834629
5498.76 1.07532
5498.93 1.43626
5499.02 1.68976
5499.10 2.01130
5499.19 2.43776
5499.27 3.00384
5499.36 3.79553
5499.45 4.91351
5499.53 6.59342
5499.62 9.16417
5499.70 13.2913
5499.79 19.9914
5499.89 32.0398
5499.99 40.1691
5500.04 37.8465
5500.09 32.1810
5500.19 20.1012
5500.28 13.2982
5500.37 9.16821
5500.45 6.59586
5500.54 4.93087
5500.71 3.02004
5500.88 2.02456
5501.05 1.44692
5501.22 1.08396
5501.56 0.672326
5501.90 0.457300
5502.24 0.331286
5502.58 0.251242
5502.92 0.197286
5503.60 0.131294
5504.28 0.0941501
5504.96 0.0711913
5505.64 0.0560376
5507.00 0.0379624
5508.36 0.0281159
5509.72 0.0222900
5511.08 0.0187347
5513.80 0.0157228
5515.16 0.0160115
5516.52 0.0181252
5519.24 0.0431520
5519.92 0.0700157
5520.60 0.145603
5520.94 0.248753
5521.28 0.531174
5521.45 0.905176
5521.62 1.88521
5521.71 3.11280
5521.75 4.24727
5521.79 6.07245
5521.84 9.46776
5521.86 12.2376
5521.88 16.3792
5521.90 23.3166
5521.92 34.6329
5521.94 55.2162
5521.96 94.8539
5521.98 151.418
5522.00 189.651
5522.02 151.414
5522.04 94.8509
5522.06 59.3867
5522.08 38.4362
5522.09 26.4158
5522.11 19.1005
5522.13 14.3862
5522.15 11.1952
5522.19 7.30409
5522.23 5.12579
5522.27 3.79007
5522.34 2.30968
5522.49 1.11538
5522.65 0.655839
5522.95 0.306873
5523.25 0.179037
5523.86 0.0844251
5524.47 0.0504970
5526.90 0.0168442
5529.33 0.0102901
5531.76 0.00787716
5536.62 0.00605788
5541.47 0.00543237
5551.19 0.00524495
5560.91 0.00575321
5570.63 0.00702273
5580.35 0.0101820
5585.21 0.0140967
5587.64 0.0178098
5590.07 0.0243810
5592.50 0.0380417
5593.71 0.0513759
5594.93 0.0752360
5596.14 0.124839
5597.36 0.257084
5597.96 0.427037
5598.27 0.585383
5598.57 0.851763
5598.72 1.06008
5598.88 1.35521
5599.03 1.79213
5599.18 2.47057
5599.25 2.96461
5599.33 3.61848
5599.41 4.50605
5599.48 5.74652
5599.56 7.53865
5599.63 10.2234
5599.71 14.3922
5599.79 20.9253
5599.87 33.6077
5599.92 44.6561
5599.94 54.4535
5599.96 72.3057
5599.99 106.856
5600.02 73.0504
5600.04 55.6217
5600.06 46.1313
5600.11 35.3030
5600.20 22.2286
5600.26 16.0933
5600.32 11.9306
5600.45 7.11688
5600.58 4.64105
5600.70 3.23974
5600.83 2.37539
5600.96 1.81632
5601.21 1.15816
5601.47 0.800919
5601.72 0.587730
5602.23 0.356191
5602.74 0.239877
5603.25 0.173634
5603.76 0.132261
5604.26 0.104826
5605.28 0.0718017
5606.30 0.0535281
5608.33 0.0352436
5610.37 0.0269530
5612.40 0.0227348
5616.47 0.0194043
5624.61 0.0204321
5632.74 0.0272043
5640.88 0.0427068
5642.92 0.0491988
5644.95 0.0574756
5645.97 0.0624897
5646.98 0.0682371
5648.00 0.0748652
5649.02 0.0825606
5650.04 0.0915714
5651.05 0.102189
5652.07 0.114826
5653.09 0.130022
5654.10 0.148507
5655.12 0.171285
5656.14 0.199767
5657.15 0.235984
5658.17 0.282924
5659.19 0.345113
5660.21 0.429612
5661.22 0.547782
5662.24 0.718445
5663.26 0.973381
5664.27 1.36532
5665.29 1.97014
5666.65 3.15011
5668.00 3.95494
5669.36 3.18485
5670.71 1.99713
5671.63 1.43348
5672.54 1.05159
5673.45 0.793303
5674.37 0.615016
5676.20 0.396533
5678.02 0.275285
5679.85 0.202018
5681.68 0.154716
5685.34 0.0998304
5688.99 0.0708985
5692.65 0.0548203
5696.30 0.0506219
5697.22 0.0554827
5698.13 0.0732069
5699.05 0.173675
5699.27 0.275349
5699.50 0.550410
5699.62 0.914497
5699.73 1.84584
5699.79 2.98545
5699.85 5.64077
5699.87 8.58529
5699.90 14.1999
5699.92 19.6438
5699.93 27.8126
5699.95 41.3843
5699.96 64.5537
5699.98 104.453
5699.99 129.051
5700.01 104.453
5700.02 64.5536
5700.04 36.7516
5700.06 22.6693
5700.08 14.7901
5700.09 10.5029
5700.13 5.94825
5700.17 3.80949
5700.24 1.94560
5700.32 1.18995
5700.46 0.584273
5700.61 0.354084
5700.90 0.180489
5701.20 0.116925
5702.37 0.0524965
5703.55 0.0391145
5704.73 0.0336276
5709.43 0.0257607
5718.84 0.0213761
5728.25 0.0217167
5737.66 0.0263338
5747.07 0.0386380
5751.78 0.0510377
5756.48 0.0727488
5758.83 0.0900933
5760.01 0.101392
5761.19 0.115097
5762.36 0.131944
5762.95 0.141834
5763.54 0.152913
5764.13 0.165375
5764.71 0.179456
5765.30 0.195443
5765.89 0.213688
5767.07 0.258852
5768.24 0.319869
5769.42 0.404865
5770.60 0.527504
5771.77 0.712019
5772.95 1.00196
5774.12 1.47742
5775.30 2.26475
5776.65 3.59836
5778.00 4.37686
5779.35 3.40810
5780.70 2.11580
5781.90 1.37253
5783.11 0.930494
5784.31 0.662096
5785.52 0.491589
5787.92 0.299077
5790.33 0.200619
5792.74 0.144674
5795.15 0.111880
5797.55 0.102894
5798.15 0.113191
5798.76 0.150844
5799.06 0.206097
5799.36 0.361554
5799.51 0.571260
5799.66 1.12352
5799.73 1.82191
5799.81 3.52793
5799.85 5.52108
5799.88 9.65308
5799.90 13.7922
5799.92 21.0788
5799.94 35.1299
5799.95 46.2608
5799.96 63.1603
5799.98 101.579
5799.99 126.318
5800.01 101.578
5800.02 63.1597
5800.03 46.2602
5800.04 35.1293
5800.06 21.0781
5800.08 13.7913
5800.10 9.82127
5800.13 5.59326
5800.17 3.60153
5800.24 1.86030
5800.32 1.14554
5800.47 0.578511
5800.61 0.362818
5800.91 0.199544
5801.21 0.139112
5802.39 0.0750608
5803.57 0.0592149
5804.76 0.0512084
5809.50 0.0355973
5814.23 0.0289386
5815.42 0.0292073
5816.60 0.0330123
5817.79 0.0592064
5818.38 0.162047
5818.67 0.527969
5818.75 0.862890
5818.82 1.67950
5818.86 2.61433
5818.90 4.60093
5818.93 9.90362
5818.95 16.5499
5818.97 30.1983
5818.99 48.3926
5819.00 60.4229
5819.02 48.3890
5819.03 30.1956
5819.05 16.5485
5819.07 10.1503
5819.10 4.68225
5819.14 2.64933
5819.18 1.71579
5819.25 0.882458
5819.32 0.539885
5819.62 0.164080
5820.20 0.0577709
5821.37 0.0286446
5823.71 0.0196589
5828.40 0.0150568
5837.77 0.0109182
5847.13 0.00860499
5856.50 0.00721483
5865.87 0.00650979
5875.24 0.00667703
5879.92 0.00744901
5884.60 0.00948615
5886.95 0.0116799
5889.29 0.0159887
5890.46 0.0201024
5891.63 0.0281552
5892.80 0.0562768
5893.39 0.144270
5893.68 0.445528
5893.82 1.38908
5893.86 2.17198
5893.90 3.79649
5893.93 8.31043
5893.95 13.6860
5893.97 25.2885
5893.99 39.9649
5894.00 50.4717
5894.02 39.9621
5894.03 25.2867
5894.04 17.0389
5894.05 12.1519
5894.07 6.84765
5894.12 2.90910
5894.16 1.59192
5894.21 1.00688
5894.39 0.324354
5894.75 0.123054
5895.47 0.0809477
5896.19 0.0937436
5896.91 0.132065
5897.27 0.165714
5897.63 0.216621
5897.99 0.297779
5898.35 0.437207
5898.71 0.707802
5898.89 0.949016
5899.07 1.33710
5899.16 1.62560
5899.25 2.01623
5899.34 2.56146
5899.43 3.35023
5899.52 4.53984
5899.61 6.41883
5899.65 7.76935
5899.70 9.51713
5899.74 11.7810
5899.79 14.6040
5899.89 23.1886
5899.99 28.1588
5900.09 21.9089
5900.19 13.6032
5900.32 7.71859
5900.44 4.75032
5900.56 3.16129
5900.68 2.24338
5900.80 1.66422
5900.92 1.28100
5901.16 0.825339
5901.40 0.574274
5901.64 0.422968
5902.13 0.257048
5902.61 0.172891
5903.09 0.124641
5903.57 0.0943339
5904.06 0.0741382
5905.02 0.0496341
5905.99 0.0359384
5906.95 0.0275020
5907.92 0.0219355
5909.85 0.0152665
5911.78 0.0115701
5915.64 0.00780711
5919.50 0.00601432
5923.36 0.00502051
5931.08 0.00404359
5938.80 0.00372101
5946.52 0.00400899
5954.24 0.00687280
5958.10 0.0185998
5960.03 0.0644473
5960.52 0.110974
5961.00 0.239731
5961.24 0.414129
5961.48 0.882351
5961.60 1.49325
5961.72 3.03122
5961.78 4.92007
5961.84 9.16886
5961.87 13.6442
5961.90 22.1877
5961.92 29.5921
5961.93 40.9751
5961.95 59.1468
5961.96 90.2236
5961.98 144.735
5962.00 180.247
5962.02 144.742
5962.04 90.2291
5962.06 54.7813
5962.07 35.8014
5962.09 24.3316
5962.11 17.7403
5962.15 10.3846
5962.18 6.77017
5962.26 3.50964
5962.33 2.14987
5962.48 1.03459
5962.63 0.608437
5962.92 0.283228
5963.22 0.163879
5963.81 0.0760021
5964.40 0.0445209
5966.76 0.0136828
5971.47 0.00610877
5976.19 0.00519682
5980.91 0.00576294
5985.63 0.00790689
5987.99 0.0102305
5990.35 0.0145540
5991.53 0.0182217
5992.71 0.0238316
5993.89 0.0330200
5995.07 0.0495799
5995.66 0.0633768
5996.25 0.0841907
5996.84 0.117718
5997.43 0.176718
5998.02 0.295818
5998.31 0.406856
5998.61 0.594527
5998.76 0.741568
5998.90 0.948493
5999.05 1.25696
5999.12 1.46985
5999.20 1.73636
5999.27 2.08572
5999.35 2.54811
5999.42 3.17542
5999.49 4.03664
5999.57 5.28963
5999.64 7.11912
5999.71 9.93458
5999.79 14.1433
5999.89 22.5448
5999.99 27.7117
6000.09 21.7881
6000.19 13.5526
6000.28 9.14799
6000.36 6.38908
6000.44 4.64274
6000.52 3.50883
6000.68 2.17621
6000.85 1.47063
6001.01 1.05479
6001.17 0.793452
6001.50 0.494756
6001.83 0.337194
6002.15 0.244745
6002.48 0.185800
6002.81 0.145950
6003.46 0.0970511
6004.11 0.0693948
6004.76 0.0522520
6005.42 0.0409142
6006.72 0.0272837
6008.03 0.0197351
6009.33 0.0151184
6010.64 0.0120969
6013.25 0.00851589
6015.86 0.00656861
6021.08 0.00468726
6026.30 0.00397674
6031.53 0.00402070
6036.75 0.00627923
6039.36 0.0156849
6040.67 0.0522274
6041.32 0.190817
6041.48 0.326715
6041.64 0.688280
6041.73 1.15430
6041.81 2.29673
6041.85 3.65033
6041.89 6.63330
6041.91 9.75577
6041.93 15.1715
6041.95 25.9979
6041.96 35.4987
6041.97 50.6205
6041.99 80.3831
6042.00 101.360
6042.02 80.3922
6042.03 50.6277
6042.05 29.3532
6042.06 18.0964
6042.08 12.0399
6042.10 8.67669
6042.13 4.99738
6042.16 3.22812
6042.23 1.65741
6042.29 1.00463
6042.43 0.480498
6042.56 0.282311
6043.09 0.0771814
6044.15 0.0224843
6046.26 0.00866576
6050.50 0.00679406
6054.73 0.0154029
6056.85 0.0514866
6057.38 0.0882111
6057.91 0.190361
6058.17 0.328870
6058.43 0.702272
6058.57 1.19437
6058.70 2.45002
6058.77 3.98064
6058.83 7.52854
6058.86 11.3484
6058.90 18.8412
6058.91 25.7748
6058.93 36.0942
6058.95 54.3114
6058.96 84.3947
6058.98 135.722
6059.00 168.685
6059.02 135.710
6059.04 84.3858
6059.06 50.3334
6059.08 31.6449
6059.10 21.3274
6059.12 15.2141
6059.16 8.76700
6059.20 5.66267
6059.28 2.90549
6059.36 1.76943
6059.51 0.850239
6059.67 0.498223
6059.99 0.231276
6060.31 0.133963
6061.58 0.0366984
6064.13 0.0116217
6069.22 0.00557468
6074.32 0.00506501
6079.41 0.00596934
6084.50 0.00866015
6087.05 0.0114827
6089.59 0.0166860
6090.87 0.0210843
6092.14 0.0277938
6093.41 0.0387678
6094.69 0.0585510
6095.32 0.0750349
6095.96 0.0998637
6096.60 0.139933
6097.23 0.210530
6097.87 0.353293
6098.19 0.486408
6098.50 0.711701
6098.66 0.889072
6098.82 1.13947
6098.98 1.51096
6099.06 1.76939
6099.14 2.09408
6099.22 2.52058
6099.30 3.07896
6099.38 3.84798
6099.46 4.91071
6099.54 6.46633
6099.62 8.76134
6099.70 12.3325
6099.78 17.7545
6099.88 28.3565
6099.99 35.0057
6100.10 27.6983
6100.20 17.3211
6100.30 10.9344
6100.41 7.24809
6100.51 5.06936
6100.61 3.72359
6100.81 2.22371
6101.01 1.46783
6101.21 1.03662
6101.41 0.771061
6101.81 0.473739
6102.22 0.319992
6102.62 0.230847
6103.02 0.174397
6103.42 0.136596
6104.23 0.0905383
6105.03 0.0646742
6105.84 0.0487341
6106.64 0.0382350
6108.25 0.0257441
6109.86 0.0189468
6111.47 0.0149325
6113.08 0.0124824
6116.30 0.0104005
6117.91 0.0105808
6119.52 0.0119864
6122.74 0.0285980
6124.35 0.0965310
6124.76 0.165387
6125.16 0.354800
6125.36 0.607780
6125.56 1.27955
6125.66 2.14168
6125.76 4.25194
6125.81 6.76860
6125.86 12.1596
6125.89 17.5401
6125.91 27.1696
6125.94 46.2466
6125.95 63.6357
6125.96 88.3799
6125.98 140.648
6126.00 176.756
6126.02 140.658
6126.04 88.3880
6126.06 53.4029
6126.08 34.6156
6126.10 23.4070
6126.12 16.9948
6126.15 9.89985
6126.19 6.43568
6126.27 3.32612
6126.35 2.03400
6126.50 0.982006
6126.66 0.577223
6126.97 0.269312
6127.28 0.156832
6127.90 0.0739462
6128.52 0.0443906
6131.00 0.0171005
6133.49 0.0229811
6134.73 0.0668375
6135.35 0.237224
6135.51 0.404181
6135.66 0.846872
6135.74 1.41495
6135.82 2.79626
6135.85 4.41830
6135.89 7.94573
6135.91 11.5857
6135.93 17.7651
6135.95 29.7424
6135.96 40.5724
6135.97 54.7867
6135.99 87.4926
6136.00 109.458
6136.02 87.4645
6136.03 54.7648
6136.04 36.8517
6136.05 25.7155
6136.08 14.0461
6136.10 8.52371
6136.13 5.76180
6136.18 3.08024
6136.23 1.90751
6136.32 0.936602
6136.42 0.557937
6136.62 0.263563
6136.81 0.154134
6137.59 0.0433904
6139.15 0.0140218
6142.27 0.00603870
6148.52 0.00362325
6154.76 0.00310640
6161.00 0.00303579
6167.24 0.00326073
6173.49 0.00392154
6176.61 0.00461159
6179.73 0.00599686
6182.85 0.0108514
6184.41 0.0263426
6185.19 0.0828612
6185.58 0.287290
6185.77 0.966355
6185.82 1.55332
6185.87 2.88765
6185.90 4.32920
6185.92 6.96202
6185.95 12.6187
6185.96 17.9577
6185.97 26.8286
6185.99 43.2218
6186.00 53.6883
6186.02 43.2190
6186.03 26.8265
6186.04 17.4114
6186.06 11.9419
6186.08 6.25207
6186.11 3.77090
6186.14 2.50428
6186.19 1.32725
6186.25 0.826003
6186.46 0.242805
6186.89 0.0714894
6187.75 0.0258790
6189.47 0.0164293
6191.19 0.0185640
6192.91 0.0257737
6193.77 0.0322681
6194.63 0.0422819
6195.49 0.0586964
6196.34 0.0880747
6196.77 0.112353
6197.20 0.148659
6198.06 0.306204
6198.49 0.502035
6198.71 0.679045
6198.92 0.966538
6199.03 1.18544
6199.14 1.48321
6199.25 1.91043
6199.35 2.53749
6199.46 3.52385
6199.57 5.13910
6199.62 6.36233
6199.67 7.97324
6199.73 10.1913
6199.78 13.1062
6199.89 21.0079
6199.99 26.1588
6200.04 24.5423
6200.10 20.8320
6200.20 13.0313
6200.28 8.94928
6200.36 6.33095
6200.44 4.64315
6200.52 3.53287
6200.68 2.21075
6200.84 1.50220
6201.00 1.08138
6201.16 0.815585
6201.47 0.510348
6201.79 0.348612
6202.11 0.253458
6202.43 0.192517
6202.75 0.151413
6203.38 0.100896
6204.02 0.0722841
6204.66 0.0545333
6205.30 0.0427728
6206.57 0.0286570
6207.84 0.0208398
6209.12 0.0160719
6210.39 0.0129611
6212.94 0.00930176
6215.49 0.00735149
6220.58 0.00559172
6225.68 0.00517471
6230.77 0.00594821
6235.87 0.0117300
6238.42 0.0346975
6239.69 0.123410
6240.01 0.212518
6240.33 0.455366
6240.49 0.776160
6240.65 1.61387
6240.73 2.66826
6240.80 5.16277
6240.84 7.99338
6240.88 13.8744
6240.90 19.4538
6240.92 28.8764
6240.94 45.9639
6240.96 77.3759
6240.98 124.343
6241.00 154.740
6241.02 124.327
6241.04 77.3636
6241.06 43.7230
6241.08 27.0988
6241.10 17.7900
6241.12 12.6515
6241.17 7.18463
6241.21 4.60179
6241.29 2.34011
6241.38 1.41833
6241.55 0.676481
6241.72 0.396447
6242.07 0.184721
6242.41 0.107691
6243.78 0.0308512
6246.52 0.0112531
6252.00 0.00698043
6254.75 0.00702806
6257.49 0.00789801
6260.23 0.0119543
6261.60 0.0262663
6262.29 0.0795665
6262.63 0.272149
6262.80 0.900134
6262.89 2.62296
6262.93 6.10764
6262.95 10.6725
6262.97 21.6201
6262.99 34.2317
6263.00 43.2835
6263.02 34.2294
6263.03 21.6184
6263.04 13.2167
6263.06 8.50540
6263.09 4.20419
6263.15 1.62558
6263.27 0.522039
6263.50 0.153078
6263.98 0.0468542
6264.92 0.0185736
6266.81 0.0120100
6268.71 0.0117037
6270.60 0.0125977
6274.38 0.0163601
6278.17 0.0236758
6280.06 0.0298309
6281.95 0.0391176
6283.85 0.0540497
6285.74 0.0802873
6287.63 0.132906
6288.58 0.181628
6289.05 0.216826
6289.52 0.263401
6290.00 0.326780
6290.23 0.367480
6290.47 0.416009
6290.71 0.475009
6290.94 0.547007
6291.18 0.636844
6291.41 0.749729
6291.65 0.895330
6291.89 1.08529
6292.12 1.34096
6292.36 1.69091
6292.60 2.18748
6292.83 2.90568
6293.07 3.97627
6293.31 5.55641
6293.65 8.89158
6294.00 11.1336
6294.35 8.92479
6294.69 5.58214
6295.06 3.37245
6295.42 2.16292
6295.78 1.47824
6296.14 1.06518
6296.50 0.800559
6296.86 0.622189
6297.58 0.405559
6298.30 0.284750
6299.03 0.210856
6300.47 0.129152
6301.91 0.0874838
6303.36 0.0634456
6304.80 0.0483511
6306.25 0.0382687
6309.13 0.0260857
6312.02 0.0193192
6317.80 0.0125630
6323.57 0.00957398
6329.35 0.00818281
6340.90 0.00773752
6352.45 0.00976921
6358.23 0.0123061
6364.00 0.0170987
6369.78 0.0272886
6372.67 0.0372161
6375.55 0.0547766
6378.44 0.0903667
6379.88 0.123733
6380.61 0.148052
6381.33 0.180490
6382.05 0.225074
6382.41 0.253893
6382.77 0.288651
6383.13 0.331079
6383.49 0.383578
6383.86 0.449548
6384.22 0.533921
6384.58 0.644047
6384.94 0.791205
6385.30 0.993291
6385.66 1.27972
6386.02 1.70055
6386.38 2.34332
6386.74 3.35989
6387.10 4.97496
6387.55 7.96387
6388.00 9.97700
6388.45 8.00548
6388.90 5.01284
6389.23 3.49300
6389.56 2.50200
6389.89 1.85084
6390.22 1.41403
6390.87 0.891806
6391.53 0.609687
6392.19 0.441678
6392.85 0.334496
6394.17 0.210907
6395.48 0.145423
6396.80 0.106733
6399.43 0.0654330
6402.07 0.0453821
6404.70 0.0351833
6406.02 0.0331336
6407.34 0.0353726
6408.65 0.0612736
6409.31 0.168483
6409.64 0.558494
6409.73 0.927389
6409.81 1.84023
6409.85 2.91488
6409.89 5.28614
6409.91 7.77265
6409.93 12.0959
6409.95 21.4129
6409.96 29.3940
6409.97 41.4350
6409.99 67.0436
6410.00 82.7231
6410.01 67.0408
6410.03 41.4329
6410.04 30.3837
6410.05 22.0723
6410.07 13.0270
6410.09 8.43502
6410.11 5.86097
6410.14 3.23208
6410.18 2.06065
6410.26 1.04063
6410.34 0.633237
6410.64 0.188332
6411.25 0.0633245
6412.48 0.0292144
6414.93 0.0186855
6419.83 0.0139144
6429.63 0.0115122
6439.43 0.0121549
6449.23 0.0154149
6459.03 0.0234452
6463.93 0.0313987
6468.83 0.0452891
6471.28 0.0564028
6472.51 0.0636615
6473.73 0.0724861
6474.96 0.0833541
6476.18 0.0969378
6476.79 0.105042
6477.41 0.114207
6478.02 0.124656
6478.63 0.136598
6479.24 0.150371
6479.86 0.166307
6481.08 0.206813
6482.31 0.263856
6483.53 0.347345
6484.76 0.475273
6485.98 0.681856
6486.59 0.833639
6487.21 1.03336
6487.82 1.29803
6488.43 1.64382
6489.72 2.61807
6491.00 3.22337
6492.29 2.54235
6493.57 1.58436
6494.91 0.958916
6496.25 0.616848
6497.58 0.422832
6498.92 0.305599
6500.26 0.230285
6501.60 0.179482
6504.27 0.117694
6506.95 0.0833240
6509.62 0.0627592
6512.30 0.0522085
6512.97 0.0529037
6513.63 0.0600180
6514.30 0.107311
6514.64 0.285294
6514.80 0.870412
6514.89 2.48107
6514.93 5.74856
6514.95 10.1868
6514.97 20.0998
6514.99 32.3372
6515.00 40.1111
6515.01 32.3357
6515.03 20.0986
6515.05 10.8305
6515.07 6.34877
6515.10 2.89415
6515.18 1.05269
6515.33 0.343690
6515.62 0.120731
6516.21 0.0568366
6517.40 0.0375078
6519.77 0.0285637
6524.52 0.0208781
6534.00 0.0133728
6543.49 0.00986901
6548.23 0.00937210
6550.60 0.0114090
6551.79 0.0208755
6552.38 0.0574272
6552.68 0.188568
6552.82 0.610532
6552.90 1.72412
6552.94 3.86369
6552.95 6.71919
6552.97 13.0427
6552.99 20.6057
6553.00 26.1208
6553.01 20.6048
6553.03 13.0421
6553.05 5.92153
6553.07 3.16122
6553.12 1.29109
6553.21 0.434020
6553.39 0.130825
6553.76 0.0408271
6554.49 0.0161346
6555.95 0.00952346
6558.87 0.00758563
6564.71 0.00682616
6576.40 0.00734627
6582.24 0.00916205
6585.16 0.0111637
6588.09 0.0149372
6591.01 0.0231136
6592.47 0.0312569
6593.93 0.0459973
6594.66 0.0583300
6595.39 0.0769676
6596.12 0.107102
6596.85 0.160537
6597.22 0.204429
6597.58 0.269428
6598.31 0.546787
6598.68 0.882278
6598.77 1.01573
6598.86 1.17961
6599.04 1.65099
6599.13 2.00241
6599.22 2.46980
6599.31 3.11540
6599.41 4.03711
6599.50 5.42216
6599.59 7.54401
6599.68 10.9469
6599.77 16.4415
6599.88 26.1890
6599.99 32.0856
6600.10 25.1430
6600.21 15.6252
6600.34 8.90472
6600.47 5.51184
6600.60 3.67067
6600.72 2.60515
6600.85 1.93278
6600.98 1.49052
6601.24 0.959638
6601.50 0.668168
6601.75 0.491692
6602.27 0.298597
6602.78 0.200665
6603.29 0.144438
6603.81 0.109223
6604.32 0.0857624
6605.35 0.0573241
6606.38 0.0414519
6607.40 0.0316852
6608.43 0.0252625
6610.49 0.0175966
6612.54 0.0133746
6616.65 0.00913551
6620.76 0.00717429
6624.87 0.00613576
6633.09 0.00522505
6641.31 0.00504739
6649.53 0.00542363
6657.75 0.00745303
6661.86 0.0144192
6663.91 0.0407914
6664.94 0.141545
6665.20 0.241919
6665.45 0.514281
6665.58 0.873169
6665.71 1.79126
6665.77 2.91430
6665.84 5.53078
6665.87 8.36534
6665.90 13.9701
6665.92 19.0117
6665.93 27.0628
6665.95 40.5856
6665.97 65.1516
6665.98 104.599
6666.00 130.285
6666.02 104.594
6666.03 65.1480
6666.05 40.5837
6666.07 27.0618
6666.08 19.0112
6666.10 13.9698
6666.13 8.36528
6666.16 5.53081
6666.23 2.91440
6666.29 1.79137
6666.42 0.873307
6666.55 0.516293
6666.80 0.242712
6667.06 0.142316
6668.09 0.0413722
6670.14 0.0153982
6674.24 0.00945258
6678.34 0.00931392
6682.45 0.0106817
6686.55 0.0139312
6688.60 0.0170819
6690.65 0.0226666
6692.70 0.0342698
6693.73 0.0456040
6694.75 0.0659300
6695.27 0.0828528
6695.78 0.108413
6696.29 0.149713
6696.80 0.222788
6697.32 0.371876
6697.83 0.753583
6698.09 1.21939
6698.22 1.63168
6698.34 2.29240
6698.41 2.78193
6698.47 3.44288
6698.54 4.36246
6698.60 5.68793
6698.66 7.67896
6698.73 10.8116
6698.79 15.9667
6698.86 24.7369
6698.93 39.6589
6699.00 49.8540
6699.04 47.1013
6699.07 40.1554
6699.14 25.1247
6699.20 17.4109
6699.25 12.4602
6699.31 9.16922
6699.36 7.00405
6699.47 4.40095
6699.57 2.99856
6699.68 2.16711
6699.79 1.63690
6700.00 1.02715
6700.21 0.704442
6700.43 0.513737
6700.64 0.391902
6700.86 0.309750
6701.28 0.208412
6701.71 0.151044
6702.14 0.115492
6702.57 0.0920221
6703.42 0.0638755
6704.28 0.0484219
6705.99 0.0331091
6707.70 0.0263276
6709.41 0.0230252
6712.83 0.0208484
6719.68 0.0236197
6726.52 0.0328101
6729.94 0.0409169
6733.36 0.0531628
6736.79 0.0726074
6740.21 0.105898
6741.92 0.132157
6742.77 0.149173
6743.20 0.158951
6743.63 0.169702
6744.48 0.194827
6745.34 0.225930
6746.20 0.265129
6747.05 0.315305
6747.91 0.381026
6748.76 0.468982
6749.62 0.590300
6750.47 0.762708
6751.33 1.01749
6752.18 1.40826
6753.04 2.02952
6753.89 3.02266
6754.95 4.81354
6756.00 5.90918
6757.05 4.64565
6758.11 2.89247
6758.86 2.04223
6759.60 1.47902
6760.35 1.10492
6761.10 0.850091
6762.60 0.541805
6764.09 0.372777
6765.59 0.271231
6767.08 0.205901
6770.07 0.130133
6773.07 0.0896854
6776.06 0.0656667
6782.04 0.0398486
6788.02 0.0271267
6794.00 0.0202850
6799.99 0.0182675
6802.98 0.0265435
6804.47 0.0645399
6805.22 0.211673
6805.41 0.357065
6805.60 0.746627
6805.69 1.25246
6805.78 2.50987
6805.83 4.01965
6805.88 7.30056
6805.90 10.8278
6805.92 17.1072
6805.95 30.0765
6805.96 42.4551
6805.97 60.2605
6805.98 95.9768
6806.00 120.363
6806.02 95.9712
6806.03 60.2562
6806.04 45.1045
6806.05 33.6073
6806.07 20.5327
6806.09 13.5893
6806.11 9.57864
6806.15 5.44225
6806.18 3.48899
6806.26 1.77877
6806.34 1.07608
6806.49 0.518641
6806.64 0.306916
6807.25 0.0892276
6808.47 0.0309483
6810.90 0.0152620
6813.33 0.0117812
6815.76 0.0102061
6825.50 0.00764082
6835.23 0.00742187
6840.09 0.0112944
6842.53 0.0280102
6843.74 0.0928849
6844.35 0.332949
6844.50 0.562518
6844.66 1.15359
6844.73 1.87770
6844.81 3.56812
6844.85 5.40359
6844.88 9.04243
6844.90 12.3242
6844.92 17.5775
6844.94 26.4251
6844.96 42.0794
6844.98 67.7555
6845.00 84.2177
6845.02 67.7447
6845.04 42.0710
6845.05 31.1108
6845.07 23.0930
6845.09 13.9642
6845.12 9.04142
6845.14 6.35874
6845.19 3.56790
6845.24 2.27012
6845.35 1.14701
6845.45 0.690010
6845.65 0.329895
6845.86 0.193858
6846.67 0.0546533
6848.30 0.0177264
6851.57 0.00809476
6858.09 0.00548170
6871.14 0.00476617
6884.19 0.00496415
6897.23 0.00583858
6910.28 0.00794345
6916.81 0.00999063
6923.33 0.0135297
6929.85 0.0205115
6933.12 0.0269957
6936.38 0.0381436
6939.64 0.0603342
6941.27 0.0811553
6942.90 0.117109
6944.53 0.188196
6945.35 0.253667
6945.76 0.300882
6946.16 0.363150
6946.57 0.448077
6946.98 0.567759
6947.18 0.646819
6947.39 0.743837
6947.59 0.864593
6947.79 1.01648
6948.00 1.21296
6948.20 1.47133
6948.41 1.81921
6948.61 2.30029
6948.81 2.98543
6949.02 3.99107
6949.22 5.50423
6949.43 7.77181
6949.71 12.4607
6950.00 15.7649
6950.14 14.9611
6950.29 12.7940
6950.58 8.04757
6950.88 4.82263
6951.19 3.07618
6951.49 2.09798
6951.80 1.51285
6952.10 1.14055
6952.41 0.891059
6953.01 0.590709
6953.62 0.424755
6954.23 0.324827
6955.45 0.217642
6956.67 0.167533
6957.89 0.143953
6960.33 0.139085
6962.77 0.182129
6963.99 0.232335
6965.20 0.321513
6965.81 0.392217
6966.42 0.492516
6966.73 0.559109
6967.03 0.640938
6967.34 0.742831
6967.64 0.871158
6967.95 1.03666
6968.25 1.25366
6968.56 1.54454
6968.86 1.94259
6969.17 2.50546
6969.47 3.31976
6969.78 4.51905
6970.08 6.26399
6970.54 9.91499
6971.00 11.9318
6971.46 9.21006
6971.92 5.71109
6972.40 3.45879
6972.88 2.23071
6973.36 1.53327
6973.84 1.11132
6974.32 0.839146
6974.81 0.654996
6975.77 0.430472
6976.73 0.304377
6977.69 0.226930
6979.61 0.140691
6981.53 0.0962626
6983.46 0.0703957
6987.30 0.0429030
6991.15 0.0292956
6994.99 0.0215488
7002.68 0.0134751
7010.37 0.00956688
7018.06 0.00740375
7033.44 0.00533454
7048.83 0.00469522
7064.21 0.00511384
7071.90 0.00598194
7079.59 0.00799092
7083.43 0.0100677
7087.28 0.0141274
7089.20 0.0179775
7091.12 0.0251300
7092.09 0.0318816
7093.05 0.0453430
7094.01 0.0947326
7094.49 0.252962
7094.73 0.777924
7094.79 1.23975
7094.85 2.31864
7094.91 5.82405
7094.94 11.3172
7094.95 17.0365
7094.97 27.0937
7094.98 43.2047
7095.00 54.1227
7095.02 43.2011
7095.03 27.0916
7095.05 15.6292
7095.07 9.75950
7095.11 4.59915
7095.14 2.63877
7095.18 1.71137
7095.33 0.566398
7095.62 0.207399
7096.22 0.123447
7096.81 0.134372
7097.40 0.181460
7097.99 0.286379
7098.29 0.385211
7098.58 0.551433
7098.73 0.680146
7098.88 0.861019
7099.03 1.12579
7099.17 1.53378
7099.25 1.82487
7099.32 2.20482
7099.40 2.71162
7099.47 3.40412
7099.54 4.37516
7099.62 5.77199
7099.69 7.81986
7099.77 10.7636
7099.88 17.2387
7099.99 21.4798
7100.05 20.1693
7100.10 17.1328
7100.22 10.7284
7100.34 6.38405
7100.46 4.05378
7100.58 2.75415
7100.70 1.97814
7100.82 1.48459
7100.94 1.15370
7101.18 0.755231
7101.42 0.533130
7101.67 0.397927
7102.15 0.249548
7102.63 0.174422
7103.12 0.131772
7104.08 0.0886295
7105.05 0.0699095
7106.02 0.0621637
7107.95 0.0646319
7108.92 0.0738258
7109.88 0.0904809
7110.85 0.119542
7111.82 0.172714
7112.78 0.282154
7113.75 0.560416
7113.99 0.698086
7114.23 0.894143
7114.48 1.18624
7114.60 1.38877
7114.72 1.64483
7114.84 1.98052
7114.96 2.42741
7115.08 3.03813
7115.20 3.88959
7115.32 5.13765
7115.44 7.01924
7115.56 9.94044
7115.68 14.4333
7115.84 23.0012
7116.00 28.1215
7116.16 22.0050
7116.32 13.6993
7116.44 9.45916
7116.56 6.74738
7116.68 4.98327
7116.79 3.80097
7117.03 2.39424
7117.27 1.63488
7117.51 1.18380
7117.75 0.895665
7118.22 0.563649
7118.70 0.387534
7119.17 0.283264
7120.13 0.171305
7121.08 0.115648
7122.03 0.0840853
7122.98 0.0644674
7123.94 0.0514560
7125.84 0.0358399
7127.74 0.0272463
7131.55 0.0188094
7135.36 0.0153006
7139.17 0.0139848
7146.79 0.0150957
7150.60 0.0174407
7154.41 0.0215675
7158.22 0.0287475
7162.03 0.0420405
7163.93 0.0531962
7165.83 0.0700400
7167.74 0.0971552
7169.64 0.144768
7171.55 0.240091
7172.50 0.328134
7172.98 0.391608
7173.45 0.475438
7173.93 0.589516
7174.41 0.749329
7174.64 0.854450
7174.88 0.982958
7175.12 1.14216
7175.36 1.34235
7175.60 1.59836
7175.83 1.93202
7176.07 2.37624
7176.31 2.98169
7176.55 3.82776
7176.79 5.03899
7177.02 6.80271
7177.26 9.35439
7177.63 14.8977
7178.00 18.2427
7178.37 14.3024
7178.74 8.90116
7178.99 6.40998
7179.23 4.71918
7179.73 2.77506
7180.22 1.79338
7180.72 1.24448
7181.21 0.910726
7181.70 0.694029
7182.69 0.440379
7183.68 0.303827
7184.67 0.222211
7186.64 0.133838
7188.62 0.0896107
7190.60 0.0643820
7192.57 0.0486498
7194.55 0.0381849
7198.50 0.0255675
7202.45 0.0185441
7206.40 0.0142433
7210.36 0.0114283
7218.26 0.00813138
7226.16 0.00648333
7234.07 0.00632258
7238.02 0.00953773
7240.00 0.0234476
7240.98 0.0777141
7241.48 0.280544
7241.60 0.477677
7241.72 0.987501
7241.79 1.62730
7241.85 3.12302
7241.88 4.80943
7241.91 8.27253
7241.94 16.9106
7241.96 26.0749
7241.97 42.9795
7241.99 68.5225
7242.00 86.0306
7242.02 68.5221
7242.03 42.9793
7242.05 23.0877
7242.07 13.7656
7242.09 8.96929
7242.11 6.25615
7242.14 3.50868
7242.18 2.23208
7242.26 1.12760
7242.33 0.678171
7242.64 0.190141
7243.25 0.0531737
7244.46 0.0168282
7246.90 0.00738712
7251.77 0.00485568
7261.50 0.00415279
7271.24 0.00436584
7276.10 0.00534312
7278.54 0.00871961
7279.76 0.0214836
7280.36 0.0695312
7280.67 0.241359
7280.82 0.792971
7280.90 2.24352
7280.93 5.01556
7280.95 8.55409
7280.97 16.7491
7280.99 26.8265
7281.00 33.4775
7281.01 26.8251
7281.03 16.7480
7281.05 8.04438
7281.07 4.43246
7281.12 1.86143
7281.20 0.634402
7281.38 0.189638
7281.73 0.0548146
7282.42 0.0176899
7283.82 0.00806295
7286.60 0.00584780
7292.18 0.00602992
7297.75 0.00729073
7303.33 0.00978700
7308.90 0.0151725
7311.69 0.0205099
7314.48 0.0301548
7315.87 0.0382128
7317.27 0.0504147
7318.66 0.0701808
7320.05 0.105318
7320.75 0.134208
7321.45 0.177248
7322.15 0.245417
7322.84 0.362768
7323.54 0.590566
7323.89 0.794803
7324.06 0.938332
7324.24 1.12406
7324.41 1.37156
7324.59 1.70651
7324.76 2.17680
7324.93 2.86258
7325.11 3.90841
7325.28 5.58698
7325.37 6.81260
7325.46 8.42134
7325.54 10.5411
7325.63 13.3064
7325.82 21.2871
7326.00 26.4210
7326.09 24.7652
7326.19 20.9762
7326.37 13.0990
7326.59 7.48230
7326.80 4.61662
7327.02 3.07519
7327.23 2.18035
7327.45 1.61769
7327.67 1.24658
7328.10 0.802161
7328.53 0.557887
7328.96 0.410481
7329.82 0.249046
7330.68 0.167351
7331.55 0.120532
7332.41 0.0911950
7333.27 0.0716600
7335.00 0.0480576
7336.72 0.0349233
7338.45 0.0269017
7340.17 0.0216795
7343.62 0.0156666
7347.07 0.0129443
7350.52 0.0143470
7352.25 0.0268376
7353.11 0.0772278
7353.54 0.264365
7353.76 0.908518
7353.81 1.48013
7353.86 2.82319
7353.89 4.29249
7353.92 7.23247
7353.95 14.2363
7353.96 21.2606
7353.97 34.3686
7353.99 55.0515
7354.00 68.7054
7354.01 55.0521
7354.03 34.3691
7354.04 22.7191
7354.05 16.0154
7354.07 8.87941
7354.12 3.69772
7354.16 1.99268
7354.21 1.25250
7354.39 0.370976
7354.74 0.106681
7355.46 0.0338938
7356.89 0.0145778
7359.74 0.00932724
7365.46 0.00784299
7371.18 0.00793326
7376.89 0.00886492
7382.61 0.0111640
7385.47 0.0134401
7388.32 0.0174981
7391.18 0.0259242
7392.61 0.0341310
7394.04 0.0488124
7394.76 0.0609931
7395.47 0.0793022
7396.18 0.108794
7396.90 0.160701
7397.61 0.265583
7397.97 0.363386
7398.33 0.528966
7398.42 0.588903
7398.51 0.658853
7398.68 0.842210
7398.86 1.11595
7399.04 1.54358
7399.13 1.85810
7399.22 2.27119
7399.31 2.83326
7399.40 3.62069
7399.49 4.77616
7399.58 6.49273
7399.67 9.14475
7399.76 13.2629
7399.87 21.3099
7399.99 26.7778
7400.05 25.2789
7400.11 21.5068
7400.23 13.4732
7400.30 9.70791
7400.38 7.16845
7400.53 4.22864
7400.69 2.73726
7400.84 1.90177
7401.00 1.39070
7401.15 1.06133
7401.46 0.675589
7401.77 0.467375
7402.08 0.343435
7402.69 0.209125
7403.31 0.142047
7403.93 0.103887
7405.16 0.0645090
7406.39 0.0457797
7407.63 0.0356134
7410.09 0.0260648
7412.56 0.0230980
7415.03 0.0252490
7417.50 0.0467737
7418.73 0.133161
7419.04 0.220002
7419.35 0.456353
7419.50 0.767970
7419.66 1.57927
7419.73 2.58730
7419.81 4.98905
7419.85 7.70935
7419.89 13.1303
7419.91 18.4871
7419.93 26.9925
7419.94 41.9662
7419.96 69.8154
7419.98 112.514
7420.00 139.550
7420.02 112.511
7420.04 69.8128
7420.05 50.1887
7420.06 37.1239
7420.09 21.5284
7420.11 13.7778
7420.14 9.49567
7420.19 5.24988
7420.24 3.31419
7420.34 1.66320
7420.44 0.999251
7420.64 0.480203
7420.84 0.285361
7421.24 0.139805
7421.64 0.0870924
7423.24 0.0351704
7426.44 0.0229437
7429.64 0.0222247
7432.84 0.0237994
7439.23 0.0307697
7445.63 0.0442942
7452.03 0.0717755
7455.23 0.0970671
7456.83 0.115198
7458.43 0.138992
7459.23 0.153785
7460.03 0.171075
7460.83 0.191450
7461.63 0.215673
7462.43 0.244755
7463.23 0.280053
7464.03 0.323417
7464.83 0.377337
7465.63 0.445565
7466.43 0.533248
7467.23 0.648015
7468.03 0.801216
7468.83 1.00989
7469.63 1.29940
7470.43 1.70552
7471.23 2.26922
7472.62 3.61209
7474.00 4.43228
7475.39 3.48341
7476.77 2.16835
7478.10 1.36422
7479.42 0.902911
7480.75 0.631198
7482.07 0.462485
7484.72 0.276225
7487.37 0.182880
7490.02 0.130311
7492.67 0.0989860
7495.32 0.0853760
7496.64 0.108509
7497.30 0.222568
7497.63 0.636725
7497.72 1.01774
7497.80 1.94860
7497.84 3.03370
7497.88 5.28581
7497.92 11.2162
7497.95 18.4858
7497.97 32.5540
7497.98 52.4125
7498.00 65.0487
7498.02 52.4056
7498.03 32.5484
7498.05 22.2769
7498.06 15.4895
7498.09 8.42570
7498.12 5.20309
7498.15 3.51391
7498.20 1.91049
7498.26 1.21497
7498.37 0.627065
7498.48 0.394465
7498.92 0.146230
7499.81 0.0753163
7500.70 0.0590626
7501.59 0.0515124
7505.15 0.0376526
7512.27 0.0250091
7519.38 0.0183215
7526.50 0.0143471
7533.61 0.0119815
7540.73 0.0110496
7544.28 0.0115838
7547.84 0.0144557
7551.40 0.0322587
7553.18 0.103012
7553.62 0.174453
7554.07 0.370343
7554.29 0.632584
7554.51 1.32328
7554.62 2.19748
7554.73 4.33785
7554.79 6.83132
7554.84 12.0680
7554.87 17.2941
7554.90 26.5156
7554.93 44.3668
7554.94 59.5093
7554.96 80.5460
7554.98 129.403
7555.00 161.221
7555.02 129.389
7555.04 80.5347
7555.06 52.3195
7555.08 35.1603
7555.10 24.8212
7555.12 18.5616
7555.16 11.2517
7555.20 7.49459
7555.28 3.98225
7555.36 2.45864
7555.51 1.19928
7555.67 0.711004
7555.98 0.335006
7556.30 0.196288
7556.92 0.0932113
7557.55 0.0561660
7560.05 0.0195126
7565.05 0.00995708
7575.06 0.00750892
7585.07 0.00759058
7595.07 0.00894470
7605.08 0.0125658
7610.08 0.0163213
7615.09 0.0231706
7617.59 0.0288896
7620.09 0.0375169
7622.59 0.0513981
7625.09 0.0758159
7627.60 0.124901
7628.85 0.170510
7630.10 0.247319
7630.72 0.307109
7631.04 0.345507
7631.35 0.391413
7631.66 0.447267
7631.97 0.515884
7632.29 0.601378
7632.60 0.709225
7632.91 0.848650
7633.23 1.03214
7633.54 1.27935
7633.85 1.62001
7634.16 2.10620
7634.48 2.81569
7634.79 3.88103
7635.10 5.46467
7635.55 8.69945
7636.00 10.6606
7636.45 8.36266
7636.90 5.20144
7637.19 3.77713
7637.49 2.80058
7638.07 1.66525
7638.66 1.08419
7639.24 0.756428
7639.83 0.555952
7640.41 0.425244
7641.58 0.271635
7642.75 0.188590
7643.92 0.138907
7646.26 0.0850581
7648.60 0.0581360
7650.94 0.0428619
7655.62 0.0272494
7660.30 0.0201036
7664.99 0.0165901
7674.35 0.0148259
7683.71 0.0183682
7688.39 0.0232455
7693.07 0.0326213
7697.75 0.0525254
7700.09 0.0716621
7702.43 0.104863
7704.77 0.169860
7705.94 0.228406
7706.53 0.269840
7706.82 0.294970
7707.11 0.323668
7707.70 0.395263
7707.99 0.440298
7708.28 0.493173
7708.57 0.556217
7708.87 0.631578
7709.16 0.723216
7709.45 0.835135
7709.74 0.974456
7710.04 1.14898
7710.33 1.37221
7710.62 1.65984
7710.91 2.03812
7711.21 2.53750
7711.50 3.20356
7711.79 4.07463
7712.40 6.46653
7713.00 7.81334
7713.61 6.04594
7714.21 3.74907
7714.71 2.49711
7715.22 1.72790
7715.72 1.24774
7716.23 0.935932
7717.24 0.576471
7718.25 0.388217
7719.26 0.278545
7720.27 0.209421
7722.29 0.130772
7724.31 0.0895422
7726.33 0.0653118
7728.35 0.0498833
7730.37 0.0394637
7734.41 0.0266862
7738.45 0.0194505
7742.49 0.0149571
7746.53 0.0119795
7754.61 0.00841159
7762.69 0.00646359
7778.84 0.00467183
7795.00 0.00435102
7803.08 0.00473225
7811.16 0.00577294
7819.24 0.00832964
7823.28 0.0109764
7827.32 0.0158439
7829.34 0.0199444
7831.36 0.0261809
7833.38 0.0363209
7835.40 0.0544124
7836.41 0.0693226
7837.42 0.0915815
7838.43 0.126925
7839.44 0.187972
7840.45 0.307065
7840.95 0.414199
7841.21 0.490132
7841.33 0.535908
7841.46 0.588334
7841.71 0.719398
7841.96 0.897804
7842.22 1.15082
7842.34 1.31729
7842.47 1.52111
7842.59 1.77594
7842.72 2.09367
7842.85 2.49818
7842.97 3.02048
7843.10 3.70398
7843.22 4.60794
7843.35 5.80759
7843.48 7.38013
7843.74 11.7266
7844.00 14.2298
7844.26 11.0496
7844.52 6.85164
7844.83 3.89727
7845.14 2.40642
7845.45 1.60500
7845.76 1.13767
7846.07 0.844367
7846.37 0.650649
7846.99 0.419104
7847.61 0.291752
7848.22 0.214764
7849.46 0.130364
7850.69 0.0876164
7851.92 0.0630830
7853.15 0.0477008
7854.39 0.0374441
7856.85 0.0250347
7859.32 0.0181104
7861.78 0.0138673
7864.25 0.0110941
7869.18 0.00788469
7874.11 0.00645469
7876.57 0.00641021
7879.04 0.00755697
7881.50 0.0158754
7882.73 0.0494534
7883.35 0.175639
7883.66 0.617890
7883.73 1.01805
7883.81 1.98063
7883.85 3.08377
7883.89 5.31627
7883.93 11.1949
7883.95 17.7699
7883.97 30.6447
7883.98 49.3007
7884.00 61.2583
7884.02 49.2963
7884.03 30.6412
7884.05 17.7681
7884.07 10.9473
7884.11 5.14673
7884.15 2.93328
7884.19 1.88306
7884.27 0.960550
7884.35 0.580611
7884.67 0.164011
7885.31 0.0459734
7886.59 0.0144667
7889.15 0.00615300
7894.27 0.00379345
7899.38 0.00324651
7904.50 0.00309133
7914.73 0.00399952
7919.85 0.00850093
7922.41 0.0262512
7923.69 0.0948871
7924.33 0.352405
7924.49 0.602422
7924.65 1.25864
7924.73 2.08239
7924.81 4.07463
7924.85 6.33209
7924.89 11.0616
7924.91 15.5914
7924.93 23.3247
7924.95 37.5795
7924.96 64.9586
7924.98 102.942
7925.00 130.085
7925.02 102.944
7925.04 64.9600
7925.05 44.0403
7925.06 31.5135
7925.09 17.4727
7925.12 10.8879
7925.14 7.47465
7925.20 4.07475
7925.25 2.55066
7925.36 1.25871
7925.46 0.750399
7925.67 0.353496
7925.89 0.205884
7926.74 0.0556065
7928.44 0.0161613
7931.84 0.00617040
7938.64 0.00401040
7945.44 0.00426738
7952.25 0.00550648
7959.05 0.00848626
7962.45 0.0115051
7965.85 0.0169889
7967.55 0.0215726
7969.26 0.0285045
7970.96 0.0397020
7972.66 0.0595107
7973.51 0.0757192
7974.36 0.0997048
7975.21 0.137449
7976.06 0.201621
7976.48 0.252182
7976.91 0.324150
7977.12 0.372307
7977.33 0.431615
7977.55 0.506492
7977.76 0.601793
7977.97 0.726742
7978.18 0.892844
7978.40 1.12186
7978.61 1.44448
7978.82 1.91971
7979.03 2.63928
7979.25 3.77473
7979.46 5.55271
7979.73 8.83003
7980.00 10.7421
7980.27 8.36979
7980.54 5.20275
7980.85 3.01441
7981.16 1.88145
7981.47 1.26356
7981.77 0.899800
7982.08 0.670605
7982.39 0.517936
7983.01 0.334650
7983.62 0.233546
7984.24 0.172140
7985.47 0.104708
7986.70 0.0704737
7987.93 0.0507893
7989.16 0.0384530
7990.40 0.0302274
7992.86 0.0202836
7995.32 0.0147604
7997.79 0.0114039
8000.25 0.00924847
8005.18 0.00691030
8010.10 0.00633478
8012.57 0.00700690
8015.03 0.00978839
8017.49 0.0258233
8018.73 0.0879958
8019.34 0.317667
8019.50 0.537010
8019.65 1.10081
8019.73 1.78993
8019.80 3.39293
8019.84 5.15575
8019.88 8.53735
8019.92 16.2781
8019.94 24.0884
8019.96 37.5438
8019.98 60.3755
8020.00 75.0158
8020.02 60.3630
8020.04 37.5340
8020.06 24.0827
8020.08 16.2747
8020.12 8.41031
8020.16 5.03503
8020.20 3.32755
8020.28 1.75214
8020.35 1.07651
8020.51 0.524661
8020.67 0.311168
8021.29 0.0863775
8022.53 0.0255235
8025.02 0.0100253
8030.00 0.00826756
8034.97 0.0209866
8037.46 0.0740577
8038.08 0.127896
8038.70 0.276801
8039.01 0.476613
8039.33 1.01097
8039.48 1.70117
8039.64 3.41930
8039.71 5.46637
8039.79 9.94378
8039.83 14.5744
8039.87 23.1299
8039.89 30.5162
8039.91 40.9337
8039.93 56.6539
8039.95 81.6466
8039.97 129.797
8040.00 163.181
8040.03 129.789
8040.05 81.6406
8040.08 52.7714
8040.10 36.0328
8040.12 25.3959
8040.15 18.9205
8040.19 11.4286
8040.24 7.59357
8040.34 4.02134
8040.43 2.48824
8040.62 1.21584
8040.80 0.718090
8041.18 0.335400
8041.55 0.194262
8042.30 0.0895916
8043.05 0.0519525
8046.04 0.0147660
8052.03 0.00520468
8064.01 0.00294086
8075.99 0.00365765
8081.97 0.00773393
8084.97 0.0235572
8086.47 0.0847059
8087.21 0.315396
8087.40 0.540317
8087.59 1.13426
8087.68 1.89154
8087.78 3.72423
8087.82 5.85331
8087.87 10.4250
8087.89 15.0490
8087.92 22.8420
8087.94 37.6404
8087.95 50.6211
8087.96 67.8552
8087.98 108.383
8088.00 135.782
8088.02 108.341
8088.04 67.8229
8088.06 38.5300
8088.08 23.7639
8088.10 15.8224
8088.13 11.1963
8088.17 6.31828
8088.22 4.06734
8088.30 2.06669
8088.39 1.24530
8088.57 0.594174
8088.75 0.347076
8089.11 0.161145
8089.46 0.0933970
8090.88 0.0260793
8093.73 0.00890325
8099.42 0.00511995
8105.12 0.00537960
8110.81 0.00710425
8113.66 0.00873441
8116.51 0.0112934
8119.35 0.0155414
8122.20 0.0232667
8123.62 0.0297365
8125.05 0.0395287
8126.47 0.0553918
8127.89 0.0835437
8128.60 0.106642
8129.32 0.140976
8130.03 0.195178
8130.74 0.287859
8131.45 0.466519
8131.81 0.625023
8132.16 0.877957
8132.34 1.06557
8132.52 1.31859
8132.70 1.67003
8132.87 2.17533
8133.05 2.93138
8133.23 4.11330
8133.32 4.95516
8133.41 6.03696
8133.50 7.42807
8133.59 9.17368
8133.79 14.6092
8134.00 17.8611
8134.21 13.9854
8134.42 8.70731
8134.61 5.54551
8134.80 3.71111
8134.99 2.60983
8135.19 1.92216
8135.57 1.15332
8135.96 0.763539
8136.34 0.541161
8136.73 0.403014
8137.50 0.247997
8138.27 0.167814
8139.04 0.121113
8139.81 0.0915730
8140.58 0.0717200
8142.12 0.0475333
8143.66 0.0339268
8145.20 0.0255246
8146.73 0.0199797
8149.81 0.0133422
8152.89 0.00968007
8155.97 0.00745117
8159.05 0.00599941
8165.21 0.00429749
8171.37 0.00339441
8183.69 0.00258389
8196.01 0.00236766
8208.32 0.00251563
8214.48 0.00277109
8220.64 0.00334620
8226.80 0.00568946
8229.88 0.0140290
8231.42 0.0458370
8232.19 0.165420
8232.58 0.590056
8232.67 0.978267
8232.77 1.92505
8232.82 3.00923
8232.86 5.31379
8232.91 11.4645
8232.94 18.8837
8232.96 34.5916
8232.98 54.8580
8233.00 69.1007
8233.02 54.8460
8233.04 34.5823
8233.06 23.3078
8233.07 16.5227
8233.10 9.06437
8233.13 5.61326
8233.16 3.83243
8233.22 2.07845
8233.28 1.29768
8233.41 0.639696
8233.53 0.381457
8234.02 0.105896
8235.00 0.0301273
8236.95 0.0104287
8240.87 0.00573237
8244.78 0.00526773
8248.70 0.00554848
8256.53 0.00712792
8264.36 0.0103237
8268.27 0.0130251
8272.19 0.0171083
8276.10 0.0236836
8280.02 0.0352645
8281.97 0.0446933
8283.93 0.0586031
8287.85 0.117187
8288.83 0.145965
8289.80 0.186799
8290.29 0.213959
8290.78 0.247371
8291.27 0.289160
8291.76 0.342310
8292.25 0.411372
8292.74 0.502727
8293.23 0.626864
8293.72 0.800435
8294.21 1.05156
8294.70 1.42543
8295.19 1.99805
8295.68 2.87442
8296.34 4.57579
8297.00 5.60136
8297.66 4.39022
8298.33 2.73145
8299.11 1.54945
8299.89 0.953527
8300.68 0.634300
8301.46 0.449122
8302.25 0.333412
8303.03 0.256985
8304.60 0.165851
8306.17 0.115988
8307.74 0.0859095
8310.88 0.0531980
8314.02 0.0369581
8317.15 0.0279914
8320.29 0.0228293
8323.43 0.0199974
8329.71 0.0194579
8332.84 0.0221928
8335.98 0.0287289
8339.12 0.0439937
8340.69 0.0593769
8342.26 0.0870327
8343.04 0.109850
8343.83 0.143804
8344.61 0.197563
8345.40 0.289625
8346.18 0.467226
8346.57 0.624589
8346.96 0.876425
8347.16 1.06378
8347.36 1.31518
8347.55 1.66405
8347.65 1.89080
8347.75 2.16490
8347.85 2.49959
8347.95 2.91256
8348.04 3.42767
8348.14 4.07691
8348.24 4.90276
8348.34 5.95954
8348.44 7.31086
8348.53 9.01513
8348.77 14.2737
8349.00 17.0559
8349.23 13.0630
8349.47 8.08680
8349.62 5.87845
8349.77 4.37558
8350.07 2.61342
8350.38 1.70708
8350.68 1.19490
8350.98 0.879250
8351.28 0.672908
8351.89 0.429988
8352.50 0.298033
8353.10 0.218901
8354.31 0.132703
8355.52 0.0893377
8356.73 0.0644971
8357.94 0.0489470
8359.16 0.0385629
8361.58 0.0259665
8364.00 0.0188828
8366.42 0.0144884
8368.84 0.0115642
8373.69 0.00800743
8378.53 0.00598763
8388.22 0.00386033
8397.90 0.00281244
8407.59 0.00227382
8412.44 0.00218544
8417.28 0.00239532
8422.12 0.00436828
8424.54 0.0126793
8425.76 0.0450838
8426.36 0.166294
8426.66 0.591705
8426.81 1.89502
8426.85 2.93647
8426.89 5.10433
8426.93 10.6552
8426.95 17.0079
8426.97 28.8187
8426.98 46.2962
8427.00 57.6849
8427.02 46.2875
8427.03 28.8119
8427.05 17.4646
8427.07 11.1513
8427.11 5.45891
8427.18 2.08521
8427.32 0.655337
8427.61 0.185838
8428.18 0.0503816
8429.32 0.0139708
8431.60 0.00449049
8436.16 0.00199746
8445.28 0.00123831
8463.52 0.000867137
8500.00 0.000577021
8500.00 0.346259
9000.00 0.333923
10000.0 0.306957
11000.0 0.289648
12000.0 0.276513
13000.0 0.264333
14000.0 0.250370
15000.0 0.237892
16000.0 0.231400
17000.0 0.224907
18000.0 0.219928
20000.0 0.209970
22000.0 0.204030
22500.0 0.201742
25000.0 0.190301
27500.0 0.184412
30000.0 0.178522
32500.0 0.173468
35000.0 0.168413
37500.0 0.164356
40000.0 0.160299
45000.0 0.155721
50000.0 0.149489
55000.0 0.146130
60000.0 0.143059
65000.0 0.140703
70000.0 0.138543
80000.0 0.135339
90000.0 0.132303
95000.0 0.131167
99999.9 0.129225
123245 0.101932
130000 0.0940004
140000 0.0790736
150000 0.0708348
160000 0.0664301
170000 0.0626782
180000 0.0604640
190000 0.0587022
200000 0.0573114
220000 0.0545345
250000 0.0525295
300000 0.0485300
398701 0.0471386
400000 0.0471203
500000 0.0474467
520000 0.0471050
550000 0.0470788
600000 0.0466686
610000 0.0464795
620000 0.0463146
630000 0.0462776
650000 0.0465036
693000 0.0472023
700000 0.0473160
741862 0.0478299
750000 0.0479298
812996 0.0471401
850000 0.0466762
866756 0.0464273
886784 0.0461298
900000 0.0459335
957908 0.0441748
1.00000E+06 0.0428965
1.01213E+06 0.0425566
1.02040E+06 0.0423248
1.03629E+06 0.0418795
1.05100E+06 0.0414673
1.10000E+06 0.0400942
1.20000E+06 0.0375896
1.30000E+06 0.0357204
1.40000E+06 0.0340895
1.50000E+06 0.0330475
1.60000E+06 0.0316689
1.70000E+06 0.0313836
1.80000E+06 0.0309054
2.00000E+06 0.0302434
2.10000E+06 0.0294387
2.20000E+06 0.0286998
2.30000E+06 0.0274931
2.50000E+06 0.0247887
2.75000E+06 0.0212499
3.00000E+06 0.0182976
3.50000E+06 0.0134982
4.00000E+06 0.00980178
4.50000E+06 0.00694192
5.00000E+06 0.00486028
5.50000E+06 0.00317944
6.00000E+06 0.00203735
6.50000E+06 0.00139387
7.00000E+06 0.00109803
7.23302E+06 0.00103354
7.43149E+06 0.000978619
7.50000E+06 0.000959661
8.00000E+06 0.000951834
8.20000E+06 0.000971506
8.40000E+06 0.000999030
8.60000E+06 0.00103967
9.00000E+06 0.00112097
1.00000E+07 0.00134460
1.05000E+07 0.00147369
1.10000E+07 0.00158460
1.15000E+07 0.00165662
1.20000E+07 0.00168147
1.25000E+07 0.00165977
1.30000E+07 0.00159613
1.30172E+07 0.00159282
1.35000E+07 0.00150011
1.40000E+07 0.00138946
1.45000E+07 0.00127289
1.50000E+07 0.00114934
1.55000E+07 0.00101792
1.60000E+07 0.000912118
1.70000E+07 0.000712810
1.80000E+07 0.000550696
1.90000E+07 0.000441574
2.00000E+07 0.000358341
2.04684E+07 0.000333236
2.07796E+07 0.000316559
2.20000E+07 0.000251155
2.40000E+07 0.000184866
2.80000E+07 0.000107584
3.20000E+07 6.60159E-05
3.50000E+07 4.68837E-05
3.80000E+07 3.36402E-05
4.50000E+07 1.55901E-05
5.00000E+07 9.57515E-06
5.50000E+07 6.21022E-06
6.00000E+07 4.02931E-06
6.32659E+07 3.35318E-06
6.57966E+07 2.82926E-06
6.84284E+07 2.28440E-06
7.00000E+07 1.95904E-06
7.11656E+07 1.85951E-06
7.40122E+07 1.61645E-06
7.69727E+07 1.36366E-06
8.00000E+07 1.10517E-06
8.00516E+07 1.10225E-06
8.32536E+07 9.21158E-07
8.65838E+07 7.32815E-07
9.00000E+07 5.39607E-07
9.00471E+07 5.38564E-07
9.36490E+07 4.58766E-07
9.73950E+07 3.75776E-07
1.00000E+08 3.18064E-07
1.01291E+08 3.02680E-07
1.05342E+08 2.54405E-07
1.09556E+08 2.04188E-07
1.13938E+08 1.51969E-07
1.15000E+08 1.39313E-07
1.18496E+08 1.24459E-07
1.23236E+08 1.04320E-07
1.28165E+08 8.33779E-08
1.30000E+08 7.55814E-08
1.33292E+08 6.86750E-08
1.38623E+08 5.74909E-08
1.44168E+08 4.58578E-08
1.49935E+08 3.37590E-08
1.50000E+08 3.36226E-08