W-182(n,g) ENDF/B-VII.1
Energy(eV) XS(b)
1.00000E-05 1035.79
1.25000E-05 926.440
1.50000E-05 845.721
2.00000E-05 732.416
2.75000E-05 624.608
3.50000E-05 553.657
4.25000E-05 502.436
5.00000E-05 463.224
6.25000E-05 414.321
7.50000E-05 378.223
0.000100000 327.552
0.000125000 292.973
0.000150000 267.448
0.000200000 231.620
0.000275000 197.529
0.000350000 175.094
0.000425000 158.898
0.000500000 146.499
0.000625000 131.036
0.000750000 119.622
0.00100000 103.602
0.00125000 92.6692
0.00150000 84.5996
0.00200000 73.2735
0.00275000 62.4981
0.00350000 55.4078
0.00425000 50.2901
0.00500000 46.3728
0.00625000 41.4885
0.00750000 37.8841
0.0100000 32.8267
0.0125000 29.3773
0.0150000 26.8325
0.0200000 23.2633
0.0253000 20.7080
0.0314750 18.5914
0.0376500 17.0220
0.0500000 14.8119
0.0625000 13.2855
0.0750000 12.1624
0.100000 10.5934
0.125000 9.53009
0.150000 8.75089
0.200000 7.66954
0.275000 6.66253
0.350000 6.02000
0.500000 5.24526
0.750000 4.61632
1.00000 4.35575
1.50000 4.39975
2.00000 5.09276
2.53130 7.05158
2.79695 9.08708
3.06260 12.8091
3.19543 15.9288
3.32825 20.6599
3.46108 28.3394
3.59390 42.0589
3.66031 53.3946
3.72673 70.3901
3.79314 97.5741
3.85955 145.112
3.89276 183.539
3.90936 208.865
3.91766 223.571
3.92596 239.905
3.93427 258.122
3.94257 278.516
3.95087 301.453
3.95917 327.366
3.96747 356.798
3.97577 390.404
3.98407 429.018
3.99238 473.668
4.00898 586.757
4.02558 745.595
4.04219 978.153
4.05879 1336.83
4.06709 1593.08
4.07539 1927.94
4.08369 2375.43
4.09199 2988.26
4.10030 3850.44
4.10860 5095.83
4.11690 6932.29
4.12520 9633.62
4.13760 15399.0
4.15000 19225.9
4.16240 15350.6
4.17480 9574.27
4.18769 5774.05
4.20059 3697.33
4.21348 2522.78
4.22638 1814.72
4.23927 1361.33
4.25216 1055.92
4.27795 685.330
4.30374 478.917
4.32953 352.832
4.38110 213.669
4.43268 142.872
4.48425 102.120
4.53583 76.5780
4.58740 59.5399
4.69055 38.9657
4.79370 27.5130
4.89685 20.5043
5.00000 15.9134
5.15625 11.4903
5.31250 8.75104
5.62500 5.68794
5.93750 4.11376
6.25000 3.20570
6.87500 2.26528
7.50000 1.82760
8.75000 1.48901
10.0000 1.43316
12.5000 1.74274
13.7500 2.14041
15.0000 2.84518
16.2500 4.18978
16.8750 5.35723
17.5000 7.18713
18.1250 10.2930
18.2813 11.4106
18.4375 12.7319
18.5156 13.4848
18.5938 14.3096
18.6328 14.7521
18.6524 14.9813
18.6719 15.2161
18.6914 15.4567
18.7109 15.7033
18.7305 15.9560
18.7500 16.2151
18.7695 16.4810
18.7891 16.7536
18.8086 17.0332
18.8281 17.3201
18.8672 17.9169
18.9063 18.5462
18.9844 19.9124
19.0625 21.4403
19.1406 23.1573
19.2188 25.0953
19.3750 29.8042
19.5313 36.0168
19.6875 44.4511
19.8438 56.3120
20.0000 73.7482
20.1259 94.5497
20.2518 125.707
20.3776 175.451
20.5035 262.113
20.5664 331.867
20.6294 433.708
20.6923 590.675
20.7553 850.570
20.8182 1326.01
20.8497 1725.71
20.8811 2331.33
20.9126 3304.57
20.9441 4986.45
20.9755 8143.72
20.9913 10745.2
21.0070 14402.4
21.0335 23026.3
21.0600 28750.8
21.0865 22975.1
21.1130 14348.8
21.1412 8566.76
21.1694 5446.99
21.1976 3699.55
21.2258 2653.13
21.2541 1986.27
21.2823 1538.53
21.3387 996.957
21.3951 696.164
21.4515 512.709
21.5644 310.439
21.6772 207.572
21.7900 148.335
21.9029 111.175
22.0157 86.3609
22.2414 56.3429
22.4671 39.5866
22.6928 29.3019
22.9184 22.5446
23.3698 14.5076
23.8212 10.0993
24.2725 7.42758
24.7239 5.68931
25.6266 3.64374
26.5293 2.53459
27.4320 1.86822
28.3348 1.43762
30.1402 0.934613
31.9456 0.663928
33.7511 0.502114
35.5565 0.397905
39.1674 0.276594
42.7783 0.211711
50.0000 0.149556
56.2500 0.126816
62.5000 0.117838
75.0000 0.128125
81.2500 0.150467
87.5000 0.195138
93.7500 0.290131
96.8750 0.380815
100.000 0.537033
101.767 0.681005
102.650 0.778545
103.092 0.836127
103.313 0.867530
103.533 0.900871
103.754 0.936329
103.975 0.974054
104.085 0.993834
104.196 1.01426
104.417 1.05717
104.638 1.10306
104.858 1.15217
105.079 1.20481
105.300 1.26135
105.742 1.38779
106.183 1.53524
106.625 1.70874
107.067 1.91472
107.508 2.16197
107.950 2.46226
108.392 2.83196
108.833 3.29417
109.275 3.88293
109.717 4.64873
110.158 5.67105
110.600 7.07818
111.042 9.09191
111.483 12.1172
111.925 16.9678
112.366 25.4659
112.587 32.3474
112.808 42.4448
113.029 58.1192
113.250 84.3394
113.471 133.066
113.581 174.673
113.691 238.739
113.802 344.044
113.912 532.133
113.967 684.373
114.023 903.352
114.078 1224.48
114.133 1694.05
114.217 2706.42
114.300 3386.69
114.384 2712.35
114.468 1692.70
114.552 1042.13
114.635 677.860
114.719 467.480
114.802 339.004
114.886 255.796
114.969 199.378
115.136 130.348
115.303 91.5541
115.470 67.7295
115.805 41.2636
116.139 27.7116
116.473 19.8719
116.807 14.9375
117.141 11.6339
117.809 7.62549
118.477 5.38124
119.146 4.00025
119.814 3.09097
121.150 2.00667
122.487 1.41019
123.823 1.04780
125.160 0.811564
127.832 0.533045
130.505 0.381925
133.178 0.291340
135.851 0.233174
141.197 0.166539
146.543 0.132725
157.234 0.106474
167.926 0.107314
178.617 0.130113
189.309 0.192022
191.981 0.220251
193.318 0.237728
194.654 0.258107
195.323 0.269593
195.991 0.282077
196.659 0.295682
197.327 0.310549
197.995 0.326844
198.664 0.344760
198.998 0.354396
199.332 0.364527
200.000 0.386416
200.798 0.415810
201.597 0.449385
202.395 0.488003
203.193 0.532761
204.790 0.646881
206.386 0.809818
207.983 1.05595
209.579 1.45996
210.378 1.77558
211.176 2.25155
211.575 2.62246
211.974 3.26027
212.174 3.89084
212.373 5.31960
212.473 7.03906
212.523 8.61953
212.573 11.2935
212.623 16.4050
212.648 20.9420
212.673 28.1844
212.698 40.8712
212.722 65.6290
212.735 87.7741
212.747 122.462
212.760 180.282
212.772 276.725
212.786 441.033
212.800 551.905
212.814 443.337
212.821 354.926
212.828 278.551
212.837 199.923
212.847 146.935
212.866 87.0019
212.885 57.0012
212.904 40.4949
212.923 30.4858
212.942 24.0655
212.979 16.5894
213.017 12.6122
213.055 10.2669
213.131 7.79127
213.283 6.01042
213.434 5.51970
214.041 6.15100
214.647 8.22299
215.253 11.9861
215.557 14.9997
215.860 19.3499
216.163 25.9401
216.466 36.5814
216.769 55.3104
216.921 70.4434
217.073 92.4861
217.224 126.063
217.376 179.900
217.527 270.795
217.679 427.924
217.840 685.621
218.000 866.110
218.161 700.456
218.322 438.604
218.436 309.238
218.550 223.384
218.664 166.379
218.778 127.681
219.006 81.0210
219.234 55.5576
219.461 40.3233
219.689 30.5562
220.145 19.2603
220.601 13.2535
221.056 9.69636
221.968 5.88256
222.879 3.99829
223.791 2.93924
224.702 2.29161
225.614 1.87269
227.436 1.40032
229.259 1.18444
231.082 1.11073
232.905 1.14024
233.817 1.19195
234.728 1.27110
235.184 1.32236
235.412 1.35125
235.639 1.38246
235.867 1.41616
236.095 1.45246
236.323 1.49157
236.551 1.53366
236.779 1.57896
237.007 1.62769
237.235 1.68013
237.462 1.73653
237.918 1.86268
238.374 2.00925
238.829 2.18019
239.285 2.38048
240.197 2.89678
241.108 3.63760
242.019 4.74644
242.931 6.50528
243.387 7.79627
243.842 9.52776
244.298 11.9235
244.754 15.3660
245.210 20.5582
245.665 28.8949
246.121 43.4481
246.349 55.1110
246.577 71.9496
246.805 97.3184
247.032 137.328
247.260 203.370
247.488 313.922
247.744 501.111
248.000 622.052
248.256 494.311
248.512 308.364
248.770 189.110
249.028 122.693
249.286 84.5123
249.544 61.2320
249.802 46.1904
250.060 35.9942
250.576 23.5320
251.093 16.5400
251.609 12.2458
252.641 7.47949
253.673 5.03870
254.705 3.62618
255.737 2.73649
256.769 2.14027
258.834 1.41549
260.898 1.00825
262.962 0.756626
265.027 0.590181
269.155 0.390264
273.284 0.279078
277.413 0.210801
281.541 0.165863
289.799 0.112450
298.056 0.0841187
306.313 0.0733109
308.378 0.0771985
310.442 0.0945966
311.474 0.121470
311.990 0.149007
312.506 0.199852
313.023 0.309134
313.281 0.417961
313.539 0.615570
313.668 0.781405
313.797 1.03316
313.926 1.44256
314.055 2.17479
314.119 2.77954
314.184 3.68484
314.248 5.12797
314.313 7.63547
314.377 12.5743
314.410 17.0730
314.442 24.4473
314.474 37.8307
314.490 48.9195
314.506 65.5106
314.514 77.1094
314.522 91.9184
314.531 111.152
314.539 136.227
314.547 170.364
314.555 216.429
314.563 280.777
314.571 367.741
314.578 471.608
314.585 588.477
314.600 733.760
314.607 689.727
314.615 586.358
314.629 366.072
314.645 222.345
314.660 143.568
314.675 98.5806
314.690 71.2618
314.705 53.6743
314.720 41.7757
314.750 27.2698
314.780 19.1284
314.810 14.1557
314.870 8.64163
314.930 5.81757
314.990 4.18785
315.050 3.16200
315.110 2.47500
315.230 1.64052
315.350 1.17320
315.470 0.885058
315.590 0.695248
315.830 0.468248
316.070 0.342987
316.550 0.216523
317.031 0.157032
317.511 0.124297
318.471 0.0911473
320.392 0.0664029
322.313 0.0569164
329.997 0.0454833
337.680 0.0433061
345.364 0.0459351
353.048 0.0565918
356.890 0.0686609
360.731 0.0915532
364.573 0.141390
366.494 0.191342
368.415 0.282662
369.375 0.359745
370.336 0.477631
371.296 0.671236
372.257 1.02259
372.737 1.31726
373.217 1.76498
373.457 2.08173
373.577 2.27369
373.697 2.49368
373.818 2.74786
373.938 3.04318
374.058 3.38963
374.178 3.79900
374.298 4.28837
374.418 4.87948
374.538 5.60260
374.658 6.49929
374.778 7.63183
374.898 9.08800
375.018 11.0071
375.138 13.6030
375.258 17.2409
375.378 22.5499
375.498 30.7418
375.618 44.2983
375.678 54.6877
375.738 69.1138
375.798 89.9538
375.858 121.510
375.919 172.280
375.979 259.790
376.039 423.738
376.069 558.636
376.099 748.079
376.149 1197.62
376.200 1497.91
376.251 1199.06
376.302 749.866
376.352 460.760
376.403 299.371
376.454 206.401
376.505 149.609
376.556 112.837
376.607 87.9414
376.708 57.4975
376.810 40.3914
376.911 29.8929
377.115 18.2293
377.318 12.2564
377.521 8.80017
377.725 6.62402
377.928 5.16704
378.334 3.39726
378.741 2.40522
379.148 1.79415
379.554 1.39146
380.367 0.910445
381.180 0.645283
381.994 0.483847
382.807 0.378428
384.433 0.253868
386.059 0.186153
387.686 0.145576
389.312 0.119620
392.565 0.0903983
395.817 0.0766006
402.322 0.0710329
408.828 0.0883434
412.080 0.111102
415.333 0.155170
416.959 0.193091
418.585 0.251518
420.212 0.347908
421.838 0.523395
422.651 0.670813
423.464 0.895114
423.668 0.969558
423.871 1.05400
424.074 1.15032
424.277 1.26084
424.481 1.38850
424.684 1.53705
424.887 1.71128
425.091 1.91738
425.294 2.16387
425.497 2.46187
425.700 2.82680
425.904 3.28029
426.107 3.85344
426.310 4.59233
426.514 5.56745
426.717 6.89035
426.920 8.74986
427.123 11.4779
427.327 15.7091
427.530 22.7729
427.632 28.2274
427.733 35.8652
427.835 47.0250
427.937 64.1429
428.038 92.1930
428.140 141.935
428.191 181.936
428.241 239.123
428.292 322.364
428.343 443.080
428.422 707.872
428.500 885.506
428.579 708.962
428.658 442.464
428.712 315.673
428.766 230.351
428.820 173.005
428.874 133.605
428.982 85.5386
429.090 58.9674
429.198 42.9405
429.306 32.5961
429.522 20.5635
429.738 14.1202
429.954 10.2846
430.170 7.82152
430.386 6.14834
430.818 4.08574
431.250 2.91265
431.682 2.18265
432.114 1.69790
432.977 1.11458
433.841 0.790560
434.705 0.592289
435.569 0.462311
437.297 0.308092
439.025 0.223883
440.752 0.173233
442.480 0.140721
445.936 0.103904
449.391 0.0862818
456.302 0.0783627
463.213 0.0984667
466.669 0.125619
470.124 0.178499
471.852 0.224056
473.580 0.294189
475.307 0.409610
476.171 0.497327
476.603 0.552837
477.035 0.618691
477.467 0.697638
477.683 0.743122
477.899 0.793332
478.115 0.848999
478.331 0.910913
478.547 0.980042
478.763 1.05751
478.979 1.14480
479.195 1.24360
479.627 1.48459
480.059 1.80444
480.491 2.24167
480.923 2.86162
481.354 3.78150
481.786 5.23114
482.002 6.29085
482.218 7.70723
482.434 9.66102
482.650 12.4584
482.866 16.6578
483.082 23.3540
483.298 34.9402
483.406 44.1379
483.514 57.2916
483.622 76.8863
483.730 107.331
483.838 156.559
483.946 236.992
484.073 378.702
484.200 473.066
484.328 378.216
484.455 236.100
484.577 148.369
484.698 97.9877
484.819 68.3178
484.941 49.9277
485.062 37.8952
485.184 29.6686
485.427 19.5185
485.670 13.7724
485.912 10.2220
486.398 6.25896
486.884 4.21941
487.370 3.03550
487.856 2.28846
488.341 1.78738
489.313 1.17793
490.284 0.835763
491.256 0.624709
492.228 0.485474
494.171 0.318975
496.114 0.227031
498.057 0.170962
500.000 0.134275
504.877 0.0834510
509.755 0.0589596
514.632 0.0454869
519.509 0.0375149
529.264 0.0299276
539.018 0.0289673
548.773 0.0350107
553.650 0.0430407
558.527 0.0588268
560.966 0.0725336
563.404 0.0937694
565.843 0.128989
568.282 0.193472
569.501 0.247898
570.720 0.331063
571.940 0.467390
573.159 0.714052
573.769 0.920189
574.073 1.05904
574.378 1.23231
574.531 1.33560
574.683 1.45248
574.835 1.58555
574.988 1.73792
575.140 1.91353
575.293 2.11734
575.445 2.35573
575.597 2.63696
575.750 2.97218
575.902 3.37558
576.055 3.86725
576.207 4.47492
576.360 5.23804
576.512 6.21437
576.664 7.49105
576.817 9.20453
576.969 11.5798
577.122 14.9989
577.274 20.1718
577.426 28.5158
577.579 43.1827
577.655 55.0173
577.731 72.2304
577.807 98.3944
577.884 140.210
577.960 210.447
578.036 330.875
578.118 529.542
578.200 662.817
578.282 530.975
578.364 331.959
578.439 212.502
578.514 142.308
578.589 100.178
578.664 73.7265
578.814 44.2043
578.964 29.2377
579.114 20.7024
579.263 15.4026
579.563 9.46045
579.863 6.38773
580.163 4.59917
580.463 3.46841
580.762 2.70896
581.362 1.78380
581.961 1.26366
582.561 0.942542
583.160 0.730533
584.359 0.476870
585.558 0.336738
586.758 0.251266
587.957 0.195341
590.355 0.129045
592.753 0.0927720
595.151 0.0708220
597.549 0.0565686
602.345 0.0399068
607.141 0.0311007
616.734 0.0234995
626.326 0.0230154
631.123 0.0255951
635.919 0.0318022
640.715 0.0465710
643.113 0.0618108
645.511 0.0900114
646.710 0.113968
647.909 0.150751
649.108 0.211395
650.307 0.321940
650.907 0.415003
651.506 0.556909
652.106 0.788954
652.705 1.20738
653.005 1.55593
653.155 1.79021
653.305 2.08205
653.455 2.45195
653.605 2.93040
653.680 3.22431
653.755 3.56437
653.830 3.96132
653.905 4.42855
653.980 4.98447
654.054 5.65107
654.129 6.46204
654.204 7.45926
654.279 8.70782
654.354 10.2948
654.429 12.3568
654.504 15.1025
654.579 18.8744
654.654 24.2326
654.729 32.2174
654.804 44.7884
654.879 66.1867
654.916 82.8871
654.954 106.339
654.991 140.598
655.029 192.210
655.066 272.903
655.104 399.092
655.152 639.159
655.200 800.465
655.248 641.595
655.297 401.387
655.327 295.275
655.357 221.067
655.416 133.051
655.476 87.1750
655.536 61.0159
655.596 44.8825
655.656 34.3347
655.776 21.8815
655.896 15.1191
656.016 11.0607
656.255 6.64632
656.495 4.42758
656.735 3.15969
656.974 2.36767
657.214 1.84060
657.693 1.20450
658.172 0.850057
658.652 0.632605
659.131 0.489684
660.090 0.319467
661.048 0.225837
662.007 0.168900
662.965 0.131720
664.883 0.0877349
666.800 0.0637213
668.717 0.0492244
670.634 0.0398540
674.469 0.0291501
678.303 0.0245481
680.220 0.0246158
682.138 0.0290282
683.096 0.0367356
683.575 0.0448062
684.055 0.0598308
684.534 0.0922585
684.774 0.124599
685.013 0.183341
685.253 0.307445
685.373 0.429032
685.493 0.646296
685.553 0.825921
685.613 1.09420
685.672 1.52133
685.732 2.26211
685.792 3.71693
685.822 5.03809
685.852 7.19585
685.882 11.0929
685.897 14.3169
685.912 19.0832
685.927 26.6083
685.942 39.1873
685.950 48.7303
685.957 61.6757
685.965 79.3839
685.972 103.036
685.979 132.221
685.986 165.089
686.000 206.099
686.007 193.752
686.014 164.676
686.028 103.079
686.037 75.1567
686.046 56.0291
686.064 33.4143
686.082 21.7697
686.100 15.1823
686.118 11.1467
686.136 8.51304
686.171 5.41552
686.207 3.74066
686.243 2.73685
686.315 1.64739
686.386 1.10107
686.458 0.789090
686.529 0.594429
686.601 0.465044
686.744 0.308738
686.887 0.221713
687.173 0.133158
687.460 0.0912661
687.746 0.0681832
688.319 0.0448691
688.891 0.0338576
689.464 0.0277526
690.609 0.0214740
692.900 0.0165850
695.190 0.0145700
704.353 0.0119206
722.677 0.0121002
731.839 0.0144356
736.420 0.0169761
741.001 0.0217106
745.582 0.0319137
747.873 0.0421091
750.163 0.0607494
751.309 0.0765054
752.454 0.100652
753.599 0.140430
754.745 0.212974
755.317 0.274123
755.890 0.367512
756.462 0.520592
757.035 0.797660
757.321 1.02940
757.608 1.38042
757.751 1.62818
757.894 1.94941
758.037 2.37693
758.180 2.96240
758.252 3.34032
758.324 3.79561
758.395 4.35087
758.467 5.03653
758.538 5.89937
758.610 7.00429
758.681 8.45074
758.753 10.3916
758.825 13.0875
758.896 16.9785
758.968 22.8818
759.039 32.4237
759.111 49.3087
759.147 63.0113
759.182 83.0534
759.218 113.747
759.254 163.313
759.290 247.772
759.326 394.761
759.363 632.759
759.400 794.559
759.437 638.554
759.475 399.807
759.518 228.021
759.561 140.510
759.605 93.3889
759.648 66.0423
759.691 48.9260
759.735 37.6295
759.821 24.1461
759.908 16.7621
759.995 12.2996
760.168 7.41933
760.342 4.95502
760.515 3.54167
760.688 2.65719
760.862 2.06740
761.209 1.35461
761.555 0.956808
761.902 0.712495
762.249 0.551843
762.942 0.360333
763.636 0.254966
764.330 0.190915
765.023 0.149135
766.410 0.0998394
767.797 0.0731356
769.185 0.0572645
770.572 0.0473285
773.346 0.0374210
776.120 0.0380115
777.508 0.0459576
778.201 0.0552155
778.895 0.0730299
779.588 0.112197
779.935 0.151586
780.282 0.223567
780.455 0.284191
780.629 0.376626
780.802 0.527648
780.975 0.799508
781.062 1.02547
781.149 1.36584
781.236 1.91300
781.322 2.87539
781.366 3.65806
781.409 4.80786
781.452 6.60434
781.496 9.61942
781.539 15.2800
781.550 17.4817
781.561 20.1601
781.572 23.4916
781.582 27.7013
781.593 33.1739
781.604 40.3020
781.615 49.8809
781.626 63.0919
781.637 82.0458
781.647 109.524
781.658 150.595
781.669 211.951
781.677 271.517
781.685 339.642
781.700 424.475
781.708 399.617
781.716 339.523
781.731 212.537
781.741 155.246
781.751 115.540
781.771 68.9013
781.791 44.8843
781.810 31.2975
781.830 22.9740
781.850 17.5423
781.889 11.1654
781.929 7.70644
781.969 5.63385
782.048 3.38686
782.127 2.25852
782.206 1.61500
782.285 1.21335
782.364 0.946023
782.523 0.623381
782.681 0.443665
782.839 0.333411
782.997 0.260971
783.314 0.174582
783.630 0.127010
783.947 0.0980199
784.263 0.0790362
784.897 0.0564585
785.530 0.0440092
786.796 0.0313533
788.062 0.0252840
789.328 0.0218560
791.860 0.0182518
796.925 0.0154488
801.989 0.0144866
822.247 0.0153368
842.504 0.0208816
847.569 0.0241579
852.633 0.0309771
855.166 0.0389772
856.432 0.0465006
857.698 0.0598468
858.964 0.0878386
859.597 0.115496
860.230 0.165743
860.547 0.208041
860.863 0.272604
861.180 0.378444
861.496 0.570161
861.654 0.730676
861.813 0.974215
861.971 1.36972
862.129 2.07525
862.208 2.65766
862.287 3.52697
862.327 4.13330
862.367 4.90927
862.406 5.93007
862.446 7.30243
862.485 9.21839
862.505 10.4717
862.525 11.9982
862.545 13.8827
862.564 16.2454
862.584 19.2610
862.604 23.1679
862.624 28.4071
862.644 35.6071
862.663 45.8517
862.683 60.9604
862.703 84.6441
862.723 123.917
862.742 193.356
862.752 247.511
862.762 319.635
862.781 512.257
862.800 642.753
862.819 516.681
862.838 323.087
862.852 226.484
862.865 163.215
862.879 121.390
862.893 93.0387
862.920 58.9408
862.947 40.3564
862.974 29.2202
863.001 22.1113
863.056 13.8905
863.110 9.51033
863.165 6.91847
863.219 5.25564
863.274 4.13006
863.383 2.74463
863.491 1.95810
863.600 1.46934
863.709 1.14534
863.927 0.755406
864.145 0.538956
864.363 0.406530
864.580 0.319723
865.016 0.216576
865.451 0.160080
866.322 0.103667
867.194 0.0776722
868.065 0.0637844
869.807 0.0506410
873.291 0.0433397
876.776 0.0434056
883.744 0.0508697
890.713 0.0660553
897.682 0.0950193
901.166 0.120814
902.908 0.139315
904.651 0.163955
905.522 0.179568
906.393 0.198188
907.264 0.220719
908.135 0.248441
909.006 0.283223
909.442 0.304093
909.877 0.327881
910.748 0.386817
911.619 0.467240
912.490 0.581628
913.362 0.753137
914.233 1.02882
915.104 1.51667
915.539 1.91673
915.975 2.51230
916.410 3.45629
916.846 5.08424
917.064 6.38202
917.282 8.25924
917.499 11.1168
917.717 15.7642
917.935 24.0479
918.044 30.8277
918.153 40.8196
918.261 56.3200
918.370 81.7953
918.479 126.368
918.588 207.227
918.800 430.142
918.906 354.639
919.012 223.300
919.119 136.707
919.225 88.3587
919.331 60.6444
919.438 43.8288
919.544 33.0010
919.651 25.6900
919.864 16.7853
920.077 11.8101
920.289 8.76411
920.715 5.39478
921.141 3.67708
921.567 2.68746
921.993 2.06746
922.418 1.65480
923.270 1.15975
924.121 0.889491
924.973 0.730087
925.825 0.632266
926.676 0.571967
927.102 0.551660
927.528 0.536488
927.954 0.525705
928.379 0.518748
928.805 0.515195
929.231 0.514730
929.657 0.517125
930.082 0.522226
930.508 0.529937
930.934 0.540214
931.786 0.568550
932.637 0.607820
933.489 0.659367
934.340 0.725369
935.192 0.809093
936.043 0.915278
936.895 1.05087
937.746 1.22603
938.598 1.45623
939.450 1.76543
940.301 2.19270
941.153 2.80443
942.004 3.72090
942.856 5.17690
943.707 7.67817
944.133 9.64953
944.559 12.4516
944.985 16.5862
945.411 22.9356
945.836 33.0509
946.262 49.3212
946.781 78.9510
947.300 99.2174
947.820 79.8360
948.339 49.9669
948.754 33.7580
949.170 23.5602
949.585 17.1001
950.000 12.8679
950.781 8.15962
951.563 5.59838
952.344 4.06764
953.125 3.08557
954.688 1.94862
956.250 1.34283
957.813 0.983179
959.375 0.752701
962.500 0.485687
965.625 0.343472
968.750 0.259670
975.000 0.173128
981.250 0.138825
987.500 0.138605
990.625 0.155319
993.750 0.194196
996.875 0.283435
998.438 0.371844
1000.00 0.527773
1000.84 0.665213
1001.68 0.873002
1002.10 1.01933
1002.31 1.10764
1002.52 1.20810
1002.73 1.32420
1002.94 1.45799
1003.15 1.61481
1003.36 1.79837
1003.57 2.01730
1003.78 2.27997
1003.99 2.59879
1004.19 2.98883
1004.40 3.47791
1004.61 4.09930
1004.82 4.90504
1005.03 5.96940
1005.24 7.43041
1005.45 9.49915
1005.66 12.5591
1005.87 17.3134
1006.08 25.3221
1006.19 31.4907
1006.29 39.9765
1006.40 52.2433
1006.50 70.3934
1006.61 97.9428
1006.71 139.286
1006.86 222.424
1007.00 277.054
1007.15 220.592
1007.29 137.840
1007.46 78.5304
1007.63 48.3551
1007.80 32.1648
1007.97 22.7495
1008.14 16.8707
1008.31 12.9813
1008.65 8.35427
1008.99 5.81021
1009.33 4.27628
1010.01 2.59450
1010.69 1.74368
1011.37 1.25627
1012.05 0.951017
1012.73 0.747304
1014.08 0.500677
1015.44 0.362900
1016.80 0.278098
1018.16 0.222192
1020.88 0.155345
1023.59 0.118479
1029.02 0.0816421
1034.46 0.0653192
1039.89 0.0579405
1050.76 0.0576304
1061.62 0.0759251
1067.06 0.0979609
1072.49 0.139745
1075.21 0.175233
1077.92 0.229258
1079.28 0.267467
1079.96 0.290563
1080.64 0.317015
1081.32 0.347501
1081.66 0.364541
1082.00 0.382877
1082.68 0.424242
1083.02 0.447636
1083.35 0.473022
1083.69 0.500798
1084.03 0.531183
1084.71 0.601065
1085.39 0.686159
1086.07 0.791202
1086.75 0.922927
1087.43 1.09116
1088.11 1.31066
1088.79 1.60446
1089.47 2.01075
1090.15 2.59261
1090.83 3.46780
1091.50 4.86796
1092.18 7.29942
1092.52 9.24071
1092.86 12.0224
1093.20 16.1962
1093.54 22.7041
1093.88 33.3482
1094.22 50.8736
1094.61 81.0875
1095.00 101.090
1095.39 81.0399
1095.78 50.8226
1096.03 36.9227
1096.29 27.3491
1096.80 16.2115
1097.30 10.5124
1097.81 7.31308
1098.32 5.35694
1098.83 4.08663
1099.84 2.59516
1100.86 1.79108
1101.87 1.31015
1103.90 0.789439
1105.93 0.528767
1107.96 0.380239
1109.99 0.287795
1112.02 0.226506
1116.08 0.153092
1120.14 0.113011
1124.20 0.0894560
1128.26 0.0754061
1136.38 0.0655189
1140.44 0.0694423
1144.49 0.0832836
1148.55 0.119314
1150.58 0.157180
1152.61 0.227136
1153.63 0.286179
1154.64 0.376017
1155.66 0.522055
1156.67 0.782545
1156.93 0.879869
1157.18 0.997160
1157.44 1.14026
1157.69 1.31653
1157.82 1.42113
1157.94 1.53891
1158.07 1.67219
1158.20 1.82378
1158.45 2.19681
1158.70 2.69600
1158.96 3.39112
1159.21 4.39460
1159.47 5.91745
1159.72 8.37143
1159.85 10.2131
1159.97 12.7218
1160.10 16.2510
1160.23 21.3607
1160.35 29.2256
1160.48 41.8952
1160.61 63.3891
1160.73 100.243
1160.87 160.081
1161.00 198.662
1161.13 157.802
1161.27 98.4537
1161.38 65.4442
1161.49 45.2672
1161.60 32.6514
1161.71 24.4587
1161.94 15.0228
1162.16 10.0894
1162.38 7.21972
1162.60 5.41346
1163.05 3.36149
1163.49 2.28781
1163.93 1.65782
1164.38 1.25728
1164.82 0.987037
1165.71 0.656189
1166.60 0.469511
1167.49 0.353818
1168.37 0.277178
1170.15 0.185042
1171.93 0.133849
1173.70 0.102407
1175.48 0.0816704
1179.03 0.0567636
1182.59 0.0428376
1189.69 0.0284086
1196.80 0.0213091
1203.90 0.0172293
1218.11 0.0129843
1232.32 0.0112891
1246.53 0.0116524
1253.64 0.0133026
1260.74 0.0179950
1264.30 0.0238287
1266.07 0.0291862
1267.85 0.0383461
1269.63 0.0566830
1270.51 0.0741790
1271.40 0.105257
1271.85 0.131047
1272.29 0.170106
1272.73 0.233733
1273.18 0.348507
1273.40 0.444436
1273.62 0.589988
1273.84 0.826645
1274.07 1.25038
1274.18 1.60098
1274.29 2.12692
1274.40 2.96793
1274.51 4.43616
1274.57 5.63254
1274.62 7.35036
1274.65 8.54374
1274.68 10.0524
1274.71 11.9969
1274.73 14.4558
1274.76 17.8900
1274.79 22.6904
1274.82 29.6711
1274.84 39.8610
1274.86 47.2702
1274.87 56.8546
1274.89 69.4995
1274.90 86.5436
1274.91 110.039
1274.93 143.115
1274.94 190.333
1274.95 251.698
1274.98 402.843
1275.00 504.291
1275.02 404.036
1275.05 252.626
1275.07 152.371
1275.09 99.2946
1275.12 68.6388
1275.14 49.8605
1275.16 37.2653
1275.19 29.1217
1275.23 19.1206
1275.28 13.3862
1275.33 9.94246
1275.42 6.09950
1275.51 4.10589
1275.60 2.95430
1275.70 2.23019
1275.79 1.75004
1275.97 1.16073
1276.16 0.832682
1276.35 0.629919
1276.53 0.497425
1276.90 0.339812
1277.27 0.254352
1278.01 0.172374
1278.76 0.139666
1279.50 0.128727
1280.98 0.144305
1281.72 0.170590
1282.46 0.215849
1283.21 0.294183
1283.95 0.439514
1284.32 0.562468
1284.69 0.749817
1285.06 1.05503
1285.43 1.59938
1285.62 2.05125
1285.80 2.72374
1285.99 3.80098
1286.08 4.59754
1286.17 5.66024
1286.27 7.15761
1286.31 8.15058
1286.36 9.33598
1286.41 10.8341
1286.45 12.6761
1286.50 15.0263
1286.54 18.0878
1286.59 22.2776
1286.64 27.9327
1286.68 35.9835
1286.73 47.9398
1286.78 67.1467
1286.82 98.5717
1286.84 122.307
1286.87 154.377
1286.89 198.043
1286.91 256.973
1286.96 411.601
1287.00 511.016
1287.04 407.896
1287.09 254.069
1287.13 166.273
1287.16 113.244
1287.20 80.7454
1287.24 59.9649
1287.32 36.4005
1287.39 24.2627
1287.47 17.2701
1287.54 12.8977
1287.70 7.96181
1287.85 5.39444
1288.00 3.89386
1288.15 2.94238
1288.30 2.30525
1288.61 1.52168
1288.91 1.08126
1289.21 0.807845
1289.52 0.627611
1290.13 0.410842
1290.73 0.291014
1291.34 0.217743
1291.95 0.169677
1293.16 0.112463
1294.38 0.0810255
1295.59 0.0618784
1296.80 0.0493769
1299.23 0.0345922
1301.66 0.0265920
1306.52 0.0190913
1311.38 0.0170247
1313.81 0.0176945
1316.24 0.0202539
1318.66 0.0270593
1319.88 0.0343057
1321.09 0.0478535
1321.70 0.0594400
1322.31 0.0772476
1322.92 0.106651
1323.52 0.160311
1323.83 0.205587
1324.13 0.274419
1324.43 0.387367
1324.74 0.590332
1324.89 0.759859
1325.04 1.01586
1325.19 1.42884
1325.34 2.15242
1325.42 2.74550
1325.50 3.62255
1325.57 4.99757
1325.65 7.32988
1325.72 11.7535
1325.74 13.4818
1325.76 15.6154
1325.78 18.2888
1325.80 21.6965
1325.82 26.1258
1325.84 32.0138
1325.86 40.0461
1325.88 51.3331
1325.89 67.7279
1325.91 92.3833
1325.93 130.560
1325.95 186.011
1325.96 240.391
1325.98 297.656
1326.00 372.294
1326.01 348.850
1326.03 298.017
1326.05 186.291
1326.07 125.868
1326.09 87.8656
1326.11 63.7899
1326.13 48.0054
1326.17 29.6592
1326.21 19.9859
1326.25 14.3298
1326.29 10.7571
1326.37 6.68521
1326.45 4.54827
1326.53 3.29211
1326.61 2.49248
1326.69 1.95255
1326.85 1.29161
1327.01 0.918012
1327.17 0.686531
1327.33 0.534075
1327.65 0.349832
1327.97 0.247771
1328.29 0.185396
1328.61 0.144615
1329.25 0.0959876
1329.89 0.0693281
1330.53 0.0530977
1331.17 0.0425117
1332.45 0.0299533
1333.72 0.0230636
1336.28 0.0161267
1338.84 0.0128598
1341.40 0.0110647
1346.51 0.00929332
1356.74 0.00831961
1366.97 0.00879197
1377.20 0.0108327
1382.32 0.0130665
1387.43 0.0172276
1392.55 0.0261902
1395.11 0.0351415
1397.67 0.0514912
1398.94 0.0653058
1400.22 0.0864622
1401.50 0.121276
1402.78 0.184596
1403.42 0.237939
1404.06 0.319134
1404.70 0.452080
1405.34 0.691357
1405.66 0.890877
1405.98 1.19206
1406.30 1.67773
1406.46 2.04068
1406.62 2.53220
1406.78 3.23069
1406.86 3.69361
1406.94 4.26351
1407.02 4.97594
1407.10 5.88248
1407.18 7.06016
1407.26 8.60539
1407.34 10.7464
1407.42 13.7885
1407.50 18.3087
1407.58 25.4195
1407.66 37.4686
1407.70 46.8393
1407.74 59.9960
1407.78 79.0913
1407.82 107.790
1407.86 152.232
1407.90 219.212
1407.95 352.489
1408.00 440.975
1408.05 353.083
1408.11 221.769
1408.15 145.808
1408.20 99.5962
1408.24 71.1452
1408.29 52.8991
1408.38 32.1559
1408.46 21.5367
1408.55 15.3260
1408.64 11.4428
1408.82 7.07679
1409.00 4.79023
1409.18 3.46063
1409.36 2.61243
1409.54 2.04444
1409.90 1.34875
1410.26 0.956605
1410.62 0.714107
1410.98 0.553805
1411.70 0.361776
1412.41 0.255549
1413.13 0.190708
1413.85 0.148255
1415.29 0.0979110
1416.72 0.0703612
1418.16 0.0536899
1419.59 0.0428683
1422.46 0.0301801
1425.34 0.0233900
1431.08 0.0169716
1436.82 0.0144897
1442.57 0.0137300
1454.05 0.0151360
1465.54 0.0206473
1471.28 0.0262482
1477.03 0.0359451
1482.77 0.0547410
1485.64 0.0716544
1488.51 0.0994761
1491.39 0.150796
1492.82 0.194991
1494.26 0.264477
1495.69 0.384246
1496.41 0.480187
1496.77 0.543185
1497.13 0.620245
1497.49 0.715960
1497.85 0.836965
1498.21 0.993146
1498.57 1.19974
1498.92 1.48123
1499.28 1.87899
1499.64 2.46738
1500.00 3.38771
1500.22 4.22997
1500.44 5.43385
1500.65 7.23769
1500.87 10.1096
1501.09 15.0646
1501.20 18.9897
1501.31 24.5999
1501.42 32.9364
1501.53 45.8687
1501.64 66.7680
1501.74 101.059
1501.87 162.403
1502.00 206.885
1502.13 168.764
1502.26 106.026
1502.35 74.9635
1502.44 54.2412
1502.53 40.4588
1502.62 31.0794
1502.80 19.7617
1502.98 13.6036
1503.16 9.89498
1503.33 7.52809
1503.69 4.78223
1504.05 3.32463
1504.41 2.46453
1505.13 1.55297
1505.85 1.11885
1506.57 0.895301
1508.00 0.751693
1509.44 0.890822
1510.16 1.11079
1510.51 1.28865
1510.69 1.40313
1510.87 1.53877
1511.05 1.70236
1511.23 1.89910
1511.41 2.14073
1511.59 2.43764
1511.77 2.81173
1511.95 3.28548
1512.13 3.90410
1512.31 4.72157
1512.49 5.84501
1512.67 7.42479
1512.85 9.76915
1513.03 13.3991
1513.21 19.4925
1513.30 24.1657
1513.39 30.5561
1513.48 39.7569
1513.57 53.2764
1513.66 73.6162
1513.75 103.770
1513.87 165.961
1514.00 205.925
1514.13 163.602
1514.26 102.319
1514.39 61.8022
1514.52 39.7852
1514.65 27.2750
1514.78 19.7031
1514.92 14.8095
1515.05 11.5332
1515.31 7.54298
1515.58 5.30414
1515.84 3.93746
1516.37 2.41896
1516.90 1.64150
1517.43 1.19091
1517.96 0.906409
1518.49 0.715434
1519.54 0.481524
1520.60 0.349021
1521.66 0.266252
1522.72 0.210982
1524.83 0.143553
1526.95 0.105252
1531.18 0.0651375
1535.41 0.0454192
1539.64 0.0342384
1548.10 0.0228594
1556.56 0.0181729
1565.02 0.0180978
1569.25 0.0213892
1571.36 0.0253158
1573.48 0.0329333
1575.59 0.0497754
1576.65 0.0667926
1577.71 0.0979826
1578.24 0.124374
1578.76 0.164771
1579.29 0.231125
1579.82 0.351191
1580.09 0.452117
1580.35 0.604707
1580.62 0.853536
1580.88 1.29615
1581.01 1.66410
1581.14 2.21035
1581.28 3.07868
1581.34 3.71878
1581.41 4.58127
1581.47 5.78184
1581.54 7.52191
1581.57 8.70044
1581.61 10.1769
1581.64 12.0597
1581.67 14.5104
1581.71 17.7784
1581.74 22.2628
1581.77 28.6315
1581.80 38.0594
1581.84 52.7341
1581.87 76.9688
1581.90 119.577
1581.92 153.809
1581.94 197.041
1581.97 315.592
1582.00 396.151
1582.03 318.257
1582.06 199.119
1582.10 122.486
1582.13 80.5708
1582.16 56.0453
1582.19 40.8870
1582.22 30.7436
1582.25 24.0695
1582.31 15.8402
1582.38 11.1233
1582.44 8.26435
1582.56 5.06793
1582.69 3.41024
1582.81 2.45032
1582.94 1.84561
1583.06 1.44310
1583.31 0.949706
1583.56 0.673945
1583.81 0.503218
1584.06 0.391053
1584.56 0.256639
1585.06 0.182418
1585.56 0.137156
1586.06 0.107532
1587.05 0.0723853
1588.05 0.0531143
1590.05 0.0337703
1592.04 0.0247202
1594.04 0.0197633
1598.03 0.0148074
1606.01 0.0114100
1614.00 0.0107534
1621.98 0.0116934
1625.97 0.0130754
1629.96 0.0157913
1633.96 0.0217613
1635.95 0.0277587
1637.95 0.0387352
1638.94 0.0480216
1639.94 0.0622555
1640.94 0.0857019
1641.94 0.128454
1642.44 0.164469
1642.94 0.219453
1643.44 0.309512
1643.93 0.472325
1644.18 0.608603
1644.43 0.814002
1644.68 1.14774
1644.93 1.73794
1645.06 2.22376
1645.18 2.94655
1645.25 3.45247
1645.31 4.08906
1645.37 4.91907
1645.43 6.02911
1645.49 7.58918
1645.56 9.79491
1645.59 11.2736
1645.62 13.1101
1645.65 15.4281
1645.68 18.4087
1645.71 22.4705
1645.74 27.7988
1645.77 35.1985
1645.81 45.8389
1645.84 61.7705
1645.87 86.7239
1645.90 127.528
1645.93 195.276
1645.97 314.681
1646.00 393.428
1646.02 370.954
1646.04 314.810
1646.07 198.144
1646.10 129.280
1646.13 88.8144
1646.16 63.0734
1646.19 47.1169
1646.25 28.6219
1646.31 19.1998
1646.38 13.6557
1646.44 10.1920
1646.56 6.30786
1646.68 4.26825
1646.80 3.08560
1646.92 2.32912
1647.04 1.82394
1647.29 1.20423
1647.53 0.854925
1647.77 0.638927
1648.02 0.496143
1648.50 0.325098
1648.99 0.230473
1649.47 0.172708
1649.96 0.134883
1650.93 0.0900153
1651.90 0.0654477
1652.88 0.0505678
1653.85 0.0408987
1655.79 0.0295228
1657.73 0.0233884
1661.62 0.0174478
1669.40 0.0137652
1677.17 0.0132616
1692.72 0.0154404
1708.27 0.0211749
1716.05 0.0262188
1723.82 0.0339502
1731.60 0.0465450
1739.37 0.0690357
1741.32 0.0774423
1743.26 0.0875833
1744.23 0.0934577
1745.20 0.0999723
1745.69 0.103499
1746.18 0.107224
1747.15 0.115320
1748.12 0.124417
1749.09 0.134676
1750.06 0.146304
1751.03 0.159558
1752.01 0.174755
1752.98 0.192298
1754.92 0.236576
1756.87 0.298608
1758.81 0.389291
1760.75 0.529389
1761.73 0.629969
1762.70 0.762213
1763.67 0.941226
1764.64 1.19137
1765.61 1.55515
1766.58 2.11050
1767.56 3.01505
1768.53 4.60823
1769.01 5.88066
1769.50 7.68938
1769.99 10.3061
1770.47 14.0731
1771.24 22.5686
1772.00 28.5623
1772.77 23.1541
1773.53 14.5291
1774.13 9.86585
1774.74 6.91638
1775.34 5.03931
1775.94 3.80558
1777.15 2.37010
1778.36 1.61493
1779.56 1.17653
1780.77 0.904644
1783.18 0.614282
1785.59 0.510694
1786.80 0.519456
1788.01 0.592094
1789.21 0.801629
1789.82 1.02504
1790.42 1.43530
1791.02 2.28892
1791.32 3.10416
1791.62 4.50446
1791.78 5.62043
1791.85 6.35242
1791.93 7.22877
1792.00 8.32009
1792.08 9.66279
1792.15 11.3623
1792.23 13.5544
1792.27 14.9148
1792.30 16.4893
1792.34 18.3240
1792.38 20.4165
1792.45 25.9824
1792.53 33.9455
1792.61 46.1544
1792.68 65.2500
1792.72 79.1920
1792.76 96.7670
1792.79 120.160
1792.83 149.289
1792.92 236.792
1793.00 285.731
1793.09 220.763
1793.17 136.773
1793.23 95.2289
1793.30 68.6120
1793.36 50.8633
1793.42 39.0730
1793.55 24.7943
1793.67 17.0225
1793.80 12.3792
1793.92 9.40084
1794.17 5.96402
1794.42 4.12369
1794.67 3.03439
1795.17 1.85674
1795.67 1.26832
1796.17 0.931998
1797.16 0.580181
1798.16 0.407588
1799.16 0.309180
1801.16 0.204569
1803.15 0.151178
1805.15 0.119210
1809.14 0.0828684
1813.14 0.0627890
1817.13 0.0500809
1825.11 0.0350497
1833.10 0.0266551
1841.09 0.0214732
1857.06 0.0158264
1873.03 0.0133722
1889.00 0.0129350
1896.99 0.0136968
1904.97 0.0162675
1908.97 0.0197701
1910.96 0.0232022
1912.96 0.0293989
1914.96 0.0425540
1915.95 0.0556120
1916.95 0.0793976
1917.45 0.0994403
1917.95 0.130069
1918.45 0.180323
1918.95 0.271446
1919.20 0.347964
1919.45 0.463671
1919.70 0.652535
1919.95 0.988801
1920.07 1.26750
1920.20 1.68495
1920.32 2.35097
1920.38 2.83912
1920.44 3.49717
1920.51 4.43139
1920.57 5.76960
1920.63 7.85763
1920.66 9.32423
1920.69 11.2386
1920.73 13.8969
1920.76 17.4665
1920.79 22.5721
1920.82 30.2020
1920.85 42.2333
1920.88 62.4745
1920.90 78.5148
1920.91 99.0375
1920.93 129.250
1920.94 169.537
1920.97 272.584
1921.00 341.315
1921.03 275.460
1921.06 171.787
1921.08 122.262
1921.10 89.7030
1921.12 66.7183
1921.13 51.7695
1921.17 33.0321
1921.21 22.9201
1921.25 16.6430
1921.29 12.6915
1921.37 8.01444
1921.44 5.50854
1921.52 4.01562
1921.60 3.05632
1921.67 2.40409
1921.83 1.59622
1921.98 1.14006
1922.14 0.855936
1922.29 0.667120
1922.60 0.439182
1922.91 0.312925
1923.22 0.235550
1923.52 0.184743
1924.14 0.124236
1924.76 0.0910451
1925.99 0.0578421
1927.22 0.0424420
1928.46 0.0341486
1930.92 0.0261312
1935.86 0.0212135
1940.79 0.0205801
1950.66 0.0234464
1960.53 0.0304761
1970.40 0.0447075
1975.33 0.0574442
1980.26 0.0780125
1985.20 0.114524
1987.67 0.144544
1990.13 0.189386
1991.37 0.220660
1992.60 0.260812
1993.22 0.285348
1993.53 0.299010
1993.83 0.313665
1994.45 0.346584
1995.07 0.385095
1995.68 0.430698
1996.30 0.485160
1996.92 0.550935
1997.53 0.631243
1998.15 0.731047
1998.77 0.856985
1999.38 1.01902
2000.00 1.23191
2000.66 1.54131
2001.31 1.98419
2001.97 2.64889
2002.62 3.70930
2003.28 5.54369
2003.60 7.00303
2003.93 9.08700
2004.26 12.2017
2004.59 17.0341
2004.91 24.8964
2005.24 37.7923
2005.62 60.4804
2006.00 76.5278
2006.38 62.2547
2006.76 39.1824
2007.18 23.0496
2007.60 14.4826
2008.01 9.75691
2008.43 6.95963
2008.85 5.19226
2009.27 4.01331
2010.10 2.59674
2010.94 1.81519
2011.78 1.34073
2013.45 0.820106
2015.12 0.556880
2016.79 0.406266
2018.46 0.312599
2020.14 0.250866
2023.48 0.178403
2026.82 0.141334
2033.51 0.116536
2040.20 0.135845
2043.54 0.168559
2046.89 0.233585
2048.56 0.289316
2050.23 0.373989
2051.07 0.433509
2051.48 0.469366
2051.90 0.510293
2052.32 0.557276
2052.74 0.611552
2053.16 0.674691
2053.57 0.748707
2053.99 0.836221
2054.41 0.940689
2054.83 1.06675
2055.25 1.22071
2055.66 1.41140
2056.08 1.65133
2056.50 1.95885
2056.92 2.36157
2057.34 2.90252
2057.75 3.65161
2058.17 4.72783
2058.59 6.34535
2059.01 8.91520
2059.43 13.2822
2059.63 16.6474
2059.84 21.2748
2060.05 27.7035
2060.26 36.5137
2060.63 58.1621
2061.00 72.5016
2061.38 57.8613
2061.75 36.0302
2062.08 23.4268
2062.41 15.8785
2062.74 11.2843
2063.07 8.36883
2063.72 5.06757
2064.38 3.37737
2065.04 2.40484
2065.70 1.79883
2067.01 1.11566
2068.32 0.760570
2069.64 0.553414
2070.95 0.422098
2072.27 0.333870
2074.90 0.226483
2077.53 0.166534
2080.15 0.130281
2082.78 0.107499
2088.04 0.0860731
2090.67 0.0854347
2093.30 0.0943747
2095.93 0.123300
2097.24 0.155236
2098.56 0.215153
2099.22 0.266096
2099.87 0.343671
2100.53 0.469860
2101.19 0.694763
2101.52 0.879882
2101.85 1.15556
2102.01 1.34757
2102.17 1.59169
2102.34 1.91054
2102.50 2.33782
2102.59 2.61164
2102.67 2.93275
2102.75 3.31734
2102.83 3.78316
2102.91 4.35454
2103.00 5.06553
2103.08 5.96489
2103.16 7.12424
2103.24 8.67343
2103.32 10.7468
2103.41 13.6372
2103.49 17.8130
2103.57 24.1029
2103.65 34.0288
2103.73 50.4059
2103.82 77.8212
2103.91 124.083
2104.00 153.918
2104.09 121.943
2104.19 76.1466
2104.26 51.4376
2104.33 35.9264
2104.41 26.1026
2104.48 19.7314
2104.63 12.2029
2104.78 8.25294
2104.92 5.92344
2105.07 4.46045
2105.37 2.78416
2105.66 1.90338
2105.96 1.38516
2106.25 1.05502
2106.54 0.832568
2107.13 0.558914
2107.72 0.404007
2108.31 0.307856
2108.90 0.244154
2110.08 0.167276
2111.26 0.124409
2113.62 0.0804502
2115.98 0.0592659
2118.34 0.0473176
2123.06 0.0348627
2132.49 0.0256620
2141.92 0.0237948
2151.36 0.0269832
2156.08 0.0316529
2160.79 0.0408159
2165.51 0.0607574
2167.87 0.0805217
2170.23 0.116141
2171.41 0.145834
2172.59 0.190646
2173.77 0.263006
2174.36 0.317232
2174.95 0.391223
2175.54 0.496302
2175.83 0.566151
2176.13 0.652363
2176.42 0.760468
2176.72 0.898532
2177.01 1.07870
2177.30 1.31895
2177.60 1.65162
2177.89 2.12877
2178.19 2.84672
2178.48 3.99097
2178.63 4.84311
2178.78 5.98437
2178.93 7.58057
2179.07 9.86057
2179.22 13.2988
2179.37 18.6482
2179.52 27.3808
2179.66 41.8492
2179.83 67.0341
2180.00 84.2418
2180.17 67.7675
2180.34 42.4200
2180.52 25.5345
2180.69 16.3285
2180.87 11.1361
2181.05 8.02609
2181.22 6.02409
2181.40 4.68339
2181.75 3.05094
2182.11 2.13935
2182.46 1.58402
2183.16 0.970221
2183.87 0.656995
2184.58 0.476686
2185.28 0.363374
2185.99 0.287848
2187.40 0.196628
2188.82 0.146095
2191.64 0.0959874
2194.47 0.0743552
2197.29 0.0650156
2202.95 0.0655583
2205.77 0.0739910
2208.60 0.0899533
2211.42 0.118537
2214.25 0.172253
2215.66 0.217671
2217.08 0.286661
2218.49 0.398379
2219.90 0.596363
2220.26 0.670039
2220.61 0.758318
2220.96 0.865627
2221.32 0.997827
2221.67 1.16374
2222.02 1.37452
2222.20 1.50259
2222.38 1.64863
2222.73 2.01402
2223.08 2.51750
2223.44 3.23300
2223.79 4.29978
2224.14 5.98581
2224.32 7.22230
2224.49 8.86215
2224.67 11.1218
2224.85 14.2965
2225.02 18.9694
2225.20 26.0280
2225.38 37.1768
2225.55 54.6916
2225.78 87.5431
2226.00 109.192
2226.22 87.1749
2226.45 54.5219
2226.65 35.3861
2226.84 23.9416
2227.04 16.9882
2227.24 12.5894
2227.63 7.60486
2228.03 5.05932
2228.43 3.59457
2228.82 2.68345
2229.61 1.65588
2230.40 1.12267
2231.19 0.811487
2231.98 0.614374
2232.77 0.481892
2234.36 0.320056
2235.94 0.228886
2237.52 0.172515
2239.10 0.135266
2242.27 0.0905966
2245.43 0.0658860
2248.59 0.0508137
2251.75 0.0409759
2258.08 0.0294524
2264.41 0.0234283
2277.06 0.0186927
2289.72 0.0198075
2296.04 0.0230730
2302.37 0.0300193
2308.70 0.0457122
2311.86 0.0615365
2315.02 0.0903726
2316.60 0.114595
2318.19 0.151430
2319.77 0.211421
2321.35 0.318872
2322.14 0.407872
2322.93 0.541437
2323.33 0.634973
2323.72 0.755102
2324.12 0.913345
2324.51 1.12766
2324.71 1.26486
2324.91 1.42883
2325.11 1.62700
2325.30 1.86817
2325.50 2.16893
2325.70 2.54849
2325.90 3.03672
2326.09 3.67524
2326.29 4.54147
2326.49 5.74947
2326.69 7.50106
2326.89 10.1498
2327.08 14.4473
2327.28 21.8825
2327.38 27.7729
2327.48 36.0517
2327.58 47.8603
2327.68 64.4199
2327.84 103.261
2328.00 129.667
2328.16 104.349
2328.33 65.2669
2328.43 47.0509
2328.54 34.6231
2328.76 20.3134
2328.97 13.0971
2329.19 9.08487
2329.41 6.63610
2329.62 5.05522
2330.05 3.20181
2330.48 2.20372
2330.91 1.60952
2331.78 0.966801
2332.64 0.645301
2333.50 0.462406
2334.36 0.348503
2335.23 0.272848
2336.95 0.181829
2338.67 0.131437
2340.40 0.100757
2342.12 0.0808504
2345.57 0.0578436
2349.02 0.0462459
2355.92 0.0386259
2362.82 0.0448166
2366.27 0.0551960
2369.72 0.0759352
2371.44 0.0938422
2373.16 0.121261
2374.89 0.165971
2376.61 0.245612
2377.48 0.311084
2377.91 0.354601
2378.34 0.408339
2378.77 0.475752
2379.20 0.561880
2379.42 0.614325
2379.63 0.674310
2380.06 0.824878
2380.49 1.03343
2380.93 1.33215
2381.36 1.78197
2381.79 2.50275
2382.00 3.03810
2382.22 3.75742
2382.43 4.76266
2382.65 6.20415
2382.87 8.37817
2383.08 11.7783
2383.30 17.3879
2383.51 26.6986
2383.76 42.7727
2384.00 53.5749
2384.25 42.9570
2384.49 26.8954
2384.70 17.5398
2384.92 11.9083
2385.13 8.47073
2385.35 6.28012
2385.77 3.80508
2386.20 2.53494
2386.63 1.80505
2387.06 1.34952
2387.91 0.836697
2388.77 0.570171
2389.62 0.414899
2390.48 0.316580
2391.33 0.250694
2393.05 0.170844
2394.76 0.126847
2396.47 0.100895
2398.18 0.0854552
2401.60 0.0751503
2403.31 0.0802745
2405.02 0.0970993
2406.74 0.140198
2407.59 0.185269
2408.45 0.268177
2408.87 0.337987
2409.30 0.443928
2409.73 0.615536
2410.16 0.919114
2410.37 1.16801
2410.59 1.53715
2410.80 2.11801
2410.91 2.54202
2411.01 3.10828
2411.12 3.88770
2411.23 5.00104
2411.28 5.75285
2411.33 6.66694
2411.39 7.83906
2411.44 9.31266
2411.50 11.2764
2411.55 13.8573
2411.60 17.4790
2411.66 22.5322
2411.71 30.1286
2411.76 41.5637
2411.82 59.6523
2411.87 88.4483
2411.93 141.225
2412.00 175.145
2412.07 139.031
2412.13 86.7327
2412.19 56.5100
2412.25 38.6090
2412.31 27.4502
2412.36 20.4428
2412.48 12.4140
2412.59 8.27943
2412.71 5.89774
2412.82 4.40855
2413.05 2.72737
2413.28 1.85283
2413.51 1.34158
2413.74 1.01735
2413.97 0.798981
2414.43 0.532302
2414.89 0.381831
2415.35 0.288645
2415.81 0.226926
2416.73 0.152725
2417.65 0.111404
2418.57 0.0859642
2419.49 0.0691496
2421.33 0.0488234
2423.17 0.0373612
2426.85 0.0253080
2430.53 0.0192420
2434.21 0.0156616
2441.57 0.0117027
2456.28 0.00844383
2471.00 0.00741050
2485.71 0.00762541
2500.43 0.00974213
2507.79 0.0128234
2511.47 0.0158282
2515.15 0.0211963
2518.82 0.0324248
2520.66 0.0434627
2522.50 0.0634065
2523.42 0.0801287
2524.34 0.105579
2525.26 0.147145
2526.18 0.221971
2526.64 0.284363
2527.10 0.378611
2527.56 0.530774
2528.02 0.800172
2528.25 1.02045
2528.48 1.34699
2528.60 1.57277
2528.71 1.86066
2528.83 2.23558
2528.94 2.73628
2529.06 3.42549
2529.17 4.41013
2529.29 5.88388
2529.40 8.22572
2529.46 9.96374
2529.52 12.2525
2529.58 15.4632
2529.63 19.9551
2529.69 26.7131
2529.75 36.9338
2529.80 53.1948
2529.86 79.3278
2529.93 127.347
2530.00 160.132
2530.07 129.257
2530.14 80.8192
2530.19 58.7732
2530.23 43.8426
2530.32 26.0930
2530.41 16.9733
2530.50 11.8679
2530.58 8.70105
2530.67 6.63790
2530.85 4.22531
2531.03 2.91385
2531.21 2.13271
2531.56 1.28400
2531.91 0.857129
2532.27 0.614103
2532.62 0.462063
2532.98 0.361223
2533.69 0.239377
2534.40 0.171751
2535.11 0.130374
2535.81 0.103283
2537.23 0.0712622
2538.65 0.0539913
2541.49 0.0375116
2544.32 0.0310468
2547.16 0.0290033
2552.83 0.0325932
2555.67 0.0382115
2558.51 0.0477478
2561.34 0.0640837
2564.18 0.0941040
2565.60 0.119266
2567.02 0.157273
2568.43 0.218541
2569.14 0.264284
2569.85 0.326616
2570.03 0.345821
2570.21 0.366683
2570.56 0.414764
2570.92 0.473139
2571.27 0.544736
2571.63 0.634396
2571.98 0.748017
2572.34 0.895818
2572.69 1.09168
2573.04 1.36041
2573.40 1.74027
2573.75 2.30463
2574.11 3.18632
2574.46 4.67622
2574.64 5.82556
2574.82 7.43051
2574.99 9.75997
2575.17 13.2165
2575.35 18.5176
2575.53 26.6785
2575.76 42.7670
2576.00 53.7865
2576.24 43.3375
2576.48 27.1225
2576.71 16.6743
2576.95 10.8437
2577.19 7.46994
2577.43 5.41837
2577.66 4.08682
2577.90 3.18741
2578.38 2.08537
2578.85 1.46702
2579.33 1.08727
2580.28 0.665841
2581.23 0.450219
2582.18 0.325611
2583.13 0.247310
2584.08 0.195071
2585.98 0.132059
2587.87 0.0974886
2589.77 0.0771327
2591.67 0.0650191
2595.47 0.0567067
2597.37 0.0603747
2599.27 0.0728474
2601.17 0.105068
2602.12 0.138849
2603.07 0.201135
2603.55 0.253678
2604.02 0.333563
2604.50 0.463291
2604.97 0.694355
2605.21 0.884702
2605.45 1.16691
2605.68 1.61529
2605.80 1.94455
2605.92 2.38230
2606.04 2.99308
2606.16 3.87273
2606.22 4.47057
2606.28 5.20338
2606.34 6.13043
2606.40 7.32566
2606.46 8.93185
2606.51 11.0739
2606.57 14.0620
2606.63 18.3836
2606.69 25.0404
2606.75 35.4400
2606.81 52.6845
2606.87 81.7621
2606.94 131.117
2607.00 162.969
2607.07 129.644
2607.13 81.2313
2607.18 57.9311
2607.22 42.5498
2607.27 31.9354
2607.31 24.7845
2607.40 15.9135
2607.49 11.0352
2607.58 8.04486
2607.66 6.13054
2607.84 3.88046
2608.02 2.66734
2608.20 1.94858
2608.55 1.17128
2608.90 0.781908
2609.26 0.560716
2609.61 0.422796
2609.97 0.331039
2610.68 0.220214
2611.38 0.158494
2612.09 0.120485
2612.80 0.0954519
2614.22 0.0653940
2615.64 0.0486658
2618.47 0.0314574
2621.30 0.0230770
2624.14 0.0182832
2629.81 0.0131600
2635.48 0.0105549
2641.14 0.00903675
2652.48 0.00747890
2675.16 0.00680230
2697.83 0.00789989
2720.51 0.0114014
2731.84 0.0151145
2743.18 0.0219462
2748.85 0.0276879
2754.52 0.0364013
2760.19 0.0505328
2765.86 0.0756843
2767.27 0.0850689
2768.69 0.0963649
2770.11 0.110138
2771.53 0.127168
2772.23 0.137242
2772.94 0.148567
2773.65 0.161395
2774.36 0.175962
2775.07 0.192644
2775.78 0.211813
2776.49 0.234054
2777.19 0.259980
2778.61 0.326844
2780.03 0.423256
2781.45 0.569477
2782.86 0.806145
2783.57 0.983326
2784.28 1.22432
2784.99 1.56384
2785.70 2.05959
2786.41 2.81966
2787.11 4.04481
2787.82 6.13477
2788.53 9.77964
2789.27 15.6482
2790.00 19.6993
2790.74 15.9127
2791.47 9.98509
2792.09 6.60818
2792.71 4.53767
2793.33 3.25358
2793.95 2.42578
2795.19 1.48009
2796.43 0.989786
2797.67 0.706063
2798.91 0.528402
2801.39 0.327418
2803.87 0.222677
2806.35 0.161451
2808.83 0.122623
2811.31 0.0965143
2816.28 0.0647297
2821.24 0.0469588
2826.20 0.0361542
2831.16 0.0292578
2841.08 0.0221328
2851.00 0.0219408
2855.96 0.0267007
2858.44 0.0323798
2860.92 0.0433619
2863.41 0.0675178
2864.65 0.0917399
2865.89 0.135828
2866.51 0.172800
2867.13 0.228925
2867.75 0.320068
2868.37 0.482674
2868.68 0.616609
2868.99 0.816556
2869.30 1.13408
2869.45 1.36791
2869.61 1.68271
2869.76 2.12039
2869.92 2.75380
2869.99 3.18529
2870.07 3.71829
2870.15 4.40591
2870.23 5.28796
2870.30 6.47715
2870.38 8.08374
2870.46 10.3878
2870.54 13.7393
2870.61 18.9930
2870.69 27.4814
2870.77 42.4144
2870.81 53.8954
2870.85 68.7370
2870.92 110.258
2871.00 137.309
2871.08 109.386
2871.16 68.4974
2871.22 44.3545
2871.29 30.1184
2871.36 21.4307
2871.43 15.8925
2871.56 9.63036
2871.70 6.41335
2871.84 4.56305
2871.97 3.40736
2872.24 2.10404
2872.52 1.42491
2872.79 1.03000
2873.06 0.779641
2873.33 0.611090
2873.88 0.405102
2874.42 0.289264
2874.97 0.217611
2875.51 0.170226
2876.60 0.113381
2877.69 0.0819238
2878.78 0.0626690
2879.86 0.0500449
2882.04 0.0349989
2884.22 0.0267124
2888.57 0.0183555
2892.93 0.0144695
2897.28 0.0124380
2905.99 0.0109620
2914.70 0.0118900
2919.06 0.0136668
2923.41 0.0173429
2927.76 0.0256321
2929.94 0.0340233
2932.12 0.0493954
2933.21 0.0623682
2934.30 0.0821756
2935.39 0.114597
2936.47 0.173042
2937.02 0.221834
2937.56 0.295383
2938.11 0.413990
2938.65 0.623564
2938.92 0.795314
2939.20 1.04865
2939.33 1.22349
2939.47 1.44608
2939.60 1.73540
2939.74 2.12089
2939.88 2.64996
2940.01 3.40297
2940.15 4.52445
2940.28 6.29432
2940.35 7.58632
2940.42 9.30748
2940.49 11.6620
2940.56 14.9830
2940.62 19.8319
2940.69 27.1780
2940.76 38.6759
2940.83 56.7893
2940.91 91.0417
2941.00 114.051
2941.09 91.6583
2941.17 57.2700
2941.23 41.1902
2941.29 30.4090
2941.40 17.8548
2941.52 11.5177
2941.63 7.97933
2941.75 5.83089
2941.86 4.43772
2942.09 2.80932
2942.32 1.93408
2942.55 1.41157
2943.01 0.847350
2943.47 0.564573
2943.93 0.403748
2944.39 0.303305
2944.85 0.236680
2945.77 0.156244
2946.69 0.111553
2947.61 0.0841623
2948.53 0.0661751
2950.37 0.0447696
2952.21 0.0330280
2955.88 0.0212834
2959.56 0.0158721
2963.23 0.0130060
2970.59 0.0104225
2985.29 0.00986400
3000.00 0.0126995
3011.81 0.0191620
3017.72 0.0258004
3023.62 0.0379363
3026.57 0.0481213
3029.53 0.0635764
3032.48 0.0886519
3035.43 0.133306
3036.91 0.170060
3037.65 0.194541
3038.39 0.224820
3039.12 0.262877
3039.86 0.311618
3040.23 0.341284
3040.60 0.375431
3040.97 0.415002
3041.34 0.461206
3041.71 0.515764
3042.08 0.580435
3042.45 0.658080
3042.81 0.752388
3043.55 1.01343
3043.92 1.19766
3044.29 1.43649
3044.66 1.75335
3045.03 2.18545
3045.40 2.79424
3045.77 3.68615
3046.14 5.05525
3046.50 7.27356
3046.87 11.0726
3047.24 17.7572
3047.62 28.4738
3048.00 35.9191
3048.38 29.0016
3048.76 18.1678
3049.03 12.7265
3049.31 9.14224
3049.58 6.78160
3049.85 5.18676
3050.40 3.27597
3050.95 2.23868
3051.50 1.62062
3052.05 1.22514
3053.14 0.768838
3054.24 0.526600
3055.33 0.383159
3056.43 0.291388
3057.53 0.229245
3059.72 0.152827
3061.91 0.109512
3064.10 0.0826180
3066.29 0.0648151
3070.67 0.0434871
3075.06 0.0317624
3079.44 0.0247318
3083.82 0.0203114
3092.59 0.0159427
3101.36 0.0164668
3105.74 0.0204085
3107.93 0.0249372
3110.12 0.0336035
3112.31 0.0525933
3113.41 0.0716479
3114.51 0.106360
3115.05 0.135562
3115.60 0.180011
3116.15 0.252472
3116.70 0.382494
3117.25 0.651966
3117.52 0.910867
3117.79 1.36338
3117.93 1.72857
3118.07 2.26301
3118.20 3.08911
3118.27 3.68707
3118.34 4.46242
3118.41 5.52582
3118.48 6.98802
3118.55 9.14177
3118.62 12.3746
3118.68 17.6878
3118.72 21.5863
3118.75 26.8296
3118.79 34.0411
3118.82 44.1735
3118.85 58.6240
3118.89 79.1381
3118.94 126.917
3119.00 159.588
3119.06 128.248
3119.11 80.1751
3119.15 55.9001
3119.19 40.0158
3119.24 29.6073
3119.28 22.6018
3119.36 14.2389
3119.44 9.71439
3119.52 7.02418
3119.60 5.30519
3119.77 3.33281
3119.93 2.27873
3120.09 1.65828
3120.26 1.25872
3120.42 0.989537
3120.75 0.657505
3121.08 0.469077
3121.40 0.352006
3121.73 0.274344
3122.38 0.180967
3123.04 0.129105
3123.69 0.0973496
3124.35 0.0765009
3125.65 0.0516834
3126.96 0.0380254
3129.58 0.0242600
3132.19 0.0177867
3134.81 0.0142291
3140.04 0.0106618
3150.51 0.00825977
3160.97 0.00795122
3171.44 0.00901604
3176.67 0.0103796
3181.90 0.0129641
3187.13 0.0185028
3189.75 0.0239834
3192.37 0.0339175
3193.67 0.0422555
3194.98 0.0549594
3196.29 0.0757375
3197.60 0.113276
3198.25 0.144625
3198.91 0.192090
3199.56 0.268968
3200.21 0.405726
3200.54 0.518087
3200.87 0.685445
3201.19 0.950427
3201.36 1.14573
3201.52 1.40640
3201.69 1.77001
3201.85 2.29101
3202.01 3.08536
3202.09 3.64562
3202.18 4.36134
3202.26 5.32015
3202.34 6.62590
3202.42 8.46244
3202.50 11.1073
3202.58 15.1935
3202.67 21.7823
3202.75 32.9951
3202.83 52.2772
3202.92 84.2738
3203.00 106.940
3203.04 101.576
3203.09 86.7665
3203.17 54.5325
3203.22 40.1095
3203.28 30.1637
3203.38 18.2501
3203.49 11.9513
3203.59 8.38717
3203.69 6.16758
3203.80 4.72661
3204.01 3.01480
3204.22 2.08563
3204.43 1.52740
3204.84 0.920255
3205.26 0.615241
3205.68 0.440887
3206.10 0.332038
3206.52 0.259590
3207.35 0.172219
3208.19 0.123589
3209.02 0.0938039
3209.86 0.0742754
3211.53 0.0511415
3213.20 0.0385723
3216.55 0.0263556
3219.89 0.0212221
3223.24 0.0190923
3229.92 0.0194323
3236.61 0.0252818
3239.95 0.0318996
3243.30 0.0441541
3246.64 0.0701084
3248.31 0.0955463
3249.99 0.141068
3250.82 0.178725
3251.66 0.235229
3252.08 0.274748
3252.29 0.298521
3252.49 0.325643
3252.91 0.392740
3253.33 0.483710
3253.75 0.611352
3253.96 0.695394
3254.17 0.798306
3254.38 0.926161
3254.58 1.08767
3254.79 1.29567
3255.00 1.56970
3255.21 1.94060
3255.42 2.45926
3255.63 3.21410
3255.84 4.36874
3256.05 6.24955
3256.26 9.56643
3256.36 12.2344
3256.47 15.9965
3256.57 21.4436
3256.67 29.3242
3257.00 60.4752
3257.08 57.6978
3257.16 49.4720
3257.33 31.1196
3257.51 17.8730
3257.70 11.0395
3257.89 7.35250
3258.08 5.20330
3258.26 3.85995
3258.45 2.97081
3258.82 1.91070
3259.20 1.33010
3259.57 0.979254
3260.32 0.595727
3261.07 0.402237
3261.82 0.291416
3262.56 0.222202
3263.31 0.176176
3264.81 0.120883
3266.30 0.0904412
3269.29 0.0605896
3272.29 0.0480696
3275.28 0.0431034
3281.26 0.0453778
3287.25 0.0636964
3290.24 0.0840904
3293.23 0.121479
3294.72 0.152517
3295.47 0.173246
3295.85 0.185367
3296.03 0.191944
3296.22 0.198900
3296.97 0.231150
3297.72 0.272435
3298.09 0.297549
3298.46 0.326438
3298.84 0.359892
3299.21 0.398807
3299.96 0.499136
3300.71 0.643546
3301.46 0.861828
3302.20 1.21344
3302.58 1.47522
3302.95 1.83026
3303.33 2.32704
3303.70 3.04839
3304.07 4.14267
3304.45 5.88769
3304.82 8.81296
3305.19 13.8127
3305.60 22.1876
3306.00 28.1864
3306.40 22.9185
3306.81 14.3822
3307.09 10.1840
3307.37 7.37881
3307.65 5.50954
3307.93 4.23523
3308.50 2.69446
3309.06 1.85069
3309.63 1.34510
3310.19 1.02035
3311.32 0.644528
3312.45 0.444153
3313.57 0.325303
3315.83 0.197694
3318.08 0.134475
3320.34 0.0989129
3322.59 0.0772273
3324.85 0.0634023
3329.36 0.0493867
3333.87 0.0501603
3336.13 0.0613554
3337.26 0.0743486
3338.38 0.0991780
3339.51 0.153249
3340.07 0.207023
3340.64 0.303813
3341.20 0.505638
3341.48 0.700275
3341.77 1.04169
3341.91 1.31817
3342.05 1.72408
3342.19 2.35424
3342.26 2.81211
3342.33 3.40819
3342.40 4.22902
3342.47 5.36453
3342.54 7.04870
3342.61 9.60288
3342.68 13.8580
3342.72 17.0237
3342.75 21.3338
3342.79 27.3523
3342.82 35.9685
3342.86 48.5386
3342.89 66.8375
3342.95 107.285
3343.00 135.171
3343.05 108.767
3343.11 67.9901
3343.14 49.7854
3343.18 37.4338
3343.24 22.5072
3343.31 14.7396
3343.38 10.3158
3343.44 7.59351
3343.51 5.81133
3343.64 3.70881
3343.78 2.56866
3343.91 1.88403
3344.18 1.13968
3344.45 0.765792
3344.72 0.552036
3344.98 0.418537
3345.25 0.329904
3345.79 0.222422
3346.32 0.162548
3346.86 0.125668
3347.39 0.101416
3348.46 0.0723855
3349.54 0.0563160
3351.68 0.0400205
3353.82 0.0323473
3355.96 0.0282033
3360.25 0.0244327
3368.82 0.0240678
3377.38 0.0294347
3385.95 0.0436876
3390.24 0.0581850
3392.38 0.0691307
3394.52 0.0841288
3395.59 0.0937972
3396.67 0.105411
3397.20 0.112124
3397.74 0.119536
3398.81 0.136945
3399.88 0.158730
3400.41 0.171747
3400.95 0.186480
3402.02 0.222569
3403.09 0.270677
3404.16 0.336817
3405.23 0.430949
3406.31 0.571286
3407.38 0.793087
3407.91 0.955415
3408.45 1.17156
3408.98 1.46835
3409.52 1.88719
3410.05 2.50195
3410.59 3.43593
3411.13 4.91048
3411.66 7.25122
3412.33 11.6328
3413.00 14.7317
3413.67 11.9483
3414.34 7.49679
3414.96 4.78639
3415.57 3.19722
3416.19 2.24646
3416.80 1.65164
3418.03 0.990070
3419.26 0.655970
3420.50 0.465962
3421.73 0.348232
3424.19 0.216541
3426.65 0.148719
3429.11 0.109420
3434.04 0.0683122
3438.96 0.0487658
3443.88 0.0384626
3453.73 0.0305044
3463.58 0.0328924
3468.50 0.0388955
3473.42 0.0513324
3478.35 0.0786289
3480.81 0.105355
3482.04 0.125320
3483.27 0.152475
3483.89 0.169909
3484.50 0.190766
3484.81 0.202798
3485.12 0.216086
3485.73 0.247125
3486.35 0.285869
3486.96 0.334907
3487.58 0.398434
3488.20 0.482424
3488.81 0.597027
3489.43 0.758332
3490.04 0.995997
3490.66 1.36419
3491.27 1.97717
3491.58 2.44516
3491.89 3.08864
3492.20 4.00507
3492.50 5.33992
3492.81 7.34344
3493.12 10.3321
3493.56 16.5470
3494.00 20.8317
3494.44 16.7999
3494.88 10.5293
3495.32 6.52275
3495.75 4.26021
3496.19 2.94940
3496.62 2.14578
3497.06 1.62507
3497.49 1.27119
3498.36 0.838006
3499.23 0.594744
3500.10 0.445450
3501.84 0.280500
3503.58 0.197215
3505.32 0.150621
3508.80 0.107917
3512.28 0.102415
3514.02 0.113969
3515.76 0.143039
3517.50 0.211818
3518.37 0.281168
3519.24 0.405281
3520.11 0.658610
3520.54 0.896484
3520.76 1.07028
3520.87 1.17747
3520.98 1.30087
3521.20 1.61892
3521.31 1.82439
3521.41 2.06957
3521.52 2.37111
3521.63 2.74382
3521.74 3.21153
3521.85 3.80250
3521.96 4.57827
3522.07 5.61174
3522.18 7.02526
3522.28 8.99618
3522.39 11.8919
3522.50 16.2180
3522.61 23.0050
3522.72 33.4837
3522.86 53.4937
3523.00 65.9553
3523.14 52.0174
3523.28 32.4468
3523.44 18.8978
3523.60 11.8605
3523.76 7.99525
3523.92 5.70980
3524.07 4.26564
3524.23 3.30174
3524.55 2.14228
3524.87 1.49994
3525.18 1.11077
3525.81 0.682425
3526.45 0.464434
3527.08 0.339031
3527.71 0.260115
3528.34 0.207386
3529.61 0.143294
3530.87 0.107305
3533.40 0.0704704
3535.93 0.0531354
3538.46 0.0439940
3543.52 0.0370130
3548.58 0.0397702
3551.11 0.0459734
3553.64 0.0588353
3556.17 0.0874685
3557.44 0.116024
3558.70 0.167505
3559.33 0.210304
3559.97 0.274581
3560.60 0.377868
3561.23 0.558690
3561.55 0.705596
3561.86 0.920672
3562.02 1.06805
3562.18 1.25451
3562.34 1.49512
3562.50 1.81281
3562.65 2.24401
3562.81 2.84905
3562.97 3.73344
3563.13 5.09398
3563.29 7.32724
3563.36 9.01087
3563.44 11.3079
3563.52 14.5232
3563.60 19.1392
3563.68 25.8934
3563.76 35.7478
3563.88 57.2770
3564.00 71.6345
3564.12 57.4022
3564.24 35.9936
3564.31 26.6961
3564.39 20.2030
3564.53 12.3078
3564.68 8.13018
3564.82 5.72427
3564.97 4.23237
3565.11 3.25033
3565.40 2.08556
3565.69 1.45071
3565.98 1.06826
3566.56 0.651803
3567.14 0.441728
3567.72 0.321601
3568.30 0.246656
3568.88 0.196931
3570.04 0.137136
3571.20 0.104296
3573.52 0.0722329
3575.84 0.0590617
3578.15 0.0542770
3582.79 0.0589937
3587.43 0.0842041
3589.75 0.111783
3592.06 0.162194
3593.22 0.204020
3594.38 0.266416
3594.96 0.309797
3595.54 0.365185
3596.12 0.437677
3596.70 0.534657
3596.99 0.596089
3597.28 0.668924
3597.57 0.756139
3597.86 0.861741
3598.15 0.991222
3598.44 1.15226
3598.73 1.35583
3599.02 1.61700
3599.31 1.96181
3599.60 2.42734
3599.89 3.07488
3600.18 4.00386
3600.47 5.40166
3600.76 7.59612
3601.05 11.1925
3601.34 17.1404
3601.67 27.3733
3602.00 34.0512
3602.33 27.1328
3602.66 16.9509
3603.02 10.0590
3603.38 6.37251
3603.74 4.31995
3604.09 3.09560
3604.45 2.31738
3604.81 1.79579
3605.53 1.16589
3606.24 0.816467
3606.96 0.603461
3608.39 0.368714
3609.82 0.249123
3611.25 0.180160
3612.69 0.136820
3614.12 0.107831
3616.98 0.0726086
3619.84 0.0528380
3622.71 0.0406229
3625.57 0.0325414
3631.30 0.0228319
3637.02 0.0174362
3648.48 0.0119716
3659.93 0.00945348
3671.38 0.00817613
3694.29 0.00733131
3717.20 0.00781806
3740.10 0.00969599
3751.56 0.0115673
3763.01 0.0149752
3768.74 0.0182230
3774.46 0.0251636
3777.33 0.0333854
3778.76 0.0411169
3780.19 0.0547830
3781.62 0.0832954
3782.34 0.111275
3783.05 0.161631
3783.77 0.267461
3784.13 0.370852
3784.48 0.555225
3784.84 0.933984
3785.02 1.29458
3785.20 1.91859
3785.29 2.42056
3785.38 3.14010
3785.47 4.25111
3785.56 6.04518
3785.60 7.41365
3785.65 9.29647
3785.69 11.9795
3785.74 15.8606
3785.78 22.0424
3785.83 32.0281
3785.87 50.0539
3785.89 63.8220
3785.91 83.2557
3786.00 171.414
3786.02 162.910
3786.04 139.707
3786.09 88.1424
3786.11 62.9926
3786.14 46.4086
3786.20 27.2617
3786.25 17.5878
3786.31 12.1857
3786.37 8.85998
3786.42 6.74908
3786.54 4.27982
3786.65 2.94272
3786.76 2.15279
3786.99 1.29500
3787.21 0.866942
3787.44 0.623304
3787.66 0.471662
3787.89 0.370966
3788.34 0.249841
3788.79 0.182625
3789.24 0.141567
3789.69 0.114720
3790.59 0.0830539
3791.49 0.0659760
3793.28 0.0496079
3796.88 0.0401275
3800.48 0.0397916
3807.68 0.0486219
3811.28 0.0568544
3813.08 0.0621642
3814.88 0.0684696
3816.68 0.0760022
3817.58 0.0803186
3818.48 0.0850575
3820.28 0.0960623
3821.18 0.102467
3822.08 0.109582
3822.98 0.117534
3823.88 0.126449
3825.68 0.147830
3827.48 0.175517
3829.27 0.212208
3831.07 0.262327
3832.87 0.333208
3834.67 0.438154
3836.47 0.602463
3838.27 0.879879
3839.17 1.09503
3840.07 1.39620
3840.97 1.83313
3841.87 2.48953
3842.77 3.50791
3843.67 5.10017
3846.00 10.5353
3846.58 10.0963
3847.17 8.70112
3848.33 5.49897
3849.26 3.72694
3850.19 2.60819
3851.11 1.90005
3852.04 1.43737
3853.89 0.903465
3855.75 0.626860
3857.60 0.469876
3859.46 0.376364
3863.17 0.290993
3866.87 0.296235
3868.73 0.339523
3870.58 0.433205
3871.51 0.513828
3872.44 0.633777
3872.90 0.716099
3873.36 0.819517
3873.60 0.881565
3873.83 0.952023
3874.06 1.03242
3874.29 1.12419
3874.52 1.23048
3874.76 1.35384
3874.99 1.49799
3875.22 1.66688
3875.68 2.10907
3876.15 2.75465
3876.61 3.74414
3877.07 5.33154
3877.30 6.49281
3877.54 8.01493
3877.77 10.0129
3878.00 12.5860
3878.50 19.8709
3879.00 23.7446
3879.50 18.2266
3880.00 11.3056
3880.37 7.91301
3880.74 5.70246
3881.11 4.25038
3881.47 3.27086
3882.21 2.08991
3882.94 1.44617
3883.68 1.05997
3884.41 0.811914
3885.89 0.523446
3887.36 0.368751
3888.83 0.276169
3891.77 0.175191
3894.71 0.123764
3897.65 0.0938064
3903.53 0.0617058
3909.42 0.0456666
3915.30 0.0366549
3927.07 0.0285886
3938.83 0.0288195
3944.72 0.0326950
3950.60 0.0415025
3956.48 0.0616644
3959.42 0.0817960
3962.36 0.117757
3965.31 0.191154
3966.04 0.221551
3966.78 0.260295
3967.51 0.310800
3967.70 0.325844
3967.88 0.342046
3968.25 0.378321
3968.62 0.421003
3968.98 0.471542
3969.35 0.531972
3969.72 0.604811
3970.09 0.694183
3970.45 0.805114
3970.82 0.945023
3971.19 1.12419
3971.56 1.35984
3971.93 1.67675
3972.29 2.11543
3972.66 2.74145
3973.03 3.67524
3973.40 5.12051
3973.76 7.45975
3974.13 11.2640
3974.57 17.9760
3975.00 22.3257
3975.44 17.7664
3975.87 11.0996
3976.18 7.80962
3976.49 5.63678
3976.81 4.19964
3977.12 3.22469
3977.74 2.05097
3978.37 1.41139
3978.99 1.02835
3979.61 0.782858
3980.86 0.499784
3982.11 0.350115
3983.36 0.262835
3985.85 0.174664
3988.34 0.144887
3989.59 0.147699
3990.84 0.168762
3992.09 0.228781
3992.71 0.292621
3993.33 0.409543
3993.96 0.653249
3994.27 0.885813
3994.58 1.28560
3994.74 1.60443
3994.89 2.06433
3995.05 2.76114
3995.13 3.25190
3995.21 3.88675
3995.28 4.72677
3995.36 5.86812
3995.44 7.46826
3995.52 9.79635
3995.60 13.3342
3995.67 18.9791
3995.71 23.0742
3995.75 28.4145
3995.79 35.3896
3995.83 44.1240
3995.91 70.1271
3996.00 84.9661
3996.09 65.8041
3996.17 40.7560
3996.23 28.9465
3996.29 21.0881
3996.35 15.8359
3996.41 12.2372
3996.53 7.85360
3996.65 5.44639
3996.77 3.97865
3996.89 3.03745
3997.13 1.93406
3997.37 1.33999
3997.61 0.987269
3998.09 0.605423
3998.57 0.413756
3999.04 0.304367
4000.00 0.189883
4000.96 0.133829
4001.92 0.102078
4003.84 0.0686920
4005.76 0.0519867
4007.68 0.0421985
4011.51 0.0314856
4015.35 0.0259963
4023.03 0.0213697
4030.70 0.0214489
4038.38 0.0268393
4042.22 0.0334845
4046.05 0.0462267
4047.97 0.0571057
4049.89 0.0737101
4051.81 0.100700
4053.73 0.148682
4055.65 0.246278
4056.13 0.286618
4056.61 0.338061
4057.09 0.405061
4057.33 0.446417
4057.57 0.494313
4057.81 0.550687
4058.05 0.617357
4058.29 0.696969
4058.53 0.793061
4058.77 0.910456
4059.01 1.05585
4059.25 1.23874
4059.49 1.47181
4059.73 1.77753
4059.97 2.18663
4060.21 2.74937
4060.45 3.54450
4060.69 4.71917
4060.93 6.51709
4061.17 9.36519
4061.40 13.8790
4061.70 22.1285
4062.00 27.3268
4062.30 21.6124
4062.60 13.4748
4062.89 8.38241
4063.18 5.50555
4063.47 3.82238
4063.76 2.78824
4064.05 2.11265
4064.35 1.65334
4064.93 1.08741
4065.51 0.767886
4066.09 0.570795
4067.26 0.351097
4068.43 0.238146
4069.59 0.172602
4070.76 0.131240
4071.92 0.103499
4074.26 0.0696972
4076.59 0.0506827
4078.92 0.0389150
4081.25 0.0311257
4085.91 0.0217495
4090.58 0.0165191
4099.90 0.0111579
4109.23 0.00859359
4118.56 0.00718588
4137.21 0.00589726
4155.86 0.00570726
4174.51 0.00676630
4183.84 0.00852495
4188.50 0.0102924
4193.17 0.0135016
4197.83 0.0203046
4200.16 0.0270386
4202.49 0.0392551
4203.66 0.0495192
4204.83 0.0651581
4205.99 0.0907205
4207.16 0.136771
4207.74 0.175166
4208.32 0.233159
4208.91 0.326760
4209.49 0.492385
4210.07 0.828225
4210.36 1.14403
4210.51 1.37450
4210.66 1.67979
4210.80 2.10233
4210.95 2.70564
4211.09 3.60791
4211.17 4.23586
4211.24 5.02748
4211.31 6.07453
4211.38 7.47559
4211.46 9.40283
4211.53 12.0953
4211.60 16.1053
4211.68 22.2471
4211.75 31.9964
4211.82 47.3445
4211.91 75.9036
4212.00 95.5055
4212.09 76.8616
4212.18 48.0915
4212.29 27.3974
4212.39 16.8527
4212.50 11.1979
4212.60 7.91220
4212.71 5.86226
4212.81 4.50695
4213.02 2.89798
4213.23 2.01201
4213.44 1.47698
4213.86 0.893254
4214.28 0.597796
4214.70 0.428779
4215.12 0.322763
4215.54 0.252251
4216.38 0.166935
4217.21 0.119348
4218.05 0.0901468
4218.89 0.0709822
4220.57 0.0481710
4222.25 0.0356987
4225.60 0.0233523
4228.96 0.0178501
4232.31 0.0151499
4239.02 0.0134962
4245.73 0.0149340
4249.09 0.0171224
4252.44 0.0213050
4255.80 0.0301984
4257.48 0.0389300
4259.15 0.0546515
4259.99 0.0677965
4260.83 0.0877608
4261.67 0.120296
4262.51 0.178714
4263.35 0.300638
4263.77 0.418907
4264.19 0.627137
4264.61 1.04885
4264.82 1.44329
4265.03 2.10825
4265.13 2.63082
4265.24 3.37369
4265.34 4.47834
4265.39 5.23491
4265.45 6.19690
4265.50 7.47131
4265.55 9.13301
4265.60 11.4440
4265.66 14.6302
4265.71 19.3519
4265.76 26.3280
4265.81 37.1217
4265.86 53.9226
4265.93 86.4202
4266.00 109.460
4266.03 103.949
4266.07 88.9740
4266.14 55.9249
4266.18 40.3699
4266.23 29.7211
4266.32 17.4376
4266.41 11.2397
4266.50 7.81180
4266.59 5.70371
4266.67 4.35109
4266.85 2.75834
4267.03 1.90187
4267.21 1.39045
4267.57 0.837327
4267.93 0.560912
4268.29 0.403454
4268.64 0.305409
4269.00 0.240293
4269.72 0.161910
4270.43 0.118542
4271.15 0.0921146
4271.87 0.0749031
4273.30 0.0547908
4274.73 0.0442275
4277.60 0.0349289
4280.46 0.0324337
4283.33 0.0332868
4289.05 0.0424638
4291.92 0.0517432
4294.78 0.0663381
4297.65 0.0902694
4300.51 0.132710
4301.95 0.167297
4302.66 0.190153
4303.38 0.218230
4304.10 0.253288
4304.81 0.297693
4305.53 0.355141
4305.89 0.390399
4306.24 0.431234
4306.96 0.535074
4307.68 0.681312
4308.39 0.896421
4309.11 1.23019
4309.82 1.78476
4310.18 2.20787
4310.54 2.79153
4310.90 3.61994
4311.26 4.83039
4311.61 6.64092
4311.97 9.35010
4312.49 14.9825
4313.00 18.8594
4313.51 15.1964
4314.03 9.51643
4314.44 6.41181
4314.86 4.46823
4315.27 3.23973
4315.68 2.43597
4316.51 1.50316
4317.33 1.01329
4318.16 0.727045
4318.99 0.546721
4320.64 0.341363
4322.29 0.233775
4323.95 0.170630
4325.60 0.130502
4327.25 0.103463
4330.56 0.0705047
4333.86 0.0520601
4340.48 0.0336649
4347.09 0.0260555
4353.70 0.0246506
4357.00 0.0274677
4358.66 0.0310804
4360.31 0.0381714
4361.96 0.0538505
4362.79 0.0696350
4363.62 0.0984189
4364.03 0.122701
4364.44 0.159613
4364.86 0.219842
4365.27 0.328068
4365.68 0.552902
4365.89 0.770168
4366.10 1.14921
4366.30 1.91045
4366.41 2.61018
4366.51 3.77891
4366.61 5.97341
4366.66 7.85429
4366.72 10.6897
4366.77 15.4343
4366.79 19.0234
4366.82 23.7137
4366.84 30.5165
4366.87 40.3058
4366.90 54.6621
4366.92 74.6817
4366.96 120.168
4367.00 149.854
4367.02 141.057
4367.04 119.607
4367.08 75.1909
4367.11 51.1673
4367.14 36.3101
4367.17 26.4400
4367.20 20.1121
4367.26 12.5275
4367.32 8.48706
4367.38 6.10884
4367.45 4.59980
4367.57 2.87247
4367.69 1.96227
4367.81 1.42583
4367.93 1.08373
4368.06 0.852430
4368.30 0.568912
4368.54 0.408442
4368.79 0.308929
4369.03 0.243235
4369.52 0.164004
4370.01 0.120102
4370.98 0.0757434
4371.96 0.0549149
4372.93 0.0435687
4374.88 0.0323874
4378.78 0.0250727
4382.69 0.0236423
4390.49 0.0266330
4398.29 0.0358714
4402.19 0.0441899
4406.09 0.0569884
4409.99 0.0777685
4413.90 0.114426
4415.85 0.144177
4416.82 0.163822
4417.80 0.187890
4418.77 0.217872
4419.75 0.255774
4420.24 0.278631
4420.72 0.304676
4421.21 0.334653
4421.70 0.369236
4422.67 0.456939
4423.65 0.579843
4424.62 0.759386
4425.60 1.03536
4426.58 1.48842
4427.06 1.82974
4427.55 2.29397
4428.04 2.94429
4428.53 3.87446
4429.01 5.23552
4429.50 7.21240
4430.25 11.5458
4431.00 14.4335
4431.75 11.5356
4432.50 7.20354
4432.96 5.30995
4433.43 3.98345
4434.35 2.40380
4435.28 1.57846
4436.20 1.10702
4437.13 0.816284
4438.06 0.625661
4439.91 0.400528
4441.76 0.278207
4443.61 0.204757
4447.31 0.124920
4451.02 0.0849762
4454.72 0.0623754
4458.42 0.0485825
4462.13 0.0398459
4469.53 0.0314602
4473.24 0.0310260
4476.94 0.0341130
4480.64 0.0444954
4482.49 0.0560519
4484.34 0.0778115
4485.27 0.0963255
4486.20 0.124597
4487.12 0.170666
4488.05 0.252837
4488.51 0.320538
4488.97 0.421480
4489.44 0.581431
4489.90 0.856823
4490.13 1.07626
4490.36 1.39125
4490.59 1.87057
4490.71 2.20844
4490.83 2.64157
4490.94 3.21955
4491.06 4.00582
4491.17 5.10992
4491.29 6.70312
4491.40 9.14823
4491.52 13.0236
4491.64 19.5874
4491.75 30.6980
4491.88 48.9217
4492.00 60.2619
4492.13 47.5328
4492.25 29.6117
4492.37 18.4558
4492.49 12.1636
4492.61 8.47608
4492.74 6.19324
4492.86 4.70247
4492.98 3.68299
4493.22 2.42622
4493.46 1.71257
4493.70 1.27380
4494.19 0.783721
4494.67 0.530905
4495.16 0.384401
4495.64 0.291862
4496.13 0.229713
4497.09 0.153960
4498.06 0.111365
4499.03 0.0849856
4500.00 0.0675338
4500.00 0.826534
5000.00 0.753890
6000.00 0.666685
7000.00 0.591251
7200.00 0.582974
8000.00 0.549866
8500.00 0.526443
9000.00 0.503019
10000.0 0.477305
11000.0 0.436668
12000.0 0.422260
12500.0 0.414148
13000.0 0.406036
14000.0 0.391826
15000.0 0.379253
17000.0 0.358636
20000.0 0.328835
22000.0 0.316835
25000.0 0.302287
30000.0 0.283450
35000.0 0.267389
40000.0 0.250767
50000.0 0.217524
55000.0 0.215019
60000.0 0.213208
65000.0 0.211460
70000.0 0.209386
72000.0 0.208678
80000.0 0.205844
85000.0 0.204366
90000.0 0.202887
99999.9 0.176731
100665 0.174991
115000 0.137496
120000 0.131914
130000 0.121345
140000 0.113735
150000 0.108653
160000 0.105054
170000 0.102259
180000 0.100197
190000 0.0987163
200000 0.0974199
250000 0.0913858
270000 0.0908358
300000 0.0877517
320000 0.0864006
331256 0.0850424
350000 0.0827807
400000 0.0823664
420000 0.0814458
450000 0.0828116
500000 0.0820380
520000 0.0821662
550000 0.0833517
600000 0.0849518
610000 0.0850242
620000 0.0869591
630000 0.0876962
643500 0.0879291
650000 0.0880413
684273 0.0892411
700000 0.0897916
750000 0.0908539
850000 0.0965583
900000 0.0998125
950000 0.103161
1.00000E+06 0.107821
1.05000E+06 0.110754
1.10000E+06 0.114186
1.14211E+06 0.117454
1.15000E+06 0.118066
1.15075E+06 0.118106
1.20000E+06 0.120756
1.22818E+06 0.121811
1.25000E+06 0.122627
1.26439E+06 0.122955
1.29631E+06 0.123681
1.30000E+06 0.123765
1.33851E+06 0.122291
1.70000E+06 0.108452
1.80000E+06 0.103787
1.90000E+06 0.0985579
2.00000E+06 0.0917581
2.10000E+06 0.0832203
2.20000E+06 0.0758702
2.30000E+06 0.0685625
2.50000E+06 0.0563071
2.75000E+06 0.0432719
3.00000E+06 0.0336063
3.50000E+06 0.0209731
4.00000E+06 0.0132252
4.50000E+06 0.00833989
5.00000E+06 0.00527701
5.50000E+06 0.00331783
6.00000E+06 0.00212989
6.50000E+06 0.00141650
7.00000E+06 0.000924124
7.50000E+06 0.000690389
8.00000E+06 0.000620734
8.10871E+06 0.000612699
8.20000E+06 0.000605952
8.40000E+06 0.000597269
8.60000E+06 0.000591314
8.80000E+06 0.000596781
9.00000E+06 0.000607617
9.30000E+06 0.000626218
9.60000E+06 0.000651531
1.00000E+07 0.000687030
1.05000E+07 0.000739723
1.10000E+07 0.000781294
1.15000E+07 0.000805514
1.20000E+07 0.000813676
1.25000E+07 0.000799943
1.30000E+07 0.000778392
1.35000E+07 0.000746431
1.40000E+07 0.000705531
1.45000E+07 0.000657702
1.48268E+07 0.000622126
1.50000E+07 0.000603263
1.55000E+07 0.000539403
1.60000E+07 0.000476891
1.70000E+07 0.000371739
1.80000E+07 0.000288627
1.90000E+07 0.000228169
2.00000E+07 0.000184755
2.20000E+07 0.000133781
2.32854E+07 0.000113227
2.35085E+07 0.000109659
2.40000E+07 0.000101800
2.60000E+07 7.98143E-05
2.80000E+07 6.55137E-05
3.20000E+07 4.51780E-05
3.40000E+07 3.82125E-05
4.00000E+07 2.22058E-05
4.50000E+07 9.87351E-06
5.00000E+07 4.11183E-06
5.50000E+07 3.44615E-06
5.84929E+07 3.05854E-06
6.00000E+07 2.89130E-06
6.08326E+07 2.74945E-06
6.32659E+07 2.33487E-06
6.57966E+07 1.90370E-06
6.84284E+07 1.45531E-06
7.00000E+07 1.18755E-06
7.11656E+07 1.09504E-06
7.40122E+07 8.69107E-07
7.69727E+07 6.34137E-07
8.00000E+07 3.93864E-07
8.00516E+07 3.92887E-07
8.32536E+07 3.32283E-07
8.65838E+07 2.69251E-07
9.00000E+07 2.04592E-07
9.00471E+07 2.04202E-07
9.36490E+07 1.74363E-07
9.73950E+07 1.43331E-07
1.00000E+08 1.21751E-07
1.01291E+08 1.16231E-07
1.05342E+08 9.89096E-08
1.09556E+08 8.08913E-08
1.13938E+08 6.21547E-08
1.15000E+08 5.76138E-08
1.18496E+08 5.07847E-08
1.23236E+08 4.15255E-08
1.28165E+08 3.18971E-08
1.30000E+08 2.83126E-08
1.33292E+08 2.59615E-08
1.38623E+08 2.21542E-08
1.44168E+08 1.81940E-08
1.49935E+08 1.40753E-08
1.50000E+08 1.40289E-08