W-184(n,g) ENDF/B-VII.1
Energy(eV) XS(b)
1.00000E-05 75.5165
1.25000E-05 67.5440
1.50000E-05 61.6590
2.00000E-05 53.3982
2.75000E-05 45.5382
3.50000E-05 40.3653
4.25000E-05 36.6309
5.00000E-05 33.7720
6.25000E-05 30.2066
7.50000E-05 27.5747
0.000100000 23.8804
0.000125000 21.3593
0.000150000 19.4983
0.000200000 16.8860
0.000275000 14.4004
0.000350000 12.7646
0.000425000 11.5837
0.000500000 10.6797
0.000625000 9.55218
0.000750000 8.71991
0.00100000 7.55167
0.00125000 6.75442
0.00150000 6.16592
0.00200000 5.33984
0.00275000 4.55384
0.00350000 4.03656
0.00425000 3.66312
0.00500000 3.37723
0.00625000 3.02070
0.00750000 2.75751
0.0100000 2.38809
0.0125000 2.13598
0.0150000 1.94989
0.0200000 1.68867
0.0253000 1.50143
0.0314750 1.34613
0.0376500 1.23081
0.0500000 1.06807
0.0625000 0.955338
0.0750000 0.872122
0.100000 0.755318
0.125000 0.675612
0.150000 0.616778
0.200000 0.534200
0.275000 0.455637
0.350000 0.403941
0.500000 0.338066
0.750000 0.276174
1.00000 0.239299
1.50000 0.195595
2.00000 0.169575
2.75000 0.144856
3.50000 0.128622
5.00000 0.108000
7.50000 0.0887499
10.0000 0.0773990
15.0000 0.0641997
20.0000 0.0566221
27.5000 0.0498765
35.0000 0.0459673
50.0000 0.0425466
75.0000 0.0454256
87.5000 0.0543263
90.6250 0.0601207
93.7500 0.0721692
95.3125 0.0848082
96.8750 0.110594
97.6563 0.135529
98.4375 0.179981
99.2188 0.272060
99.6094 0.360927
100.000 0.517502
100.209 0.655771
100.418 0.866593
100.626 1.21158
100.835 1.83460
100.939 2.35467
101.044 3.14036
101.148 4.41174
101.252 6.66439
101.305 8.51111
101.357 11.2538
101.409 15.5792
101.461 22.9602
101.513 37.1658
101.526 42.7999
101.539 49.7449
101.552 58.5798
101.559 63.8506
101.565 69.8540
101.572 76.8429
101.579 84.7816
101.585 93.9872
101.592 104.736
101.598 117.594
101.605 132.633
101.618 172.376
101.631 232.219
101.644 324.925
101.650 390.840
101.657 475.489
101.663 584.399
101.670 723.173
101.685 1158.54
101.700 1446.42
101.708 1360.91
101.715 1155.75
101.730 723.298
101.747 428.541
101.763 271.036
101.780 183.465
101.796 131.292
101.812 98.1616
101.829 75.9740
101.862 49.2013
101.894 34.3639
101.927 25.3258
101.993 15.3800
102.058 10.3140
102.124 7.39659
102.189 5.56583
102.255 4.34414
102.386 2.86212
102.517 2.03400
102.648 1.52464
102.779 1.18927
103.042 0.789116
103.304 0.568790
103.566 0.434782
103.829 0.347335
104.353 0.243979
104.878 0.187723
105.927 0.132018
106.976 0.106710
108.025 0.0934519
110.123 0.0814813
114.319 0.0765334
118.516 0.0792787
126.908 0.0938609
135.301 0.119735
143.694 0.164326
152.086 0.248434
154.184 0.281127
156.282 0.321417
157.332 0.345175
157.856 0.358131
158.381 0.371879
158.905 0.386493
159.430 0.402042
159.954 0.418613
160.479 0.436299
161.003 0.455210
161.528 0.475458
162.052 0.497185
162.577 0.520541
163.626 0.572913
164.675 0.634498
165.724 0.708472
166.773 0.802217
167.822 0.957131
168.347 1.22205
168.478 1.43899
168.609 1.98364
168.675 2.65631
168.708 3.26707
168.740 4.26920
168.773 6.09427
168.789 7.61917
168.806 9.91585
168.822 13.5767
168.839 19.8296
168.855 31.3651
168.871 53.5099
168.886 85.1426
168.900 106.055
168.914 84.9361
168.929 53.5327
168.943 33.2774
168.957 22.0178
168.972 15.4825
168.986 11.5178
169.015 7.19707
169.044 5.06259
169.072 3.86571
169.101 3.13170
169.158 2.31994
169.273 1.67284
169.388 1.43329
169.847 1.23524
170.765 1.31997
172.602 1.73103
174.439 2.41903
175.357 2.93446
176.275 3.63770
177.194 4.63202
178.112 6.10245
179.030 8.40880
179.949 12.3254
180.408 15.3978
180.867 19.7735
181.326 26.2972
181.785 36.6064
182.245 54.2050
182.704 87.4788
182.933 116.032
183.163 159.467
183.393 227.791
183.622 335.904
183.911 536.616
184.200 669.402
184.490 534.438
184.779 333.519
185.017 222.857
185.255 154.235
185.493 111.232
185.730 83.2925
186.206 51.0927
186.682 34.2611
187.157 24.4722
187.633 18.3154
188.584 11.3261
189.536 7.67387
190.487 5.53385
191.438 4.17515
192.390 3.25979
194.292 2.14242
196.195 1.51312
198.097 1.12449
200.000 0.868002
202.623 0.636646
205.246 0.486731
210.493 0.311031
215.739 0.216206
220.985 0.159573
226.232 0.123489
231.478 0.100215
236.724 0.0913851
238.036 0.0968489
239.347 0.119145
240.003 0.153019
240.331 0.187532
240.659 0.250969
240.987 0.386345
241.151 0.520174
241.315 0.761086
241.397 0.961499
241.479 1.26345
241.561 1.74897
241.643 2.60172
241.725 4.31572
241.766 5.90687
241.807 8.57504
241.848 13.5796
241.868 17.8894
241.889 24.5810
241.909 35.7083
241.930 55.9256
241.940 72.6659
241.950 96.8864
241.960 133.014
241.971 186.837
241.978 239.207
241.985 298.971
242.000 372.831
242.015 297.989
242.030 186.061
242.046 107.585
242.063 67.0872
242.080 44.9010
242.097 31.9508
242.113 23.7593
242.130 18.3460
242.164 11.8380
242.197 8.25654
242.231 6.08497
242.298 3.70285
242.365 2.49650
242.432 1.80331
242.499 1.36892
242.566 1.07894
242.700 0.728051
242.834 0.531915
242.968 0.411270
243.102 0.331786
243.370 0.236791
243.638 0.184246
244.174 0.130878
244.710 0.105398
245.246 0.0910490
246.318 0.0758253
248.462 0.0628358
250.606 0.0564431
259.181 0.0439921
276.333 0.0349887
284.909 0.0365786
289.197 0.0405045
293.485 0.0492110
297.773 0.0696648
299.917 0.0907873
302.061 0.129955
303.133 0.163291
304.205 0.214560
305.277 0.299247
306.349 0.454037
306.885 0.584684
307.421 0.784457
307.957 1.11233
308.493 1.70675
308.761 2.20451
309.029 2.95992
309.297 4.18701
309.364 4.61419
309.431 5.11054
309.498 5.69182
309.565 6.37857
309.632 7.19790
309.665 7.66819
309.699 8.18621
309.766 9.39332
309.833 10.8888
309.900 12.7722
309.967 15.1898
310.034 18.3639
310.101 22.6450
310.168 28.6121
310.235 37.2748
310.302 50.5220
310.369 72.2114
310.402 88.6174
310.436 111.193
310.469 143.367
310.503 191.215
310.536 266.147
310.570 390.932
310.603 612.817
310.637 1020.01
310.668 1632.36
310.700 2036.15
310.732 1625.49
310.764 1016.16
310.791 666.565
310.818 455.285
310.846 324.908
310.873 241.668
310.928 146.873
310.982 97.9576
311.037 69.7470
311.092 52.0952
311.201 32.1688
311.310 21.7867
311.420 15.7216
311.529 11.8714
311.638 9.28112
311.857 6.11751
312.076 4.33435
312.295 3.23172
312.513 2.50286
312.951 1.62962
313.388 1.14669
313.826 0.851854
314.263 0.658769
315.138 0.429615
316.013 0.304024
316.888 0.227810
317.762 0.178112
319.512 0.119347
321.262 0.0872157
324.761 0.0549806
328.261 0.0398371
331.760 0.0314587
338.759 0.0228604
352.756 0.0162877
366.754 0.0139499
380.751 0.0135225
394.749 0.0158298
401.748 0.0200717
405.247 0.0245305
408.747 0.0328548
412.246 0.0509263
413.996 0.0690823
415.745 0.102391
416.620 0.130603
417.495 0.173884
418.370 0.245258
419.245 0.375531
419.682 0.485403
420.120 0.653257
420.557 0.928494
420.994 1.42688
421.213 1.84371
421.432 2.47553
421.651 3.50013
421.869 5.32552
421.979 6.82817
422.033 7.83005
422.088 9.06714
422.115 9.80137
422.143 10.6252
422.170 11.5610
422.197 12.6216
422.225 13.8396
422.252 15.2367
422.279 16.8560
422.307 18.7468
422.334 20.9820
422.361 23.6294
422.389 26.8210
422.416 30.6854
422.443 35.4612
422.471 41.4091
422.498 48.9699
422.525 58.7744
422.553 71.8434
422.580 89.6198
422.607 114.793
422.635 151.601
422.662 208.433
422.689 300.407
422.717 458.189
422.744 735.938
422.772 1177.61
422.800 1472.73
422.828 1178.76
422.856 736.796
422.875 528.352
422.894 387.780
422.913 292.154
422.931 226.451
422.969 145.586
423.007 100.722
423.044 73.4712
423.082 55.8383
423.157 35.2907
423.233 24.2501
423.308 17.6752
423.383 13.4465
423.459 10.5695
423.609 7.01858
423.760 4.99658
423.911 3.73746
424.061 2.90133
424.363 1.89373
424.664 1.33358
424.966 0.990278
425.267 0.764940
425.870 0.496787
426.472 0.349443
427.075 0.259909
427.678 0.201480
428.883 0.132371
430.088 0.0946251
431.294 0.0717809
432.499 0.0569144
434.910 0.0393784
437.321 0.0298212
442.142 0.0202799
446.964 0.0158390
451.785 0.0134147
461.428 0.0109978
480.714 0.00934274
500.000 0.00896757
545.209 0.00994791
567.813 0.0114087
590.418 0.0140949
613.022 0.0195792
624.324 0.0248114
635.626 0.0340646
646.929 0.0532800
652.580 0.0720938
658.231 0.106047
661.056 0.134483
663.882 0.177755
666.707 0.248461
668.120 0.302038
668.827 0.335919
669.533 0.376095
670.239 0.424250
670.946 0.482640
671.299 0.516606
671.652 0.554393
672.005 0.596594
672.359 0.643928
673.065 0.757654
673.771 0.905151
674.478 1.10125
675.184 1.36986
675.890 1.75181
676.597 2.32092
677.303 3.22257
678.010 4.77528
678.363 6.01040
678.716 7.79283
679.069 10.4969
679.422 14.8757
679.776 22.6181
679.952 28.9038
680.129 38.1020
680.305 52.1997
680.482 74.9942
680.659 113.922
680.835 182.135
681.018 292.112
681.200 368.804
681.383 298.025
681.565 186.718
681.738 117.677
681.910 77.7913
682.083 54.2685
682.256 39.6610
682.429 30.1069
682.601 23.5681
682.947 15.5055
683.292 10.9398
683.637 8.11925
684.328 4.97194
685.019 3.35246
685.710 2.41282
686.400 1.82009
687.091 1.42259
688.472 0.939539
689.854 0.668716
691.235 0.502072
692.617 0.392585
695.380 0.263470
698.143 0.197492
699.524 0.181697
700.905 0.186543
701.596 0.211776
701.942 0.241256
702.287 0.298160
702.632 0.423035
702.805 0.547792
702.978 0.773343
703.150 1.24465
703.237 1.70061
703.323 2.50138
703.409 4.10945
703.453 5.60050
703.496 8.09763
703.539 12.7703
703.561 16.7846
703.582 22.9653
703.604 33.2397
703.614 41.0530
703.625 51.7969
703.631 58.7094
703.636 66.9833
703.641 76.9554
703.647 89.0503
703.652 103.793
703.658 121.810
703.663 143.789
703.668 169.817
703.676 217.828
703.684 271.991
703.700 339.592
703.708 319.299
703.716 271.401
703.732 169.888
703.742 124.848
703.751 93.6729
703.771 56.5453
703.791 37.1434
703.810 26.0587
703.830 19.2217
703.849 14.7382
703.889 9.43933
703.928 6.55527
703.967 4.82678
704.046 2.94490
704.124 1.99742
704.202 1.45604
704.281 1.11725
704.359 0.891747
704.516 0.618946
704.673 0.466412
704.987 0.310231
705.301 0.235360
705.615 0.193297
706.242 0.149213
707.497 0.113285
708.753 0.0971584
713.773 0.0708050
723.815 0.0540929
733.856 0.0515253
743.898 0.0573881
753.939 0.0733584
763.981 0.108982
769.001 0.142867
771.512 0.167660
772.767 0.183033
774.022 0.201038
774.650 0.211247
775.277 0.222415
775.591 0.228404
775.905 0.234692
776.533 0.248271
777.160 0.263409
777.788 0.280454
778.415 0.299908
779.043 0.322531
779.670 0.349577
780.298 0.383268
780.926 0.428035
781.553 0.494092
782.181 0.610309
782.495 0.713534
782.808 0.889692
783.122 1.24499
783.279 1.58554
783.436 2.18748
783.593 3.41777
783.671 4.58843
783.750 6.61266
783.828 10.5889
783.868 14.1863
783.907 20.0788
783.946 30.6792
783.966 39.4393
783.985 52.4853
784.005 72.9612
784.024 107.183
784.044 168.420
784.064 282.547
784.082 453.794
784.100 573.226
784.118 463.385
784.137 290.816
784.151 199.541
784.164 141.317
784.178 103.744
784.192 78.7646
784.206 61.4645
784.220 49.2538
784.234 40.3000
784.248 33.5624
784.276 24.2826
784.304 18.4125
784.331 14.4634
784.359 11.6849
784.387 9.65230
784.415 8.13194
784.443 6.96174
784.471 6.04232
784.526 4.70823
784.582 3.80894
784.693 2.70763
784.805 2.08850
785.027 1.45852
785.250 1.16662
785.472 1.01360
785.918 0.879817
786.808 0.846281
787.699 0.916411
788.590 1.04012
789.480 1.21397
790.371 1.44963
791.261 1.77119
792.152 2.22060
793.043 2.87169
793.933 3.86181
794.824 5.46795
795.714 8.31301
796.160 10.6264
796.605 14.0165
797.050 19.2218
797.496 27.6583
797.941 42.1103
798.386 67.5277
798.843 108.161
799.300 136.114
799.757 109.693
800.214 68.6958
800.519 49.4077
800.825 36.2809
801.130 27.3779
801.436 21.2202
802.046 13.6533
802.657 9.44220
803.268 6.89093
803.878 5.23975
805.100 3.31327
806.321 2.27966
807.543 1.66350
809.986 0.998105
812.428 0.666075
814.871 0.477151
817.314 0.359609
819.757 0.281606
824.643 0.187897
829.528 0.136050
834.414 0.104542
839.300 0.0841145
849.071 0.0605659
858.843 0.0487388
878.386 0.0409770
897.928 0.0469358
907.700 0.0569197
917.471 0.0767773
927.243 0.120217
932.129 0.163357
934.571 0.196049
937.014 0.241188
938.236 0.270501
938.846 0.287374
939.457 0.305999
939.763 0.316046
940.068 0.326627
940.679 0.349556
941.289 0.375143
941.900 0.403814
942.511 0.436091
943.121 0.472594
943.732 0.514101
944.343 0.561570
945.564 0.679510
946.786 0.840496
948.007 1.06834
949.229 1.40578
950.450 1.93606
951.061 2.32277
951.671 2.83886
952.282 3.54882
952.893 4.56199
953.504 6.07669
954.114 8.47998
954.725 12.6042
955.030 15.8537
955.336 20.4710
955.641 27.2840
955.946 37.7431
956.252 54.4173
956.557 81.2703
956.929 130.276
957.300 164.463
957.672 132.905
958.044 83.2448
958.360 54.9203
958.675 37.6060
958.991 26.9085
959.306 20.0318
959.937 12.1967
960.568 8.14609
961.199 5.80720
961.830 4.34316
963.092 2.68872
964.355 1.82772
965.617 1.32452
966.879 1.00562
968.141 0.791125
970.665 0.529888
973.189 0.383458
975.713 0.293821
978.237 0.235685
983.286 0.170726
988.334 0.149076
990.858 0.159498
992.120 0.177295
993.382 0.214706
994.644 0.300317
995.275 0.387518
995.906 0.547368
996.222 0.682043
996.538 0.887045
996.853 1.22106
997.169 1.81948
997.326 2.31454
997.484 3.05591
997.563 3.57390
997.642 4.23999
997.721 5.11633
997.800 6.29958
997.839 7.05573
997.878 7.95568
997.918 9.04401
997.957 10.3696
997.997 12.0154
998.036 14.0809
998.076 16.7277
998.115 20.1934
998.155 24.8621
998.194 31.3137
998.233 40.6135
998.273 54.5701
998.312 76.8380
998.352 114.679
998.371 143.904
998.391 184.184
998.411 240.327
998.431 318.045
998.465 509.397
998.500 637.798
998.535 511.119
998.570 319.841
998.592 232.735
998.614 172.646
998.659 102.587
998.704 66.6874
998.748 46.4434
998.793 34.0687
998.838 26.0057
998.927 16.5371
999.017 11.4248
999.106 8.36385
999.285 5.04458
999.464 3.38140
999.642 2.43206
999.821 1.83986
1000.00 1.44583
1000.33 0.997664
1000.66 0.738226
1001.32 0.465135
1001.98 0.331260
1002.64 0.255867
1003.96 0.177929
1005.28 0.140304
1007.91 0.105970
1010.55 0.0911844
1015.83 0.0798050
1021.10 0.0777005
1031.65 0.0871091
1042.20 0.115331
1047.48 0.141179
1050.11 0.158963
1052.75 0.181344
1054.07 0.194742
1055.39 0.209948
1056.71 0.227287
1057.37 0.236873
1058.03 0.247150
1058.69 0.258202
1059.34 0.270072
1060.00 0.282880
1060.66 0.296683
1061.98 0.327801
1063.30 0.364463
1064.62 0.408119
1065.94 0.460611
1067.26 0.524475
1068.58 0.603159
1069.89 0.701760
1071.21 0.827474
1072.53 0.991168
1073.85 1.20953
1075.17 1.51021
1076.49 1.93961
1077.81 2.58204
1079.13 3.60141
1080.44 5.35421
1081.10 6.73811
1081.76 8.70475
1082.42 11.6148
1083.08 16.0856
1083.74 23.2247
1084.40 34.7444
1085.20 55.6707
1086.00 69.9342
1086.80 56.1759
1087.60 35.1196
1088.29 23.0072
1088.98 15.6737
1089.67 11.1761
1090.36 8.30344
1091.74 5.04330
1093.13 3.36490
1094.51 2.39815
1095.89 1.79475
1098.65 1.11480
1101.41 0.762505
1104.18 0.558311
1106.94 0.430798
1109.70 0.347643
1115.23 0.258649
1120.75 0.250427
1123.51 0.301599
1124.89 0.363989
1126.28 0.484694
1127.66 0.747579
1128.35 1.00736
1129.04 1.47054
1129.38 1.85248
1129.56 2.10692
1129.73 2.41938
1129.90 2.81374
1129.99 3.04834
1130.07 3.31475
1130.16 3.62271
1130.25 3.97268
1130.33 4.37736
1130.42 4.84870
1130.51 5.40906
1130.59 6.06584
1130.68 6.86157
1130.77 7.81411
1130.85 8.99593
1130.94 10.4491
1131.02 12.2841
1131.11 14.6444
1131.20 17.7881
1131.28 21.9834
1131.37 27.8073
1131.46 36.1751
1131.54 48.8657
1131.63 68.5176
1131.71 100.506
1131.80 153.084
1131.90 243.553
1132.00 298.916
1132.10 235.189
1132.20 146.526
1132.26 107.524
1132.33 80.4143
1132.45 48.5314
1132.58 31.8910
1132.70 22.3833
1132.83 16.5164
1132.95 12.6670
1133.20 8.11448
1133.45 5.63177
1133.70 4.14537
1134.20 2.52545
1134.70 1.70838
1135.20 1.24133
1135.70 0.948455
1136.20 0.753367
1137.21 0.516634
1138.21 0.383658
1140.21 0.246415
1142.21 0.179601
1144.21 0.141431
1148.21 0.100494
1152.22 0.0791871
1156.22 0.0661601
1164.23 0.0510642
1180.24 0.0379136
1196.26 0.0343263
1212.27 0.0382286
1220.28 0.0448189
1228.28 0.0582133
1236.29 0.0879649
1240.29 0.117709
1244.30 0.171472
1246.30 0.216254
1247.30 0.246336
1247.80 0.264017
1248.30 0.283782
1248.80 0.306064
1249.05 0.318240
1249.30 0.331201
1249.80 0.359823
1250.30 0.392467
1250.80 0.430077
1251.30 0.473531
1251.80 0.524205
1252.30 0.583790
1252.81 0.654653
1253.31 0.739458
1253.81 0.842549
1254.31 0.969019
1254.81 1.12716
1255.31 1.32758
1255.81 1.58724
1256.31 1.93182
1256.81 2.40353
1257.31 3.06964
1257.81 4.05612
1258.31 5.59359
1258.81 8.17747
1259.06 10.1632
1259.31 12.9249
1259.56 16.8855
1259.81 22.7495
1260.06 31.6666
1260.31 45.2637
1260.66 72.6910
1261.00 91.3969
1261.35 73.2610
1261.69 45.6970
1261.98 30.3575
1262.26 20.9385
1262.55 15.0681
1262.84 11.2670
1263.41 6.89832
1263.98 4.62719
1264.55 3.30731
1265.13 2.47965
1266.27 1.54030
1267.42 1.04981
1268.56 0.762466
1269.71 0.580006
1270.85 0.457049
1273.14 0.306891
1275.43 0.222274
1277.72 0.170015
1280.01 0.135564
1284.59 0.0945259
1289.17 0.0721787
1298.33 0.0506712
1307.49 0.0422867
1316.65 0.0402378
1325.80 0.0451489
1328.09 0.0500100
1330.38 0.0626490
1331.53 0.0794305
1332.10 0.0959465
1332.67 0.125817
1333.25 0.189296
1333.53 0.251986
1333.82 0.365364
1333.96 0.460125
1334.11 0.603699
1334.25 0.836435
1334.39 1.25088
1334.46 1.59460
1334.53 2.09989
1334.61 2.91268
1334.68 4.29412
1334.75 7.02263
1334.79 9.48260
1334.80 11.2251
1334.82 13.3477
1334.84 16.3150
1334.86 20.3721
1334.87 26.1072
1334.88 29.8978
1334.89 34.5442
1334.90 40.3105
1334.91 47.5633
1334.92 56.8167
1334.93 68.7983
1334.94 84.5361
1334.95 105.454
1334.96 133.404
1334.96 168.065
1334.98 270.575
1335.00 337.425
1335.01 318.668
1335.02 272.268
1335.04 169.389
1335.05 111.806
1335.07 77.5041
1335.08 54.8683
1335.10 41.2440
1335.13 25.0999
1335.16 16.7590
1335.19 11.9460
1335.22 8.93377
1335.28 5.53076
1335.35 3.75971
1335.41 2.72427
1335.47 2.06766
1335.53 1.63148
1335.66 1.08911
1335.78 0.783728
1335.90 0.595042
1336.03 0.471230
1336.27 0.321663
1336.52 0.239331
1337.02 0.156217
1337.51 0.117289
1338.01 0.0961469
1338.99 0.0754254
1340.97 0.0617609
1342.95 0.0584366
1350.87 0.0650928
1358.78 0.0843867
1366.69 0.120874
1368.67 0.134651
1369.66 0.142574
1370.65 0.151300
1371.64 0.160958
1372.63 0.171662
1373.62 0.183579
1374.61 0.196897
1375.60 0.211861
1376.59 0.228717
1377.58 0.247815
1378.57 0.269571
1379.56 0.294530
1380.54 0.323290
1382.52 0.395819
1384.50 0.497206
1386.48 0.644888
1388.46 0.872223
1390.44 1.24790
1391.43 1.53534
1392.42 1.93454
1393.40 2.51117
1394.39 3.38462
1395.38 4.79022
1396.37 7.21942
1396.87 9.12752
1397.36 11.7905
1397.86 15.5764
1398.35 20.9131
1399.18 33.5242
1400.00 42.3587
1400.83 34.2742
1401.65 21.4959
1402.34 14.3132
1403.02 9.87759
1403.71 7.11576
1404.39 5.33291
1405.77 3.29019
1407.14 2.23452
1408.51 1.62945
1409.88 1.25877
1412.62 0.873627
1415.37 0.757972
1416.74 0.793295
1418.11 0.930519
1419.48 1.28367
1420.17 1.64148
1420.51 1.90901
1420.85 2.26982
1421.02 2.50060
1421.19 2.77347
1421.28 2.93049
1421.37 3.10302
1421.45 3.29312
1421.54 3.50063
1421.62 3.73324
1421.71 3.99196
1421.88 4.60045
1422.05 5.37517
1422.22 6.36815
1422.40 7.68379
1422.57 9.45013
1422.74 11.9211
1422.91 15.4561
1423.08 20.7795
1423.25 29.0482
1423.42 42.4490
1423.59 64.2391
1423.80 101.415
1424.00 120.660
1424.20 92.0897
1424.41 56.9377
1424.58 37.6277
1424.75 25.9243
1424.93 18.6853
1425.10 14.0348
1425.45 8.67684
1425.80 5.87953
1426.14 4.25180
1426.49 3.22594
1427.18 2.05720
1427.88 1.44221
1428.57 1.07871
1429.96 0.686508
1431.35 0.488425
1432.74 0.373296
1435.51 0.248921
1438.29 0.184731
1441.07 0.146264
1446.62 0.103134
1452.17 0.0803361
1457.72 0.0670997
1468.83 0.0557511
1479.93 0.0595964
1485.49 0.0697303
1491.04 0.0914025
1496.59 0.140345
1499.37 0.189265
1502.15 0.277042
1503.53 0.349500
1504.23 0.397795
1504.58 0.426026
1504.92 0.457541
1505.27 0.492866
1505.44 0.512209
1505.62 0.532637
1505.96 0.577629
1506.31 0.628790
1506.66 0.687297
1507.00 0.754616
1507.35 0.832602
1507.70 0.923616
1508.05 1.03071
1508.39 1.15788
1509.09 1.49555
1509.78 2.00688
1510.13 2.36690
1510.47 2.83257
1510.82 3.44871
1511.17 4.28596
1511.52 5.46014
1511.86 7.16968
1512.21 9.77105
1512.56 13.9328
1512.90 20.9259
1513.25 32.8889
1513.63 52.4674
1514.00 64.7167
1514.38 51.0504
1514.75 31.7773
1515.04 21.7292
1515.33 15.3308
1515.62 11.2254
1515.91 8.51266
1516.49 5.31448
1517.08 3.60751
1517.66 2.60120
1518.24 1.96187
1519.40 1.22911
1520.56 0.842470
1521.72 0.614400
1522.89 0.468872
1524.05 0.370450
1526.37 0.249803
1528.70 0.181705
1531.02 0.139750
1533.34 0.112394
1537.99 0.0818468
1542.64 0.0731223
1544.97 0.0810316
1546.13 0.0927188
1547.29 0.116657
1548.45 0.170886
1549.03 0.225972
1549.61 0.326928
1549.91 0.412155
1550.20 0.541539
1550.49 0.753282
1550.78 1.13182
1550.92 1.44761
1551.07 1.91855
1551.21 2.67113
1551.36 3.98326
1551.50 6.60742
1551.58 9.01881
1551.61 10.7235
1551.65 12.9576
1551.69 16.0597
1551.72 20.2664
1551.74 23.0066
1551.76 26.3298
1551.78 30.4086
1551.79 35.4824
1551.81 42.2923
1551.83 50.6344
1551.85 61.5502
1551.87 76.1164
1551.88 95.9485
1551.90 123.448
1551.92 161.996
1551.94 215.535
1551.97 342.083
1552.00 420.692
1552.02 391.697
1552.03 328.871
1552.06 205.227
1552.09 136.778
1552.11 95.8640
1552.14 69.8730
1552.16 52.7669
1552.21 32.7809
1552.26 22.1791
1552.32 15.8552
1552.37 11.9418
1552.47 7.45998
1552.57 5.07872
1552.67 3.69138
1552.77 2.80548
1552.87 2.20586
1553.07 1.46730
1553.27 1.04967
1553.47 0.790804
1553.67 0.620049
1554.07 0.413813
1554.47 0.299586
1554.87 0.229405
1555.28 0.183368
1556.08 0.128275
1556.88 0.0977122
1558.49 0.0663960
1560.09 0.0511347
1561.70 0.0423308
1564.91 0.0326684
1571.33 0.0240714
1577.76 0.0199424
1590.60 0.0159336
1603.45 0.0145489
1616.29 0.0154106
1622.72 0.0172742
1629.14 0.0212663
1635.56 0.0304506
1638.77 0.0398434
1641.99 0.0571537
1643.59 0.0718290
1645.20 0.0943246
1646.80 0.131332
1648.41 0.198545
1649.21 0.254976
1650.01 0.340785
1650.82 0.480538
1651.62 0.730630
1652.02 0.938133
1652.42 1.24865
1652.82 1.74642
1653.03 2.11561
1653.23 2.61289
1653.43 3.31272
1653.53 3.77546
1653.63 4.33588
1653.73 5.03824
1653.83 5.91529
1653.93 7.04118
1654.03 8.51862
1654.13 10.5318
1654.23 13.3064
1654.33 17.3127
1654.43 23.3752
1654.53 33.2242
1654.63 50.0796
1654.68 63.2564
1654.73 81.6120
1654.78 107.508
1654.83 143.796
1654.92 229.845
1655.00 286.208
1655.09 228.097
1655.17 142.425
1655.24 96.7952
1655.30 68.2470
1655.37 49.7098
1655.44 37.6505
1655.57 23.3964
1655.70 15.8242
1655.84 11.3746
1655.97 8.55435
1656.23 5.32943
1656.50 3.63166
1656.77 2.63164
1657.03 1.99416
1657.30 1.56326
1657.83 1.03525
1658.36 0.736476
1658.89 0.551231
1659.43 0.428537
1660.49 0.281262
1661.55 0.199618
1662.62 0.149703
1663.68 0.116978
1665.81 0.0781024
1667.94 0.0567740
1670.07 0.0438301
1672.19 0.0353972
1676.45 0.0254500
1680.70 0.0200626
1689.22 0.0148310
1697.73 0.0126565
1706.24 0.0118243
1723.26 0.0124601
1740.28 0.0164673
1748.79 0.0209990
1757.31 0.0295197
1761.56 0.0367723
1765.82 0.0478827
1770.07 0.0661056
1774.33 0.0990296
1776.46 0.126495
1778.58 0.168002
1780.71 0.235026
1781.78 0.285183
1782.31 0.316637
1782.84 0.353615
1783.11 0.374659
1783.37 0.397663
1783.90 0.450598
1784.44 0.514975
1784.70 0.552512
1784.97 0.594338
1785.50 0.693706
1786.03 0.820388
1786.56 0.985338
1787.10 1.20557
1787.63 1.50864
1788.16 1.94146
1788.69 2.58901
1789.22 3.61738
1789.76 5.38420
1790.02 6.77745
1790.29 8.75959
1790.55 11.6862
1790.82 16.1851
1791.09 23.3608
1791.35 34.8633
1791.68 55.9104
1792.00 70.0351
1792.33 55.9771
1792.65 34.9105
1792.90 23.9398
1793.15 16.9370
1793.40 12.4076
1793.64 9.41117
1794.14 5.87294
1794.64 3.98300
1795.14 2.86854
1795.63 2.16047
1796.63 1.34954
1797.62 0.921185
1798.61 0.668571
1799.61 0.507408
1800.60 0.398504
1802.59 0.264834
1804.58 0.189203
1806.56 0.142278
1808.55 0.111215
1812.53 0.0739339
1816.50 0.0532934
1820.48 0.0407038
1824.45 0.0324831
1832.40 0.0228072
1840.35 0.0176359
1856.25 0.0129457
1872.15 0.0118669
1888.05 0.0142253
1896.00 0.0186793
1899.97 0.0233025
1903.94 0.0318457
1907.92 0.0502112
1909.91 0.0685289
1911.89 0.101885
1912.89 0.129970
1913.88 0.172805
1914.88 0.242871
1915.87 0.369119
1916.37 0.474393
1916.86 0.633379
1917.36 0.889905
1917.61 1.08128
1917.86 1.34233
1918.11 1.71314
1918.35 2.25981
1918.48 2.64045
1918.60 3.12156
1918.73 3.74694
1918.85 4.58014
1918.98 5.73461
1919.10 7.36718
1919.22 9.79974
1919.35 13.6411
1919.47 20.1870
1919.53 25.3067
1919.60 32.5340
1919.66 43.0979
1919.72 59.1246
1919.78 84.2539
1919.84 123.920
1919.92 198.665
1920.00 248.727
1920.08 199.817
1920.16 124.817
1920.24 77.1282
1920.31 50.2746
1920.39 34.7376
1920.47 25.2181
1920.55 19.0511
1920.63 14.8599
1920.78 9.72724
1920.94 6.84141
1921.09 5.06654
1921.41 3.09382
1921.72 2.08257
1922.03 1.49702
1922.34 1.12816
1922.65 0.881002
1923.28 0.580827
1923.90 0.412482
1924.53 0.308745
1925.15 0.240439
1926.40 0.158685
1927.64 0.113623
1928.89 0.0861560
1930.14 0.0682245
1932.63 0.0470157
1935.13 0.0354741
1940.12 0.0240991
1945.11 0.0190326
1950.10 0.0165125
1960.08 0.0147075
1980.04 0.0165365
1990.02 0.0195716
2000.00 0.0248704
2011.09 0.0362933
2016.64 0.0468812
2022.18 0.0650861
2024.95 0.0797854
2026.34 0.0895246
2027.73 0.101553
2029.11 0.116697
2030.50 0.136154
2031.19 0.148055
2031.88 0.161820
2032.58 0.177869
2033.27 0.196750
2033.96 0.219222
2034.66 0.246191
2035.35 0.279016
2036.04 0.319550
2036.74 0.370443
2037.43 0.435590
2038.12 0.520904
2038.82 0.635706
2039.51 0.795647
2040.20 1.02713
2040.90 1.38052
2041.59 1.95827
2042.28 2.99540
2042.63 3.85249
2042.97 5.12353
2043.32 7.12172
2043.67 10.4480
2044.01 16.4193
2044.36 27.5720
2045.00 57.5137
2045.32 47.6647
2045.64 30.0666
2045.99 17.7934
2046.33 11.2307
2046.67 7.58229
2047.02 5.42385
2047.36 4.05430
2047.71 3.14280
2048.40 2.04650
2049.08 1.44072
2049.77 1.07378
2051.15 0.671721
2052.53 0.469590
2053.90 0.355312
2056.66 0.240880
2059.41 0.192474
2062.17 0.173768
2064.92 0.172613
2066.30 0.177286
2066.99 0.180892
2067.68 0.185357
2068.36 0.190728
2069.05 0.197050
2069.40 0.200592
2069.74 0.204387
2070.43 0.212808
2071.12 0.222439
2071.81 0.233378
2072.50 0.245808
2073.18 0.259876
2074.56 0.293961
2075.94 0.337987
2077.32 0.395551
2078.69 0.472120
2080.07 0.576408
2081.45 0.722458
2082.83 0.934827
2084.20 1.25838
2085.58 1.78127
2086.96 2.69065
2087.65 3.40750
2088.33 4.41089
2089.02 5.83829
2089.71 7.84794
2090.86 12.4960
2092.00 15.4430
2093.15 12.2424
2094.29 7.64492
2095.20 5.18571
2096.11 3.63588
2097.02 2.64901
2097.93 2.00040
2099.75 1.24294
2101.57 0.841824
2103.40 0.606522
2105.22 0.457510
2108.86 0.287164
2112.50 0.197431
2116.14 0.144508
2123.43 0.0878398
2130.71 0.0597654
2137.99 0.0438972
2145.28 0.0341464
2152.56 0.0278483
2167.13 0.0211291
2181.70 0.0201761
2188.98 0.0232807
2192.62 0.0271323
2196.27 0.0346174
2199.91 0.0510591
2201.73 0.0675418
2203.55 0.0975827
2204.46 0.122855
2205.37 0.161301
2206.28 0.224122
2207.19 0.336977
2207.65 0.430946
2208.10 0.572151
2208.56 0.799000
2209.01 1.19766
2209.24 1.52202
2209.47 1.99717
2209.58 2.32485
2209.70 2.74043
2209.81 3.27818
2209.92 3.98344
2210.04 4.95173
2210.15 6.31707
2210.27 8.32545
2210.38 11.4068
2210.44 13.6340
2210.49 16.5561
2210.55 20.4787
2210.61 25.8805
2210.66 33.5281
2210.72 44.6589
2210.78 61.2042
2210.83 85.2017
2210.92 136.335
2211.00 168.518
2211.08 133.313
2211.17 83.3430
2211.25 52.3368
2211.33 34.7260
2211.41 24.3083
2211.48 17.8163
2211.64 10.6026
2211.80 7.00037
2211.96 4.94316
2212.12 3.67824
2212.44 2.25865
2212.75 1.52700
2213.07 1.10188
2213.39 0.833452
2213.70 0.653757
2214.34 0.434369
2214.97 0.311190
2215.60 0.235259
2216.24 0.185279
2217.51 0.125573
2218.77 0.0928485
2221.31 0.0604781
2223.84 0.0462520
2226.38 0.0396631
2231.45 0.0377814
2236.52 0.0485445
2239.05 0.0621294
2241.58 0.0881967
2242.85 0.110517
2244.12 0.144687
2245.39 0.200577
2246.65 0.300957
2247.29 0.384152
2247.92 0.508962
2248.56 0.708428
2248.87 0.856193
2249.19 1.05542
2249.35 1.18328
2249.51 1.33496
2249.66 1.51918
2249.82 1.74286
2249.98 2.02181
2250.14 2.37086
2250.30 2.81833
2250.46 3.40454
2250.61 4.19821
2250.77 5.29241
2250.93 6.87857
2251.09 9.25519
2251.25 13.0727
2251.41 19.5576
2251.49 24.5759
2251.56 31.5008
2251.64 41.1581
2251.72 54.5106
2251.86 86.8851
2252.00 107.384
2252.14 84.8240
2252.28 52.8983
2252.43 30.9523
2252.59 19.4806
2252.74 13.1195
2252.90 9.37665
2253.05 6.99317
2253.21 5.41155
2253.51 3.50493
2253.82 2.44641
2254.13 1.80272
2254.75 1.09545
2255.37 0.735592
2255.98 0.528749
2256.60 0.398900
2257.22 0.312103
2258.45 0.206857
2259.69 0.147994
2260.92 0.111717
2262.16 0.0878158
2264.63 0.0592029
2267.10 0.0433751
2272.03 0.0273203
2276.97 0.0197126
2281.91 0.0155045
2291.79 0.0112612
2301.66 0.00933804
2311.54 0.00842674
2331.30 0.00821353
2351.05 0.00995594
2360.93 0.0121128
2370.80 0.0162017
2380.68 0.0249567
2385.62 0.0335800
2390.56 0.0490783
2393.03 0.0619716
2395.50 0.0814226
2397.97 0.112818
2400.43 0.168457
2401.05 0.189173
2401.67 0.214054
2402.29 0.244347
2402.60 0.262058
2402.75 0.271628
2402.90 0.281744
2403.52 0.328734
2403.83 0.356850
2404.14 0.388682
2404.45 0.425162
2404.76 0.466950
2405.06 0.515454
2405.37 0.571801
2405.99 0.716991
2406.61 0.925241
2407.22 1.23919
2407.84 1.74311
2408.15 2.11772
2408.46 2.62448
2408.77 3.33116
2409.08 4.34870
2409.39 5.88655
2409.69 8.30653
2410.00 12.3181
2410.31 19.0352
2410.66 30.4592
2411.00 38.1278
2411.35 30.5520
2411.69 19.1058
2412.06 11.4037
2412.43 7.25882
2412.79 4.93582
2413.16 3.54412
2413.53 2.65691
2413.89 2.06105
2414.63 1.34004
2415.36 0.939410
2416.10 0.694988
2417.56 0.425452
2419.03 0.288367
2420.50 0.209620
2421.97 0.160387
2423.44 0.127705
2426.37 0.0887906
2429.31 0.0680699
2432.25 0.0566444
2435.18 0.0509044
2441.06 0.0523748
2443.99 0.0611954
2446.93 0.0807055
2449.87 0.125281
2451.33 0.170090
2452.80 0.251000
2453.54 0.318244
2454.27 0.419056
2455.00 0.580148
2455.37 0.699433
2455.74 0.860769
2455.92 0.963940
2456.11 1.08639
2456.29 1.23491
2456.47 1.41530
2456.66 1.63992
2456.84 1.92104
2457.02 2.28337
2457.21 2.75538
2457.39 3.39316
2457.57 4.27192
2457.76 5.54233
2457.94 7.44290
2458.12 10.4831
2458.31 15.6293
2458.40 19.6213
2458.49 25.1220
2458.58 32.7802
2458.67 43.2173
2458.84 68.9744
2459.00 85.4108
2459.16 67.7016
2459.33 42.2206
2459.48 26.4543
2459.64 17.4406
2459.80 12.1525
2459.95 8.87773
2460.11 6.73910
2460.27 5.27668
2460.58 3.47838
2460.90 2.45669
2461.21 1.82567
2461.84 1.12226
2462.46 0.759540
2463.09 0.549259
2463.72 0.416467
2464.35 0.327316
2465.60 0.218733
2466.86 0.157698
2468.11 0.120012
2469.36 0.0951355
2471.87 0.0653287
2474.38 0.0488732
2479.40 0.0323950
2484.42 0.0249880
2489.44 0.0214318
2499.48 0.0200554
2509.52 0.0249997
2514.53 0.0314785
2519.55 0.0440210
2522.06 0.0548023
2524.57 0.0713740
2527.08 0.0986328
2529.59 0.147967
2530.85 0.189178
2532.10 0.251519
2533.36 0.352308
2534.61 0.530842
2535.24 0.677243
2535.87 0.894188
2536.18 1.04459
2536.49 1.23589
2536.81 1.48604
2536.96 1.64062
2537.12 1.81938
2537.28 2.03043
2537.43 2.28033
2537.59 2.57913
2537.75 2.94036
2537.90 3.38248
2538.06 3.93123
2538.22 4.62328
2538.37 5.50576
2538.53 6.66985
2538.69 8.23489
2538.85 10.4004
2539.00 13.4753
2539.16 18.0718
2539.32 25.2024
2539.47 36.7047
2539.63 55.3034
2539.81 88.3462
2540.00 110.081
2540.19 87.6971
2540.37 54.7933
2540.53 36.2915
2540.69 25.0036
2540.84 17.9801
2541.00 13.4370
2541.31 8.21449
2541.62 5.50618
2541.94 3.93067
2542.25 2.94445
2542.87 1.82563
2543.50 1.24030
2544.12 0.897420
2544.75 0.679693
2545.37 0.533146
2546.62 0.353782
2547.87 0.252689
2549.12 0.190150
2550.37 0.148814
2552.87 0.0993378
2555.37 0.0720741
2557.87 0.0555539
2560.36 0.0448763
2565.36 0.0326298
2570.36 0.0265896
2580.35 0.0231842
2590.35 0.0281226
2595.35 0.0353773
2600.34 0.0496441
2602.84 0.0619251
2605.34 0.0807478
2607.84 0.111474
2610.34 0.166369
2611.59 0.211604
2612.84 0.278998
2613.46 0.325865
2614.09 0.385767
2614.40 0.422332
2614.71 0.464273
2615.02 0.512853
2615.34 0.569541
2615.65 0.636469
2615.96 0.715701
2616.27 0.811074
2616.59 0.926455
2616.90 1.06878
2617.21 1.24579
2617.52 1.47035
2617.83 1.76082
2618.15 2.14661
2618.46 2.66953
2618.77 3.40315
2619.08 4.47182
2619.40 6.10582
2619.71 8.71730
2620.02 13.1164
2620.33 20.6742
2620.67 33.0080
2621.00 40.9950
2621.34 32.5696
2621.67 20.3297
2621.96 13.2576
2622.25 9.01774
2622.55 6.42473
2622.84 4.76902
2623.42 2.89161
2624.01 1.92777
2624.59 1.37202
2625.18 1.02534
2626.35 0.633784
2627.51 0.430222
2628.68 0.311274
2629.85 0.235861
2631.02 0.185085
2633.36 0.123096
2635.70 0.0881351
2638.04 0.0664948
2640.37 0.0521752
2645.05 0.0349694
2649.72 0.0254082
2654.40 0.0195397
2659.08 0.0156742
2668.43 0.0110449
2677.78 0.00847731
2696.48 0.00587927
2715.18 0.00468879
2733.89 0.00410336
2771.29 0.00384390
2808.70 0.00457018
2827.40 0.00553250
2846.10 0.00737628
2864.80 0.0113378
2874.15 0.0152424
2883.51 0.0222668
2888.18 0.0281154
2892.86 0.0369557
2897.53 0.0512626
2902.21 0.0767246
2904.55 0.0976890
2906.88 0.128999
2908.05 0.150805
2909.22 0.178787
2909.81 0.195865
2910.39 0.215516
2910.98 0.238324
2911.56 0.265001
2912.14 0.296529
2912.73 0.334020
2913.31 0.379235
2913.90 0.434237
2914.48 0.502297
2915.07 0.587549
2915.65 0.696655
2916.24 0.838762
2916.82 1.02914
2917.40 1.29091
2917.99 1.66513
2918.57 2.22175
2919.16 3.09746
2919.74 4.55977
2920.33 7.17789
2920.62 9.24509
2920.91 12.0600
2921.46 19.3776
2922.00 24.4507
2922.55 19.6820
2923.09 12.2951
2923.55 8.14242
2924.00 5.59385
2924.46 4.01323
2924.92 2.99392
2925.83 1.82877
2926.75 1.22476
2927.66 0.874800
2928.57 0.655586
2930.40 0.407363
2932.23 0.278012
2934.05 0.202485
2935.88 0.154690
2937.71 0.122637
2941.36 0.0839272
2945.02 0.0627731
2948.67 0.0505377
2952.33 0.0435921
2959.63 0.0406302
2963.29 0.0450953
2966.94 0.0567511
2970.60 0.0847727
2972.43 0.113332
2974.25 0.165078
2975.17 0.208049
2976.08 0.272395
2976.99 0.375082
2977.45 0.450931
2977.91 0.553012
2978.14 0.618229
2978.36 0.695572
2978.59 0.789088
2978.82 0.902515
2979.05 1.04320
2979.28 1.21886
2979.51 1.44299
2979.73 1.73495
2979.96 2.12658
2980.19 2.66259
2980.42 3.42889
2980.65 4.56137
2980.88 6.33818
2981.10 9.27228
2981.33 14.4507
2981.45 18.4789
2981.56 23.8886
2981.78 38.1396
2982.00 47.3097
2982.22 37.5673
2982.44 23.4400
2982.59 16.8737
2982.73 12.4111
2983.03 7.28387
2983.32 4.70028
2983.62 3.26228
2983.91 2.38562
2984.20 1.81883
2984.79 1.15455
2985.38 0.796778
2985.96 0.583499
2987.14 0.352618
2988.31 0.236987
2989.49 0.171063
2990.66 0.129911
2991.84 0.102498
2994.18 0.0693409
2996.53 0.0507870
3001.23 0.0317363
3005.93 0.0225808
3010.62 0.0174480
3020.02 0.0121675
3029.41 0.00967103
3038.81 0.00837212
3057.59 0.00750035
3076.38 0.00815088
3095.17 0.0110324
3104.57 0.0147276
3109.26 0.0181480
3113.96 0.0240539
3118.66 0.0360306
3121.01 0.0475770
3123.35 0.0681725
3124.53 0.0852893
3125.70 0.111136
3126.88 0.153003
3128.05 0.227694
3128.64 0.289455
3129.23 0.381787
3129.81 0.529080
3130.11 0.638278
3130.40 0.785426
3130.69 0.991903
3130.84 1.12750
3130.99 1.29194
3131.13 1.49695
3131.28 1.75512
3131.43 2.08637
3131.57 2.51738
3131.72 3.10079
3131.87 3.91055
3132.02 5.07758
3132.16 6.82451
3132.31 9.63184
3132.46 14.4466
3132.53 18.2224
3132.60 23.3920
3132.68 30.6452
3132.75 40.7745
3132.87 65.4891
3133.00 83.2186
3133.13 67.7159
3133.25 42.5139
3133.35 29.3350
3133.44 20.8775
3133.54 15.3752
3133.63 11.6948
3133.82 7.31501
3134.01 4.97792
3134.20 3.58864
3134.38 2.70931
3134.76 1.69882
3135.14 1.16337
3135.51 0.848141
3135.89 0.646381
3136.27 0.510272
3137.02 0.343016
3137.77 0.248607
3138.53 0.190191
3139.28 0.151636
3140.79 0.105721
3142.29 0.0807875
3145.30 0.0568944
3148.32 0.0475086
3151.33 0.0444991
3157.36 0.0491040
3163.38 0.0680590
3166.40 0.0874492
3169.41 0.121563
3170.92 0.149242
3171.67 0.167554
3172.42 0.190115
3173.18 0.218436
3173.36 0.226669
3173.55 0.235389
3173.93 0.254614
3174.68 0.302004
3175.06 0.331489
3175.43 0.365902
3175.81 0.406657
3176.19 0.455305
3176.57 0.514053
3176.94 0.585728
3177.32 0.674969
3177.69 0.787414
3178.07 0.932746
3178.45 1.12405
3178.82 1.38445
3179.20 1.74928
3179.58 2.28526
3179.95 3.11101
3180.33 4.47984
3180.71 6.94294
3180.90 8.97150
3181.08 11.9119
3181.27 16.2993
3181.46 22.8764
3182.00 47.8682
3182.14 46.0632
3182.27 39.7944
3182.54 25.1626
3182.84 14.6462
3183.15 9.13270
3183.45 6.13111
3183.75 4.37281
3184.05 3.27099
3184.35 2.54102
3184.96 1.67244
3185.56 1.19809
3186.16 0.914414
3187.37 0.613282
3188.58 0.473884
3189.79 0.409272
3190.99 0.387820
3192.20 0.398312
3192.81 0.414903
3193.41 0.439729
3194.01 0.473972
3194.62 0.519414
3194.92 0.547227
3195.22 0.579002
3195.52 0.615301
3195.82 0.656811
3196.13 0.704371
3196.43 0.759011
3197.03 0.894701
3197.64 1.07891
3198.24 1.33507
3198.84 1.70304
3199.45 2.25268
3200.05 3.11937
3200.65 4.56719
3200.96 5.66700
3201.26 7.15774
3201.56 9.19313
3201.86 11.9333
3202.43 18.9880
3203.00 23.3406
3203.57 18.3804
3204.14 11.4534
3204.57 7.90555
3205.01 5.62747
3205.44 4.14839
3205.87 3.16311
3206.74 1.99383
3207.60 1.36568
3208.46 0.992953
3209.33 0.755529
3211.06 0.482316
3212.79 0.338067
3214.52 0.253582
3217.97 0.167090
3221.43 0.135516
3223.16 0.135721
3224.89 0.151869
3226.62 0.201610
3227.48 0.255714
3228.35 0.356028
3229.21 0.567754
3229.64 0.771923
3230.08 1.12858
3230.51 1.83709
3230.73 2.48308
3230.83 2.94475
3230.94 3.54971
3231.05 4.36293
3231.16 5.49000
3231.21 6.22302
3231.27 7.11079
3231.32 8.19869
3231.37 9.54931
3231.43 11.2505
3231.48 13.4274
3231.54 16.2621
3231.59 20.0217
3231.64 25.1016
3231.70 32.0780
3231.75 41.7417
3231.81 54.9766
3231.90 87.4634
3232.00 105.659
3232.10 81.6662
3232.20 50.7223
3232.31 29.5377
3232.41 18.5912
3232.52 12.5645
3232.63 8.99116
3232.74 6.71106
3232.85 5.20256
3233.07 3.38304
3233.29 2.37097
3233.51 1.75757
3233.94 1.07980
3234.38 0.734883
3234.82 0.535859
3235.25 0.410634
3235.69 0.326846
3236.56 0.224509
3237.44 0.166730
3239.18 0.106570
3240.93 0.0769870
3242.68 0.0599366
3246.17 0.0414312
3249.67 0.0316690
3253.16 0.0256380
3260.15 0.0185402
3274.13 0.0118720
3288.10 0.00876520
3302.08 0.00707084
3316.06 0.00610414
3344.01 0.00541886
3371.97 0.00613360
3385.95 0.00732050
3399.92 0.00971753
3413.90 0.0150277
3420.89 0.0203347
3427.88 0.0299324
3431.37 0.0379328
3434.87 0.0500015
3438.36 0.0694424
3441.85 0.103730
3442.73 0.116432
3443.60 0.131673
3444.48 0.150175
3444.91 0.160948
3445.35 0.172909
3446.22 0.201336
3446.66 0.218279
3447.10 0.237425
3447.53 0.259275
3447.97 0.284302
3448.84 0.346542
3449.72 0.431819
3450.59 0.552610
3451.46 0.731848
3452.34 1.01252
3452.77 1.21633
3453.21 1.48635
3453.65 1.85320
3454.08 2.36473
3454.52 3.10456
3454.96 4.20888
3455.39 5.90448
3455.83 8.50805
3456.42 13.6025
3457.00 17.0180
3457.59 13.6453
3458.17 8.54043
3458.80 5.07224
3459.43 3.21298
3460.06 2.17721
3460.69 1.55936
3461.33 1.16670
3461.96 0.903597
3463.22 0.586137
3464.48 0.409946
3465.74 0.302667
3468.26 0.184398
3470.79 0.124249
3473.31 0.0896274
3475.83 0.0679065
3478.36 0.0534026
3483.40 0.0358682
3488.45 0.0261166
3493.50 0.0201843
3498.54 0.0163640
3508.63 0.0121903
3518.73 0.0111208
3523.77 0.0123197
3526.30 0.0140101
3528.82 0.0174318
3531.34 0.0251490
3532.61 0.0329962
3533.87 0.0474082
3534.50 0.0596044
3535.13 0.0782637
3535.76 0.108879
3536.39 0.164191
3536.71 0.210561
3537.02 0.280558
3537.34 0.394284
3537.65 0.595798
3537.97 1.00875
3538.13 1.39967
3538.28 2.06600
3538.36 2.59702
3538.44 3.36121
3538.52 4.51612
3538.60 6.34565
3538.64 7.73959
3538.68 9.58034
3538.72 12.2187
3538.76 15.9439
3538.80 21.7223
3538.83 30.6511
3538.87 45.3783
3538.91 70.3889
3538.96 112.341
3539.00 140.320
3539.04 111.765
3539.09 69.9393
3539.12 51.3690
3539.14 38.1840
3539.20 22.7283
3539.26 14.7876
3539.31 10.3643
3539.37 7.59729
3539.42 5.82130
3539.53 3.70605
3539.64 2.56054
3539.75 1.87327
3539.98 1.12662
3540.20 0.751855
3540.42 0.537721
3540.64 0.404055
3540.86 0.315084
3541.31 0.207746
3541.75 0.147937
3542.20 0.111238
3542.64 0.0871113
3543.53 0.0583368
3544.42 0.0425144
3545.31 0.0328777
3546.19 0.0265731
3547.97 0.0190877
3549.75 0.0149806
3553.30 0.0108527
3556.85 0.00893647
3560.40 0.00792875
3567.51 0.00714848
3574.61 0.00742986
3581.72 0.00952374
3585.27 0.0127502
3587.05 0.0160292
3588.82 0.0220623
3589.71 0.0271814
3590.60 0.0350264
3591.49 0.0479508
3592.38 0.0715056
3592.82 0.0913313
3593.27 0.121569
3593.71 0.171022
3594.15 0.260219
3594.60 0.446698
3594.82 0.627609
3595.04 0.947316
3595.26 1.59420
3595.37 2.19971
3595.49 3.22780
3595.54 4.04241
3595.60 5.18106
3595.65 6.90872
3595.71 9.58650
3595.74 11.5758
3595.76 14.2337
3595.79 17.8830
3595.82 22.8336
3595.85 30.3152
3595.87 41.7089
3595.90 59.6577
3595.93 87.7535
3595.97 140.704
3596.00 176.127
3596.02 165.645
3596.04 141.664
3596.07 88.3786
3596.10 55.5128
3596.14 36.4586
3596.17 25.3205
3596.21 18.4472
3596.24 13.9719
3596.27 10.9190
3596.34 7.20676
3596.41 5.07286
3596.48 3.77422
3596.61 2.31139
3596.75 1.55860
3596.88 1.12161
3597.02 0.845849
3597.15 0.660832
3597.42 0.435819
3597.69 0.309450
3597.96 0.231499
3598.23 0.180062
3598.77 0.118472
3599.31 0.0845382
3599.85 0.0638433
3600.39 0.0503015
3601.47 0.0342377
3602.55 0.0254571
3604.71 0.0166830
3606.87 0.0126202
3609.03 0.0104328
3613.36 0.00832318
3622.00 0.00706338
3630.64 0.00698360
3647.93 0.00812597
3665.21 0.0108768
3682.50 0.0168668
3691.14 0.0226964
3699.78 0.0330226
3704.10 0.0415016
3708.42 0.0541553
3712.74 0.0743090
3714.91 0.0892271
3715.99 0.0985190
3716.53 0.103744
3717.07 0.109413
3718.15 0.122313
3719.23 0.137716
3720.31 0.156353
3721.39 0.179150
3722.47 0.207501
3723.55 0.243293
3724.63 0.289407
3725.71 0.350206
3726.79 0.432681
3727.87 0.548115
3728.95 0.716515
3730.03 0.974985
3731.11 1.39859
3732.19 2.15069
3732.73 2.75668
3733.27 3.62531
3733.81 4.89537
3734.35 6.75156
3735.18 10.8526
3736.00 13.8274
3736.83 11.2758
3737.65 7.08125
3738.18 5.16653
3738.70 3.84062
3739.75 2.28468
3740.80 1.48681
3741.85 1.03717
3742.91 0.762603
3743.96 0.583931
3746.06 0.374571
3748.16 0.262001
3750.26 0.195008
3754.47 0.123426
3758.67 0.0889873
3762.87 0.0710331
3771.28 0.0587782
3779.69 0.0678227
3783.89 0.0831002
3788.10 0.112686
3789.15 0.123860
3790.20 0.137292
3791.25 0.153577
3792.30 0.173528
3792.83 0.185224
3793.35 0.198265
3793.88 0.212917
3794.40 0.229379
3794.93 0.248028
3795.45 0.269173
3796.50 0.321084
3797.55 0.390404
3798.61 0.485595
3799.66 0.620777
3800.71 0.820709
3801.76 1.13122
3802.81 1.64187
3803.34 2.02344
3803.86 2.53248
3804.39 3.21630
3804.91 4.12484
3805.96 6.56095
3807.00 8.04492
3808.05 6.32034
3809.09 3.93542
3810.12 2.44491
3811.15 1.60442
3812.18 1.11542
3813.21 0.814237
3814.24 0.618105
3815.27 0.484472
3817.32 0.320112
3819.38 0.227207
3821.44 0.169866
3825.56 0.105787
3829.68 0.0727090
3833.79 0.0534193
3842.03 0.0329188
3850.26 0.0227834
3858.49 0.0170353
3874.96 0.0111732
3891.43 0.00870771
3907.90 0.00849670
3916.13 0.00994034
3920.25 0.0117018
3924.36 0.0151328
3928.48 0.0227151
3930.54 0.0303574
3932.60 0.0443326
3933.63 0.0561269
3934.66 0.0741122
3935.69 0.103535
3936.71 0.156604
3937.23 0.200854
3937.74 0.267509
3938.26 0.375175
3938.77 0.564933
3939.29 0.949223
3939.54 1.30781
3939.80 1.91539
3939.93 2.39292
3940.06 3.07221
3940.19 4.08307
3940.25 4.77721
3940.32 5.66062
3940.38 6.82734
3940.45 8.35482
3940.51 10.4342
3940.57 13.3488
3940.64 17.6493
3940.70 24.0152
3940.77 33.8371
3940.83 49.0204
3940.92 78.2548
3941.00 96.7623
3941.09 76.5246
3941.17 47.6694
3941.23 34.0758
3941.29 25.0512
3941.34 18.8453
3941.40 14.6352
3941.52 9.41605
3941.63 6.51346
3941.75 4.75520
3941.86 3.61675
3942.09 2.28784
3942.32 1.57438
3942.55 1.14874
3943.01 0.689361
3943.47 0.459228
3943.93 0.328376
3944.39 0.246663
3944.85 0.192468
3945.77 0.127042
3946.69 0.0906924
3947.61 0.0684144
3948.52 0.0537845
3950.36 0.0363743
3952.20 0.0268255
3955.88 0.0172827
3959.56 0.0129130
3963.23 0.0106431
3970.59 0.00883150
3977.94 0.00899288
3985.29 0.0112796
3988.97 0.0139898
3992.65 0.0191170
3996.32 0.0300714
3998.16 0.0407685
4000.00 0.0597123
4000.00 0.644684
5000.00 0.561130
6000.00 0.505117
7000.00 0.461117
7200.00 0.454038
8000.00 0.425722
8500.00 0.411449
9000.00 0.397175
9500.00 0.384793
10000.0 0.377825
12500.0 0.342982
13000.0 0.336014
14000.0 0.325793
15000.0 0.316815
17000.0 0.300400
18000.0 0.292920
20000.0 0.278144
22000.0 0.267366
25000.0 0.254127
30000.0 0.237542
35000.0 0.225531
40000.0 0.216666
45000.0 0.209116
50000.0 0.203128
55000.0 0.198812
60000.0 0.195148
65000.0 0.192213
70000.0 0.190047
72000.0 0.189276
80000.0 0.186192
85000.0 0.184495
90000.0 0.182798
95000.0 0.180597
99999.9 0.170459
111820 0.146491
120000 0.129905
130000 0.112251
140000 0.102476
150000 0.0958714
160000 0.0909963
170000 0.0869451
180000 0.0842222
190000 0.0821094
200000 0.0803692
220000 0.0774223
250000 0.0745607
270000 0.0716321
300000 0.0683357
366056 0.0658273
400000 0.0645384
500000 0.0641055
520000 0.0639580
550000 0.0646728
600000 0.0655962
610000 0.0658178
620000 0.0661124
630000 0.0663495
650000 0.0668767
693000 0.0682379
700000 0.0684595
750000 0.0705037
752413 0.0706394
850000 0.0761266
900000 0.0790105
908233 0.0791240
950000 0.0796998
1.00000E+06 0.0806721
1.00798E+06 0.0803275
1.01149E+06 0.0801759
1.10000E+06 0.0763539
1.30000E+06 0.0671945
1.40000E+06 0.0668572
1.50000E+06 0.0637033
1.60000E+06 0.0618899
1.70000E+06 0.0581833
1.90000E+06 0.0498150
2.00000E+06 0.0467702
2.10000E+06 0.0435829
2.20000E+06 0.0404397
2.30000E+06 0.0373138
2.50000E+06 0.0317845
2.75000E+06 0.0253628
3.00000E+06 0.0204851
3.50000E+06 0.0133346
4.00000E+06 0.00877467
4.50000E+06 0.00576360
5.00000E+06 0.00375593
5.50000E+06 0.00255595
6.00000E+06 0.00173006
6.50000E+06 0.00117498
7.00000E+06 0.000882898
7.45164E+06 0.000757644
7.50000E+06 0.000744232
7.76284E+06 0.000736512
8.00000E+06 0.000729546
8.20000E+06 0.000717787
8.40000E+06 0.000703254
8.60000E+06 0.000701463
9.00000E+06 0.000692037
9.60000E+06 0.000707056
1.00000E+07 0.000719395
1.05000E+07 0.000766124
1.10000E+07 0.000802260
1.15000E+07 0.000819467
1.20000E+07 0.000818896
1.25000E+07 0.000817364
1.30000E+07 0.000795947
1.35000E+07 0.000759343
1.36766E+07 0.000743626
1.40000E+07 0.000714843
1.45000E+07 0.000655648
1.47500E+07 0.000631715
1.50000E+07 0.000599056
1.55000E+07 0.000533704
1.60000E+07 0.000465835
1.70000E+07 0.000369237
1.80000E+07 0.000294931
1.90000E+07 0.000237007
2.00000E+07 0.000198766
2.17848E+07 0.000162081
2.20000E+07 0.000157658
2.60000E+07 9.68905E-05
2.80000E+07 6.46716E-05
3.20000E+07 2.92374E-05
3.80000E+07 1.44896E-05
4.20000E+07 9.28087E-06
4.60000E+07 6.01903E-06
5.00000E+07 4.31514E-06
5.50000E+07 2.74463E-06
5.62432E+07 2.50435E-06
5.84929E+07 2.06953E-06
6.00000E+07 1.77824E-06
6.08326E+07 1.69893E-06
6.32659E+07 1.46714E-06
6.57966E+07 1.22607E-06
6.84284E+07 9.75372E-07
7.00000E+07 8.25665E-07
7.11656E+07 7.76713E-07
7.40122E+07 6.57163E-07
7.69727E+07 5.32830E-07
8.00000E+07 4.05691E-07
8.00516E+07 4.04682E-07
8.32536E+07 3.42036E-07
8.65838E+07 2.76882E-07
9.00000E+07 2.10045E-07
9.00471E+07 2.09758E-07
9.36490E+07 1.87816E-07
9.73950E+07 1.64995E-07
1.01291E+08 1.41261E-07
1.05342E+08 1.16583E-07
1.09556E+08 9.09114E-08
1.13938E+08 6.42166E-08
1.15000E+08 5.77470E-08
1.18496E+08 5.12202E-08
1.23236E+08 4.23708E-08
1.28165E+08 3.31687E-08
1.30000E+08 2.97428E-08
1.33292E+08 2.70911E-08
1.38623E+08 2.27969E-08
1.44168E+08 1.83304E-08
1.49935E+08 1.36851E-08
1.50000E+08 1.36327E-08