N-14(n,tot) ENDF/B-VII.1
Energy(eV) XS(b)
1.00000E-05 105.581
1.25000E-05 95.4812
1.50000E-05 88.0256
2.00000E-05 77.5602
2.75000E-05 67.6025
3.50000E-05 61.0491
4.25000E-05 56.3181
5.00000E-05 52.6962
6.25000E-05 48.1793
7.50000E-05 44.8450
0.000100000 40.1648
0.000125000 36.9709
0.000150000 34.6133
0.000200000 31.3039
0.000275000 28.1550
0.000350000 26.0827
0.000425000 24.5866
0.000500000 23.4413
0.000625000 22.0129
0.000750000 20.9586
0.00100000 19.4785
0.00125000 18.4685
0.00150000 17.7230
0.00200000 16.6764
0.00275000 15.6807
0.00350000 15.0253
0.00425000 14.5522
0.00500000 14.1900
0.00625000 13.7383
0.00750000 13.4049
0.0100000 12.9369
0.0125000 12.6175
0.0150000 12.3817
0.0200000 12.0507
0.0253000 11.8135
0.0314750 11.6167
0.0376500 11.4706
0.0500000 11.2644
0.0625000 11.1216
0.0750000 11.0161
0.100000 10.8681
0.125000 10.7671
0.150000 10.6925
0.200000 10.5878
0.250000 10.5164
0.300000 10.4636
0.400000 10.3896
0.500000 10.3391
0.750000 10.2605
1.00000 10.2136
1.50000 10.1579
2.00000 10.1246
3.00000 10.0850
4.00000 10.0614
5.00000 10.0452
7.50000 10.0199
10.0000 10.0047
15.0000 9.98533
20.0000 9.97310
30.0000 9.95717
40.0000 9.94767
50.0000 9.94053
75.0000 9.92744
100.000 9.91752
150.000 9.89629
200.000 9.87732
300.000 9.84210
400.000 9.81877
500.000 9.79618
750.000 9.74122
1000.00 9.68726
1500.00 9.57618
2000.00 9.46583
3000.00 9.26586
4000.00 9.06641
5000.00 8.88989
6000.00 8.71351
8000.00 8.39909
10000.0 8.11713
15000.0 7.58545
20000.0 7.05399
30000.0 6.45199
40000.0 5.85000
50000.0 5.51332
60000.0 5.17665
80000.0 4.73701
100000 4.42051
120000 4.17674
140000 3.97959
160000 3.81416
167900 3.75549
169699 3.74255
169700 3.74255
180000 3.67135
190000 3.60650
200000 3.54525
250000 3.27977
300000 3.05982
350000 2.86743
400000 2.69888
410000 2.67656
420000 2.69330
422000 2.71579
424000 2.75907
425000 2.79512
426000 2.84796
427000 2.92861
428000 3.05806
429000 3.28121
430000 3.70487
430200 3.83328
430400 3.98359
430600 4.16070
430800 4.37071
431000 4.62122
431200 4.92153
431400 5.28324
431600 5.71996
431800 6.24717
432000 6.87958
432200 7.62729
432400 8.48640
432600 9.42452
432800 10.3632
433000 11.1682
433200 11.6763
433400 11.7583
433600 11.3933
433800 10.6813
434000 9.78150
434200 8.84132
434400 7.95723
434600 7.17494
434800 6.50655
435000 5.94587
436000 4.27424
437000 3.55961
438000 3.20618
439000 3.00836
440000 2.88664
442000 2.74982
444000 2.67722
446000 2.63254
448000 2.60199
450000 2.57937
455000 2.54060
460000 2.51304
465000 2.49243
470000 2.47441
472000 2.47200
474000 2.46989
476000 2.46828
478000 2.46737
480000 2.46756
482000 2.48003
484000 2.50737
486000 2.56407
488000 2.67647
489000 2.75755
490000 2.83866
490600 2.86749
491000 2.88393
491200 2.88136
491800 2.86928
492000 2.86352
493000 2.79105
494000 2.70292
496000 2.56266
498000 2.47984
500000 2.43052
502000 2.40701
504000 2.38589
506000 2.36608
508000 2.34717
510000 2.32865
515000 2.30160
520000 2.27505
530000 2.22723
540000 2.17846
550000 2.12625
560000 2.06827
570000 2.00201
580000 1.92358
590000 1.82789
600000 1.71014
605000 1.64686
610000 1.57598
612000 1.55493
614000 1.53468
616000 1.51683
618000 1.50318
620000 1.49653
622000 1.50719
624000 1.53165
625000 1.55000
626000 1.57320
628000 1.63483
630000 1.71746
635000 1.97777
640000 2.23642
642000 2.31695
644000 2.38488
645000 2.41373
646000 2.43749
648000 2.47528
650000 2.50107
652000 2.51766
654000 2.52555
655000 2.52677
656000 2.52760
658000 2.52512
660000 2.51824
670000 2.46853
680000 2.39212
690000 2.32911
700000 2.26691
710000 2.21385
720000 2.16300
740000 2.07299
760000 1.99121
780000 1.91384
800000 1.83839
820000 1.76288
840000 1.68558
860000 1.60437
880000 1.51682
900000 1.41944
910000 1.36552
920000 1.30730
930000 1.24394
940000 1.17517
950000 1.10249
960000 1.03325
965000 1.00682
970000 0.994588
975000 1.00992
980000 1.07575
985000 1.22700
990000 1.50166
995000 1.90335
1.00000E+06 2.34521
1.00500E+06 2.67660
1.01000E+06 2.81635
1.01200E+06 2.82438
1.01400E+06 2.81219
1.01600E+06 2.78502
1.01800E+06 2.74718
1.02000E+06 2.70237
1.04000E+06 2.23568
1.04500E+06 2.14770
1.05000E+06 2.07196
1.05500E+06 2.00701
1.06000E+06 1.95200
1.06500E+06 1.90631
1.07000E+06 1.86983
1.07500E+06 1.84338
1.08000E+06 1.82900
1.08500E+06 1.83085
1.09000E+06 1.85727
1.09500E+06 1.92526
1.10000E+06 2.07127
1.10500E+06 2.37793
1.11000E+06 3.00772
1.11200E+06 3.37516
1.11400E+06 3.75796
1.11600E+06 4.03986
1.11700E+06 4.09761
1.11800E+06 4.08429
1.11900E+06 4.00147
1.12000E+06 3.86072
1.12500E+06 2.89398
1.13000E+06 2.23693
1.13500E+06 1.89572
1.14000E+06 1.70948
1.14500E+06 1.59807
1.15000E+06 1.52584
1.15500E+06 1.47616
1.16000E+06 1.44098
1.16500E+06 1.41611
1.17000E+06 1.40031
1.17200E+06 1.39698
1.17400E+06 1.39598
1.17600E+06 1.39892
1.17800E+06 1.40919
1.18000E+06 1.43962
1.18100E+06 1.47642
1.18200E+06 1.55716
1.18300E+06 1.78534
1.18320E+06 1.87794
1.18340E+06 2.00228
1.18360E+06 2.17164
1.18380E+06 2.40424
1.18400E+06 2.71919
1.18420E+06 3.12099
1.18440E+06 3.55488
1.18460E+06 3.85826
1.18480E+06 3.84162
1.18500E+06 3.51289
1.18520E+06 3.06822
1.18540E+06 2.66560
1.18560E+06 2.35424
1.18580E+06 2.12655
1.18600E+06 1.96210
1.18620E+06 1.84229
1.18640E+06 1.75379
1.18660E+06 1.68711
1.18680E+06 1.63603
1.18700E+06 1.59637
1.18720E+06 1.56501
1.18740E+06 1.53986
1.18760E+06 1.51951
1.18780E+06 1.50286
1.18800E+06 1.48911
1.18900E+06 1.44742
1.19000E+06 1.42917
1.19200E+06 1.42012
1.19400E+06 1.42811
1.19600E+06 1.44765
1.19800E+06 1.48020
1.20000E+06 1.53023
1.20500E+06 1.78781
1.21000E+06 2.10937
1.21500E+06 1.84062
1.22000E+06 1.58790
1.22500E+06 1.48236
1.23000E+06 1.43804
1.23500E+06 1.41957
1.24000E+06 1.41385
1.24500E+06 1.41544
1.25000E+06 1.42172
1.25500E+06 1.43144
1.26000E+06 1.44387
1.26500E+06 1.45851
1.27000E+06 1.47516
1.27500E+06 1.49373
1.28000E+06 1.51414
1.28500E+06 1.53652
1.29000E+06 1.56120
1.29500E+06 1.58866
1.30000E+06 1.61938
1.30500E+06 1.65468
1.31000E+06 1.69649
1.31500E+06 1.74792
1.32000E+06 1.81478
1.32500E+06 1.90755
1.33000E+06 2.04721
1.33500E+06 2.27686
1.34000E+06 2.67931
1.34500E+06 3.31988
1.35000E+06 3.77155
1.35500E+06 3.37443
1.36000E+06 2.80514
1.36200E+06 2.64644
1.36400E+06 2.52635
1.36600E+06 2.43793
1.36800E+06 2.37432
1.37000E+06 2.33019
1.37200E+06 2.30157
1.37400E+06 2.28534
1.37600E+06 2.27944
1.37800E+06 2.28248
1.38000E+06 2.29311
1.38500E+06 2.34834
1.39000E+06 2.43680
1.39500E+06 2.54477
1.40000E+06 2.64644
1.40200E+06 2.67710
1.40400E+06 2.69850
1.40600E+06 2.70876
1.40800E+06 2.70721
1.41000E+06 2.69397
1.41500E+06 2.61892
1.42000E+06 2.51102
1.42500E+06 2.40047
1.43000E+06 2.30361
1.43500E+06 2.22479
1.44000E+06 2.16271
1.44500E+06 2.11453
1.45000E+06 2.07690
1.45500E+06 2.04750
1.46000E+06 2.02423
1.46500E+06 2.00559
1.47000E+06 1.99055
1.47500E+06 1.97826
1.48000E+06 1.96808
1.48500E+06 1.95953
1.49000E+06 1.95227
1.49500E+06 1.94618
1.50000E+06 1.94088
1.50500E+06 1.93641
1.51000E+06 1.93260
1.51500E+06 1.92942
1.52000E+06 1.92684
1.52500E+06 1.92503
1.53000E+06 1.92386
1.53500E+06 1.92361
1.54000E+06 1.92448
1.54500E+06 1.92685
1.55000E+06 1.93141
1.55500E+06 1.93905
1.56000E+06 1.95137
1.56500E+06 1.97118
1.57000E+06 2.00396
1.57500E+06 2.06004
1.58000E+06 2.16252
1.58200E+06 2.22665
1.58400E+06 2.31179
1.58600E+06 2.42604
1.58800E+06 2.57969
1.59000E+06 2.78410
1.59200E+06 3.04444
1.59400E+06 3.34187
1.59500E+06 3.48310
1.59600E+06 3.60722
1.59800E+06 3.72917
1.60000E+06 3.64292
1.60200E+06 3.40322
1.60400E+06 3.11812
1.60500E+06 2.98580
1.60600E+06 2.86015
1.60800E+06 2.65250
1.61000E+06 2.49266
1.61500E+06 2.24060
1.62000E+06 2.10686
1.62500E+06 2.02920
1.63000E+06 1.98033
1.63500E+06 1.94736
1.64000E+06 1.92380
1.64500E+06 1.90636
1.65000E+06 1.89305
1.65500E+06 1.88257
1.66000E+06 1.87423
1.66500E+06 1.86755
1.67000E+06 1.86224
1.67500E+06 1.85820
1.68000E+06 1.85537
1.68500E+06 1.85356
1.69000E+06 1.85291
1.69500E+06 1.85353
1.70000E+06 1.85549
1.70500E+06 1.85913
1.71000E+06 1.86464
1.71500E+06 1.87250
1.72000E+06 1.88334
1.72500E+06 1.89775
1.73000E+06 1.91697
1.73500E+06 1.94222
1.74000E+06 1.97569
1.74500E+06 2.01991
1.75000E+06 2.07873
1.75500E+06 2.15698
1.76000E+06 2.26036
1.76500E+06 2.39424
1.77000E+06 2.55902
1.77500E+06 2.74023
1.78000E+06 2.89715
1.78200E+06 2.93959
1.78400E+06 2.96465
1.78600E+06 2.97004
1.78800E+06 2.95533
1.79000E+06 2.92167
1.79500E+06 2.77631
1.80000E+06 2.59241
1.80500E+06 2.41640
1.81000E+06 2.26799
1.81500E+06 2.14971
1.82000E+06 2.05733
1.82500E+06 1.98518
1.83000E+06 1.92825
1.83500E+06 1.88288
1.84000E+06 1.84612
1.84500E+06 1.81580
1.85000E+06 1.79054
1.85500E+06 1.76918
1.86000E+06 1.75080
1.86500E+06 1.73485
1.87000E+06 1.72082
1.87500E+06 1.70831
1.88000E+06 1.69715
1.88500E+06 1.68697
1.89000E+06 1.67765
1.89500E+06 1.66913
1.90000E+06 1.66128
1.91000E+06 1.64694
1.92000E+06 1.63426
1.93000E+06 1.62284
1.94000E+06 1.61241
1.95000E+06 1.60261
1.96000E+06 1.59361
1.97000E+06 1.58508
1.98000E+06 1.57700
1.99000E+06 1.56934
2.00000E+06 1.56201
2.01000E+06 1.55500
2.02000E+06 1.54830
2.03000E+06 1.54193
2.04000E+06 1.53588
2.05000E+06 1.53017
2.06000E+06 1.52482
2.07000E+06 1.51977
2.08000E+06 1.51514
2.09000E+06 1.51109
2.10000E+06 1.50771
2.11000E+06 1.50521
2.12000E+06 1.50375
2.13000E+06 1.50386
2.14000E+06 1.50613
2.15000E+06 1.51160
2.16000E+06 1.52184
2.17000E+06 1.53940
2.18000E+06 1.56816
2.19000E+06 1.61331
2.20000E+06 1.67890
2.20200E+06 1.69426
2.20400E+06 1.71009
2.20600E+06 1.72626
2.20800E+06 1.74244
2.21000E+06 1.75833
2.21200E+06 1.77366
2.21400E+06 1.78792
2.21600E+06 1.80083
2.21800E+06 1.81197
2.22000E+06 1.82111
2.22200E+06 1.82780
2.22400E+06 1.83198
2.22600E+06 1.83355
2.22800E+06 1.83244
2.23000E+06 1.82895
2.23200E+06 1.82333
2.23400E+06 1.81562
2.23600E+06 1.80622
2.23800E+06 1.79561
2.24000E+06 1.78387
2.24200E+06 1.77155
2.24400E+06 1.75869
2.24600E+06 1.74562
2.24800E+06 1.73264
2.25000E+06 1.71971
2.26000E+06 1.66060
2.27000E+06 1.61346
2.28000E+06 1.57747
2.29000E+06 1.54997
2.30000E+06 1.52869
2.31000E+06 1.51195
2.32000E+06 1.49839
2.33000E+06 1.48734
2.34000E+06 1.47818
2.35000E+06 1.47040
2.36000E+06 1.46375
2.37000E+06 1.45800
2.38000E+06 1.45308
2.39000E+06 1.44883
2.40000E+06 1.44508
2.42000E+06 1.43324
2.44000E+06 1.42148
2.44744E+06 1.42016
2.44744E+06 1.42016
2.46000E+06 1.42084
2.47500E+06 1.43099
2.47600E+06 1.60633
2.47700E+06 1.43167
2.47939E+06 1.42822
2.47940E+06 1.42822
2.48000E+06 1.42770
2.48500E+06 1.42463
2.49000E+06 1.42247
2.49500E+06 1.42528
2.50000E+06 1.43842
2.50500E+06 1.46200
2.50600E+06 1.48000
2.50650E+06 1.49300
2.50700E+06 1.51100
2.50750E+06 1.53400
2.50800E+06 1.56600
2.50850E+06 1.60700
2.50900E+06 1.66000
2.50950E+06 1.72100
2.51000E+06 1.77500
2.51050E+06 1.80000
2.51100E+06 1.78000
2.51150E+06 1.72700
2.51200E+06 1.66500
2.51250E+06 1.61100
2.51300E+06 1.56700
2.51350E+06 1.53400
2.51400E+06 1.51000
2.51450E+06 1.49100
2.51500E+06 1.47700
2.52000E+06 1.42600
2.52500E+06 1.41400
2.53000E+06 1.40800
2.54000E+06 1.40100
2.56000E+06 1.40400
2.58000E+06 1.40200
2.60000E+06 1.39300
2.62000E+06 1.39900
2.63000E+06 1.41600
2.64000E+06 1.43900
2.65000E+06 1.42600
2.66000E+06 1.38600
2.67000E+06 1.35600
2.68000E+06 1.35600
2.69000E+06 1.37400
2.69500E+06 1.40600
2.70000E+06 1.47400
2.70200E+06 1.51500
2.70400E+06 1.56000
2.70600E+06 1.59900
2.70800E+06 1.61400
2.71000E+06 1.59700
2.71200E+06 1.55500
2.71400E+06 1.50300
2.71600E+06 1.45500
2.71800E+06 1.41500
2.72000E+06 1.38200
2.72500E+06 1.32800
2.73000E+06 1.29500
2.73500E+06 1.27400
2.74000E+06 1.25700
2.74500E+06 1.24400
2.75000E+06 1.23200
2.75500E+06 1.22800
2.76000E+06 1.23700
2.77000E+06 1.27300
2.78000E+06 1.31400
2.79000E+06 1.35386
2.80000E+06 1.38800
2.82000E+06 1.42200
2.84000E+06 1.44000
2.86000E+06 1.44500
2.88000E+06 1.45700
2.88500E+06 1.49500
2.89000E+06 1.57800
2.89200E+06 1.57700
2.89400E+06 1.54100
2.89600E+06 1.50100
2.89800E+06 1.47200
2.90000E+06 1.45300
2.90200E+06 1.43900
2.90400E+06 1.43000
2.90600E+06 1.42300
2.90800E+06 1.39700
2.91000E+06 1.40800
2.91200E+06 1.42400
2.91400E+06 1.45900
2.91600E+06 1.47500
2.91800E+06 1.49100
2.92000E+06 1.49900
2.92500E+06 1.51100
2.93000E+06 1.52700
2.93500E+06 1.55100
2.94000E+06 1.59100
2.94200E+06 1.61600
2.94400E+06 1.64900
2.94500E+06 1.67000
2.94600E+06 1.69500
2.94800E+06 1.76000
2.95000E+06 1.85500
2.95200E+06 1.98900
2.95400E+06 2.16400
2.95500E+06 2.25500
2.95600E+06 2.33200
2.95700E+06 2.38000
2.95800E+06 2.38600
2.95900E+06 2.35000
2.96000E+06 2.28000
2.96100E+06 2.19200
2.96200E+06 2.10200
2.96400E+06 1.94400
2.96600E+06 1.82900
2.96800E+06 1.75100
2.97000E+06 1.69700
2.97500E+06 1.62400
2.98000E+06 1.59100
2.98500E+06 1.57500
2.99000E+06 1.56800
3.00000E+06 1.57500
3.02000E+06 1.58400
3.04000E+06 1.59800
3.05000E+06 1.61000
3.06000E+06 1.63200
3.07000E+06 1.67100
3.07500E+06 1.70000
3.08000E+06 1.73300
3.08500E+06 1.75500
3.09000E+06 1.75200
3.09500E+06 1.72700
3.10000E+06 1.69700
3.10500E+06 1.67200
3.11000E+06 1.65400
3.12000E+06 1.63300
3.13000E+06 1.62300
3.14000E+06 1.61800
3.15000E+06 1.61700
3.16000E+06 1.64800
3.17000E+06 1.69800
3.18000E+06 1.76400
3.19000E+06 1.83900
3.19500E+06 1.87200
3.20000E+06 1.89400
3.21000E+06 1.89200
3.22000E+06 1.83500
3.23000E+06 1.76100
3.24000E+06 1.69600
3.25000E+06 1.64800
3.26000E+06 1.61400
3.28000E+06 1.57200
3.30000E+06 1.55000
3.32000E+06 1.53700
3.34000E+06 1.52900
3.36000E+06 1.53200
3.38000E+06 1.53700
3.40000E+06 1.53400
3.42000E+06 1.51800
3.44000E+06 1.51400
3.46000E+06 1.52100
3.48000E+06 1.57000
3.48500E+06 1.60400
3.49000E+06 1.65800
3.49500E+06 1.74900
3.50000E+06 1.89800
3.50200E+06 1.97600
3.50400E+06 2.05900
3.50600E+06 2.13800
3.50800E+06 2.19700
3.51000E+06 2.22100
3.51200E+06 2.20100
3.51400E+06 2.14300
3.51600E+06 2.06400
3.51800E+06 1.97800
3.52000E+06 1.89600
3.52100E+06 1.85900
3.52200E+06 1.82500
3.52300E+06 1.79300
3.52400E+06 1.78200
3.52600E+06 1.78200
3.52800E+06 1.78100
3.53000E+06 1.78100
3.54000E+06 1.78600
3.55000E+06 1.81300
3.55200E+06 1.82600
3.55400E+06 1.84300
3.55600E+06 1.86600
3.55800E+06 1.89800
3.56000E+06 1.94300
3.56200E+06 2.00300
3.56400E+06 2.07900
3.56600E+06 2.15900
3.56800E+06 2.21300
3.57000E+06 2.21000
3.57200E+06 2.14900
3.57400E+06 2.06500
3.57600E+06 1.98600
3.57800E+06 1.92300
3.57900E+06 1.89700
3.58000E+06 1.87500
3.58500E+06 1.80200
3.59000E+06 1.76300
3.59500E+06 1.74000
3.60000E+06 1.72500
3.61000E+06 1.70300
3.62000E+06 1.68800
3.63000E+06 1.67394
3.64000E+06 1.66500
3.65000E+06 1.66319
3.66000E+06 1.66300
3.67000E+06 1.66281
3.68000E+06 1.66300
3.69000E+06 1.66461
3.70000E+06 1.66800
3.71000E+06 1.67249
3.72000E+06 1.67765
3.73000E+06 1.68344
3.74000E+06 1.68983
3.75000E+06 1.69680
3.80000E+06 1.73800
3.82000E+06 1.75861
3.82500E+06 1.76410
3.84000E+06 1.78105
3.85000E+06 1.79280
3.86000E+06 1.80500
3.87500E+06 1.82410
3.88000E+06 1.83071
3.90000E+06 1.85800
3.92000E+06 1.88700
3.94000E+06 1.90800
3.95000E+06 1.91231
3.96000E+06 1.91700
3.98000E+06 1.93400
4.00000E+06 1.95200
4.02000E+06 2.00100
4.04000E+06 2.07300
4.05000E+06 2.10700
4.06000E+06 2.11800
4.07000E+06 2.10500
4.08000E+06 2.08600
4.09000E+06 2.07200
4.10000E+06 2.06500
4.11000E+06 2.08000
4.12000E+06 2.12426
4.13000E+06 2.16415
4.14000E+06 2.20131
4.15000E+06 2.23719
4.16000E+06 2.27357
4.17000E+06 2.31053
4.18000E+06 2.33935
4.19000E+06 2.33858
4.20000E+06 2.31193
4.22000E+06 2.24078
4.23249E+06 2.19578
4.23249E+06 2.19578
4.24000E+06 2.16480
4.25000E+06 2.12126
4.26000E+06 2.07867
4.28000E+06 1.99700
4.30000E+06 1.91900
4.30432E+06 1.90549
4.30432E+06 1.90549
4.35000E+06 1.79200
4.40000E+06 1.69000
4.42000E+06 1.65500
4.44000E+06 1.62700
4.45000E+06 1.61829
4.46000E+06 1.61500
4.48000E+06 1.62900
4.50000E+06 1.67300
4.51000E+06 1.68300
4.52000E+06 1.66100
4.52500E+06 1.63700
4.53000E+06 1.60700
4.53500E+06 1.57300
4.54000E+06 1.55700
4.54500E+06 1.57800
4.55000E+06 1.60100
4.56000E+06 1.65100
4.57000E+06 1.70400
4.58000E+06 1.75100
4.59000E+06 1.78100
4.60000E+06 1.78300
4.61000E+06 1.75400
4.62000E+06 1.69900
4.63000E+06 1.63100
4.64000E+06 1.55900
4.65000E+06 1.49172
4.66000E+06 1.42900
4.68000E+06 1.33000
4.70000E+06 1.25700
4.72000E+06 1.19700
4.73500E+06 1.16712
4.74000E+06 1.15700
4.75000E+06 1.13457
4.76000E+06 1.11300
4.78000E+06 1.07700
4.80000E+06 1.04800
4.82000E+06 1.02800
4.84000E+06 1.01900
4.85000E+06 1.01753
4.86000E+06 1.01700
4.88000E+06 1.01900
4.90000E+06 1.02900
4.92000E+06 1.04400
4.93476E+06 1.05674
4.93476E+06 1.05675
4.94000E+06 1.06200
4.95000E+06 1.07393
4.96000E+06 1.08800
4.98000E+06 1.11900
5.00000E+06 1.15300
5.02000E+06 1.19457
5.04000E+06 1.23800
5.05000E+06 1.25990
5.06000E+06 1.28210
5.08000E+06 1.32741
5.10000E+06 1.37400
5.12000E+06 1.41924
5.14000E+06 1.46000
5.15000E+06 1.47300
5.16000E+06 1.48135
5.18000E+06 1.49592
5.20000E+06 1.50700
5.22000E+06 1.51532
5.24000E+06 1.52043
5.25000E+06 1.52100
5.26000E+06 1.52046
5.26914E+06 1.51940
5.26915E+06 1.51940
5.28000E+06 1.51735
5.30000E+06 1.51100
5.32000E+06 1.50245
5.34000E+06 1.49400
5.35000E+06 1.49002
5.36000E+06 1.48608
5.38000E+06 1.47835
5.40000E+06 1.47088
5.42000E+06 1.46374
5.44000E+06 1.45700
5.45000E+06 1.45483
5.46000E+06 1.45400
5.47368E+06 1.45417
5.47368E+06 1.45417
5.48000E+06 1.45500
5.50000E+06 1.46100
5.51000E+06 1.46600
5.52000E+06 1.47400
5.53000E+06 1.48600
5.54000E+06 1.50200
5.55000E+06 1.52300
5.55163E+06 1.52643
5.55163E+06 1.52643
5.56000E+06 1.54400
5.57000E+06 1.55400
5.58000E+06 1.54700
5.59000E+06 1.52500
5.60000E+06 1.49800
5.62000E+06 1.45600
5.64000E+06 1.43000
5.65000E+06 1.42098
5.66000E+06 1.41300
5.68000E+06 1.39900
5.70000E+06 1.38600
5.70969E+06 1.37855
5.70969E+06 1.37855
5.72000E+06 1.36943
5.74000E+06 1.35070
5.75000E+06 1.34200
5.76000E+06 1.33402
5.78000E+06 1.31965
5.80000E+06 1.30800
5.82000E+06 1.30352
5.84000E+06 1.30689
5.85000E+06 1.31000
5.86000E+06 1.31351
5.86179E+06 1.31420
5.86179E+06 1.31420
5.88000E+06 1.32309
5.90000E+06 1.33900
5.91000E+06 1.35021
5.92000E+06 1.36300
5.93000E+06 1.37737
5.94000E+06 1.39200
5.95000E+06 1.40336
5.96000E+06 1.41000
5.97000E+06 1.40974
5.98000E+06 1.40100
5.99000E+06 1.38613
6.00000E+06 1.37100
6.01000E+06 1.35657
6.02000E+06 1.35000
6.03000E+06 1.35321
6.04000E+06 1.35948
6.05000E+06 1.36790
6.06000E+06 1.37745
6.07000E+06 1.38808
6.08000E+06 1.40123
6.09000E+06 1.41816
6.10000E+06 1.43739
6.10141E+06 1.44013
6.10141E+06 1.44013
6.12000E+06 1.47297
6.14000E+06 1.50136
6.15000E+06 1.51436
6.16000E+06 1.52697
6.18000E+06 1.54772
6.20000E+06 1.56228
6.22000E+06 1.57163
6.24000E+06 1.54447
6.25000E+06 1.51090
6.25450E+06 1.49595
6.25450E+06 1.49595
6.26000E+06 1.47834
6.28000E+06 1.41678
6.30000E+06 1.35891
6.32000E+06 1.31803
6.34000E+06 1.29623
6.35000E+06 1.28727
6.36000E+06 1.27835
6.38000E+06 1.26705
6.39309E+06 1.26895
6.39309E+06 1.26895
6.40000E+06 1.27239
6.45000E+06 1.32025
6.50000E+06 1.36630
6.52000E+06 1.38201
6.54000E+06 1.39149
6.54189E+06 1.39157
6.54189E+06 1.39157
6.55000E+06 1.38920
6.56000E+06 1.38149
6.58000E+06 1.35813
6.60000E+06 1.33369
6.65000E+06 1.27521
6.65035E+06 1.27481
6.65035E+06 1.27481
6.70000E+06 1.22548
6.72885E+06 1.20308
6.75000E+06 1.19098
6.80000E+06 1.17170
6.84613E+06 1.16561
6.85000E+06 1.16589
6.90000E+06 1.17724
6.91050E+06 1.18095
6.91050E+06 1.18095
6.95000E+06 1.19772
7.00000E+06 1.22922
7.02000E+06 1.24478
7.04000E+06 1.26180
7.05000E+06 1.27095
7.06000E+06 1.28057
7.08000E+06 1.30138
7.10000E+06 1.32440
7.12000E+06 1.34853
7.14000E+06 1.37345
7.15000E+06 1.38620
7.16000E+06 1.39914
7.18000E+06 1.42558
7.19926E+06 1.45193
7.19926E+06 1.45193
7.20000E+06 1.45296
7.22000E+06 1.48124
7.24000E+06 1.51018
7.25000E+06 1.52482
7.26000E+06 1.53952
7.28000E+06 1.56980
7.29000E+06 1.58534
7.30000E+06 1.59829
7.31000E+06 1.60602
7.32000E+06 1.60032
7.34000E+06 1.55627
7.35000E+06 1.54942
7.36000E+06 1.56198
7.38000E+06 1.60738
7.39000E+06 1.63139
7.39830E+06 1.65024
7.39831E+06 1.65024
7.40000E+06 1.65378
7.41000E+06 1.66984
7.42000E+06 1.67279
7.44000E+06 1.65637
7.45000E+06 1.64551
7.45067E+06 1.64462
7.45073E+06 1.64453
7.46000E+06 1.62849
7.48000E+06 1.56786
7.50000E+06 1.51646
7.53544E+06 1.45322
7.53544E+06 1.45322
7.55000E+06 1.43928
7.60000E+06 1.41221
7.65000E+06 1.40197
7.70000E+06 1.41315
7.72000E+06 1.41923
7.74000E+06 1.43180
7.75000E+06 1.44328
7.76000E+06 1.45533
7.78000E+06 1.48062
7.80000E+06 1.50650
7.82000E+06 1.53273
7.84000E+06 1.56075
7.85000E+06 1.57854
7.86000E+06 1.59823
7.88000E+06 1.64255
7.90000E+06 1.64611
7.92000E+06 1.58866
7.94000E+06 1.53695
7.95000E+06 1.51212
7.96000E+06 1.48613
7.98000E+06 1.43317
7.98000E+06 1.43316
7.99000E+06 1.41144
8.00000E+06 1.39345
8.05000E+06 1.33889
8.10000E+06 1.30914
8.15000E+06 1.28590
8.20000E+06 1.26851
8.25000E+06 1.25130
8.30000E+06 1.22514
8.35000E+06 1.20767
8.40000E+06 1.21916
8.45000E+06 1.24110
8.50000E+06 1.25286
8.54077E+06 1.24715
8.54077E+06 1.24715
8.55000E+06 1.24699
8.60000E+06 1.25760
8.64272E+06 1.27723
8.64272E+06 1.27723
8.65000E+06 1.27904
8.70000E+06 1.28700
8.72220E+06 1.28663
8.72220E+06 1.28663
8.75000E+06 1.28490
8.80000E+06 1.28000
8.85000E+06 1.27101
8.90000E+06 1.26200
8.95000E+06 1.25885
9.00000E+06 1.26000
9.02162E+06 1.26211
9.02163E+06 1.26211
9.05000E+06 1.26670
9.06297E+06 1.26890
9.06297E+06 1.26890
9.10000E+06 1.27300
9.10144E+06 1.27305
9.10145E+06 1.27305
9.15000E+06 1.27184
9.20000E+06 1.26745
9.25000E+06 1.26362
9.30000E+06 1.26400
9.34661E+06 1.26770
9.34662E+06 1.26770
9.38000E+06 1.27044
9.38028E+06 1.26999
9.38100E+06 1.27052
9.40000E+06 1.27200
9.45747E+06 1.27082
9.45747E+06 1.27082
9.50000E+06 1.27494
9.60000E+06 1.29205
9.65000E+06 1.30077
9.65959E+06 1.30244
9.65959E+06 1.30244
9.70000E+06 1.30950
9.73244E+06 1.31518
9.73244E+06 1.31518
9.80000E+06 1.32718
9.84109E+06 1.33460
9.84109E+06 1.33460
9.90000E+06 1.34541
9.91600E+06 1.34857
9.91630E+06 1.34648
9.91700E+06 1.34877
1.00000E+07 1.36723
1.00163E+07 1.37154
1.00163E+07 1.37155
1.01000E+07 1.39721
1.02000E+07 1.42312
1.02500E+07 1.43403
1.03000E+07 1.44488
1.03500E+07 1.43979
1.04000E+07 1.42719
1.04500E+07 1.41776
1.04520E+07 1.41710
1.04523E+07 1.41434
1.04530E+07 1.41678
1.05000E+07 1.40400
1.05500E+07 1.41400
1.06000E+07 1.43800
1.06500E+07 1.45500
1.07000E+07 1.46000
1.07500E+07 1.45100
1.08000E+07 1.43000
1.09000E+07 1.38500
1.09880E+07 1.35083
1.09883E+07 1.34726
1.09890E+07 1.35057
1.10000E+07 1.34785
1.11000E+07 1.33397
1.12000E+07 1.33964
1.13000E+07 1.35683
1.13137E+07 1.35938
1.13137E+07 1.35938
1.14000E+07 1.37556
1.14065E+07 1.37681
1.15000E+07 1.39489
1.15240E+07 1.39970
1.15244E+07 1.39872
1.15250E+07 1.39990
1.16000E+07 1.41552
1.17000E+07 1.43744
1.18000E+07 1.46150
1.19000E+07 1.48100
1.20000E+07 1.50046
1.20444E+07 1.50906
1.20600E+07 1.51208
1.20604E+07 1.50977
1.20610E+07 1.51228
1.21000E+07 1.51978
1.22000E+07 1.53856
1.22259E+07 1.54156
1.24000E+07 1.56178
1.25000E+07 1.56903
1.25960E+07 1.57391
1.25964E+07 1.57158
1.25970E+07 1.57394
1.26000E+07 1.57405
1.27000E+07 1.57650
1.28000E+07 1.57735
1.29000E+07 1.57665
1.30000E+07 1.57468
1.31320E+07 1.56961
1.31324E+07 1.56894
1.31330E+07 1.56957
1.32000E+07 1.56721
1.33000E+07 1.56426
1.34000E+07 1.56225
1.35000E+07 1.56196
1.36000E+07 1.56263
1.36680E+07 1.56373
1.36684E+07 1.56159
1.36690E+07 1.56373
1.37000E+07 1.56423
1.38000E+07 1.56583
1.39000E+07 1.56742
1.40000E+07 1.56902
1.42000E+07 1.57225
1.42040E+07 1.57231
1.42044E+07 1.57039
1.42050E+07 1.57231
1.43000E+07 1.57381
1.44000E+07 1.57541
1.45000E+07 1.57701
1.46000E+07 1.57890
1.47400E+07 1.58160
1.47410E+07 1.58160
1.48000E+07 1.58250
1.50000E+07 1.58500
1.50085E+07 1.58415
1.52760E+07 1.58640
1.52770E+07 1.58640
1.53000E+07 1.58640
1.54000E+07 1.58680
1.55000E+07 1.58700
1.56000E+07 1.58900
1.57710E+07 1.58973
1.58120E+07 1.58990
1.58130E+07 1.58990
1.59000E+07 1.58900
1.60000E+07 1.58700
1.60800E+07 1.58464
1.60805E+07 1.58455
1.62000E+07 1.58000
1.63480E+07 1.57120
1.63490E+07 1.57110
1.64000E+07 1.57000
1.65000E+07 1.57200
1.66000E+07 1.57500
1.68840E+07 1.58000
1.68850E+07 1.57990
1.69000E+07 1.57920
1.70000E+07 1.57500
1.71520E+07 1.56990
1.71525E+07 1.56984
1.72000E+07 1.56840
1.74210E+07 1.56330
1.74220E+07 1.56320
1.75000E+07 1.56200
1.77000E+07 1.56180
1.79570E+07 1.56120
1.79580E+07 1.56120
1.80000E+07 1.56100
1.82000E+07 1.56040
1.82240E+07 1.56029
1.82246E+07 1.56025
1.84930E+07 1.55810
1.84940E+07 1.55810
1.85000E+07 1.55800
1.86000E+07 1.55580
1.88000E+07 1.55240
1.90000E+07 1.55000
1.90290E+07 1.54990
1.90300E+07 1.54990
1.91000E+07 1.54960
1.92970E+07 1.54921
1.93000E+07 1.54920
1.95000E+07 1.54900
1.95650E+07 1.54980
1.95660E+07 1.54980
1.96000E+07 1.55010
1.98000E+07 1.55100
2.00000E+07 1.55000
2.00000E+07 1.55000
2.10000E+07 1.51241
2.16612E+07 1.49260
2.20000E+07 1.48403
2.30000E+07 1.46500
2.40000E+07 1.45542
2.45061E+07 1.45287
2.50000E+07 1.45087
2.60000E+07 1.44582
2.70000E+07 1.43600
2.80000E+07 1.42258
2.90000E+07 1.40871
3.00000E+07 1.39400
3.10000E+07 1.37883
3.10827E+07 1.37758
3.20000E+07 1.36387
3.28228E+07 1.35178
3.30000E+07 1.34920
3.40000E+07 1.33490
3.50000E+07 1.32100
3.52276E+07 1.31791
3.60000E+07 1.30759
3.70000E+07 1.29424
3.80000E+07 1.28034
3.90000E+07 1.26538
3.96149E+07 1.25550
4.00000E+07 1.24900
4.10000E+07 1.23127
4.20000E+07 1.21275
4.30000E+07 1.19378
4.40000E+07 1.17465
4.50000E+07 1.15558
4.60000E+07 1.13678
4.70000E+07 1.11840
4.80000E+07 1.10058
4.90000E+07 1.08342
5.00000E+07 1.06700
5.10000E+07 1.05135
5.20000E+07 1.03634
5.30000E+07 1.02180
5.40000E+07 1.00760
5.50000E+07 0.993617
5.60000E+07 0.979753
5.70000E+07 0.965924
5.80000E+07 0.952059
5.90000E+07 0.938100
6.00000E+07 0.924000
6.10000E+07 0.909627
6.20000E+07 0.895021
6.30000E+07 0.880376
6.40000E+07 0.865857
6.50000E+07 0.851608
6.60000E+07 0.837749
6.70000E+07 0.824381
6.80000E+07 0.811588
6.90000E+07 0.799442
7.00000E+07 0.788000
7.10000E+07 0.777185
7.20000E+07 0.766832
7.30000E+07 0.756863
7.40000E+07 0.747212
7.50000E+07 0.737816
7.60000E+07 0.728623
7.70000E+07 0.719585
7.80000E+07 0.710659
7.90000E+07 0.701809
8.00000E+07 0.693000
8.10000E+07 0.684174
8.20000E+07 0.675340
8.30000E+07 0.666566
8.40000E+07 0.657910
8.50000E+07 0.649427
8.60000E+07 0.641161
8.70000E+07 0.633152
8.80000E+07 0.625437
8.90000E+07 0.618044
9.00000E+07 0.611000
9.10000E+07 0.604238
9.20000E+07 0.597664
9.30000E+07 0.591259
9.40000E+07 0.585008
9.50000E+07 0.578897
9.60000E+07 0.572911
9.70000E+07 0.567040
9.80000E+07 0.561271
9.90000E+07 0.555594
1.00000E+08 0.550000
1.02000E+08 0.539078
1.04000E+08 0.528527
1.06000E+08 0.518337
1.08000E+08 0.508499
1.10000E+08 0.499000
1.12000E+08 0.489575
1.14000E+08 0.480144
1.16000E+08 0.470946
1.18000E+08 0.462177
1.20000E+08 0.454000
1.22000E+08 0.446493
1.24000E+08 0.439596
1.26000E+08 0.433250
1.28000E+08 0.427400
1.30000E+08 0.422000
1.32000E+08 0.417030
1.34000E+08 0.412390
1.36000E+08 0.407925
1.38000E+08 0.403501
1.40000E+08 0.399000
1.42000E+08 0.394473
1.44000E+08 0.390028
1.46000E+08 0.385646
1.48000E+08 0.381308
1.50000E+08 0.377000