Ca-44(n,tot) ENDF/B-VII.1
Energy(eV) XS(b)
1.00000E-05 48.0029
1.25000E-05 43.2856
1.50000E-05 39.8034
2.00000E-05 34.9155
2.75000E-05 30.2647
3.50000E-05 27.2039
4.25000E-05 24.9943
5.00000E-05 23.3027
6.25000E-05 21.1930
7.50000E-05 19.6357
0.000100000 17.4498
0.000125000 15.9581
0.000150000 14.8569
0.000200000 13.3112
0.000275000 11.8405
0.000350000 10.8726
0.000425000 10.1738
0.000500000 9.63890
0.000625000 8.97177
0.000750000 8.47932
0.00100000 7.78807
0.00125000 7.31633
0.00150000 6.96812
0.00200000 6.47933
0.00275000 6.01425
0.00350000 5.70817
0.00425000 5.48720
0.00500000 5.31804
0.00625000 5.10708
0.00750000 4.95135
0.0100000 4.73275
0.0125000 4.58358
0.0150000 4.47346
0.0200000 4.31889
0.0253000 4.20809
0.0314750 4.11619
0.0376500 4.04795
0.0500000 3.95164
0.0625000 3.88492
0.0750000 3.83567
0.100000 3.76654
0.125000 3.71935
0.150000 3.68452
0.200000 3.63562
0.275000 3.58908
0.350000 3.55844
0.500000 3.51936
0.750000 3.48258
1.00000 3.46061
1.50000 3.43447
2.00000 3.41880
2.75000 3.40378
3.50000 3.39378
5.00000 3.38081
7.50000 3.36817
10.0000 3.36021
15.0000 3.34993
20.0000 3.34296
27.5000 3.33520
35.0000 3.32904
50.0000 3.31895
75.0000 3.30504
100.000 3.29268
150.000 3.26994
200.000 3.24851
275.000 3.21767
350.000 3.18788
500.000 3.13056
750.000 3.04027
1000.00 2.95547
1500.00 2.79993
2000.00 2.66039
2750.00 2.47589
3500.00 2.31572
5000.00 2.05085
7500.00 1.72078
10000.0 1.47528
11089.8 1.38429
11634.7 1.34105
11907.2 1.31993
12043.4 1.31010
12111.5 1.30795
12128.6 1.30990
12145.6 1.31789
12154.1 1.33018
12162.6 1.36596
12166.9 1.41572
12171.1 1.55370
12173.3 1.73971
12174.3 1.92122
12175.4 2.23871
12176.5 2.88669
12177.0 3.48701
12177.5 4.50160
12178.1 6.41523
12178.3 8.11480
12178.6 10.6759
12178.9 15.1587
12179.1 23.1374
12179.3 30.3846
12179.4 40.4659
12179.5 55.7584
12179.6 78.9835
12179.8 125.616
12180.0 156.713
12180.2 125.628
12180.4 79.0021
12180.5 49.1167
12180.7 32.3816
12180.9 22.7363
12181.1 16.8419
12181.3 13.0301
12181.4 10.4429
12181.8 7.34268
12182.2 5.53917
12182.5 4.43310
12183.2 3.21877
12183.9 2.58659
12184.7 2.22555
12186.1 1.84215
12187.5 1.65518
12188.9 1.55022
12191.8 1.44273
12197.5 1.36315
12203.2 1.33432
12214.7 1.31276
12226.1 1.30453
12271.8 1.29380
12363.3 1.28485
12546.2 1.27009
12912.1 1.24101
13643.8 1.17817
14009.7 1.13982
14375.5 1.08668
14558.5 1.04535
14649.9 1.01600
14741.4 0.975386
14832.9 0.913109
14878.6 0.866520
14924.3 0.800633
14947.2 0.756061
14970.1 0.699539
14992.9 0.625595
15015.8 0.525351
15027.2 0.461105
15038.7 0.384713
15050.1 0.294706
15061.5 0.194796
15073.0 0.114625
15078.7 0.121312
15081.5 0.157633
15084.4 0.235714
15087.2 0.385861
15090.1 0.663530
15091.5 0.881191
15093.0 1.17959
15094.4 1.59311
15095.8 2.16986
15097.2 3.00157
15098.7 4.22364
15100.1 6.07599
15101.5 8.99542
15103.0 13.8258
15104.4 22.3024
15105.8 38.1626
15106.5 50.9525
15107.2 68.7098
15108.6 119.449
15110.0 161.795
15111.4 139.735
15112.8 94.2219
15114.0 65.7165
15115.2 47.7224
15116.4 36.1138
15117.6 28.4724
15119.9 19.3413
15122.3 14.3578
15124.7 11.3071
15127.1 9.29891
15131.9 6.87743
15136.7 5.49801
15141.4 4.62582
15146.2 4.02989
15151.0 3.59989
15160.5 3.02475
15170.1 2.66131
15179.6 2.41182
15189.1 2.23088
15208.2 1.98635
15227.3 1.82925
15246.4 1.71994
15265.5 1.63948
15303.7 1.52883
15341.9 1.45612
15380.1 1.40445
15418.2 1.36565
15494.6 1.31076
15571.0 1.27322
15723.7 1.22366
15876.4 1.19086
16029.1 1.16636
16334.6 1.12974
16945.5 1.07725
17556.4 1.03537
20000.0 0.893507
20773.7 0.847385
21547.4 0.792622
21934.2 0.756000
22127.6 0.732158
22321.1 0.701083
22514.5 0.656012
22611.2 0.623414
22707.9 0.578127
22756.3 0.547764
22804.6 0.509376
22853.0 0.459083
22901.3 0.390318
22925.5 0.345665
22949.7 0.291556
22973.9 0.225691
22998.0 0.147295
23022.2 0.0667444
23034.3 0.0436064
23046.4 0.0706273
23052.4 0.130842
23058.5 0.257932
23061.5 0.364347
23064.5 0.514872
23067.6 0.729703
23070.6 1.03995
23073.6 1.49780
23076.6 2.18540
23079.6 3.25448
23082.7 4.98718
23085.7 7.94993
23088.7 13.3697
23090.2 17.7783
23091.7 24.0897
23093.2 33.2476
23094.7 46.4937
23097.4 81.1148
23100.0 110.195
23102.6 95.4597
23105.3 64.4838
23107.3 46.8793
23109.3 35.0987
23111.3 27.1640
23113.3 21.7337
23117.4 15.0275
23121.4 11.2424
23125.4 8.88403
23129.4 7.31464
23137.5 5.39407
23145.5 4.29216
23153.6 3.59048
23161.6 3.10991
23169.7 2.76271
23185.8 2.29835
23201.9 2.00450
23218.0 1.80303
23234.1 1.65680
23266.3 1.45932
23298.5 1.33251
23330.7 1.24422
23362.9 1.17917
23427.3 1.08950
23491.7 1.03028
23620.5 0.955854
23749.3 0.909866
23878.1 0.877701
24135.8 0.833621
24651.0 0.778191
25166.2 0.737942
25681.5 0.701750
26196.7 0.662682
26454.3 0.637843
26583.1 0.621993
26711.9 0.601559
26840.8 0.572124
26905.2 0.550856
26969.6 0.521222
27001.8 0.501245
27034.0 0.475825
27066.2 0.442188
27098.4 0.395395
27130.6 0.325993
27146.7 0.277546
27162.8 0.215868
27178.9 0.140420
27195.0 0.0815496
27203.0 0.128765
27207.1 0.231371
27211.1 0.474424
27213.1 0.704072
27215.1 1.06628
27217.1 1.65852
27219.1 2.67218
27221.1 4.53313
27222.2 6.05147
27223.2 8.22142
27224.2 11.4803
27225.2 16.4263
27226.2 24.2914
27227.2 36.6073
27228.6 63.9195
27230.0 86.6349
27231.4 74.9806
27232.8 50.6792
27233.7 38.7296
27234.7 30.1418
27236.5 19.6692
27238.3 13.9766
27240.1 10.5969
27241.9 8.43210
27243.7 6.95900
27247.3 5.12741
27251.0 4.05948
27254.6 3.37695
27261.8 2.56845
27269.1 2.11400
27276.3 1.82737
27283.6 1.63113
27290.8 1.48934
27305.3 1.29863
27319.8 1.17691
27334.3 1.09268
27348.8 1.03101
27377.7 0.946748
27406.7 0.891788
27435.7 0.852992
27464.7 0.824045
27522.6 0.783416
27580.6 0.755929
27696.5 0.720191
27812.4 0.697018
27928.3 0.680030
28160.2 0.655229
28623.8 0.620832
29087.5 0.594062
30942.1 0.506357
34651.3 0.345699
38360.6 0.181311
40215.2 0.100346
41142.5 0.0633102
41606.2 0.0466434
41838.0 0.0389676
41953.9 0.0353105
42011.9 0.0335012
42040.9 0.0325521
42055.4 0.0320094
42062.6 0.0317714
42066.2 0.0323604
42068.0 0.0362139
42068.9 0.0512550
42069.8 0.541804
42070.0 1.09005
42070.2 0.579893
42071.1 0.0599584
42072.1 0.0414698
42074.0 0.0351319
42077.9 0.0329174
42085.7 0.0319429
42101.1 0.0311999
42132.1 0.0301824
42194.1 0.0283761
42318.0 0.0250006
42565.8 0.0189540
43061.4 0.0101106
43309.2 0.00770153
43557.0 0.00695892
43804.8 0.00818453
44052.6 0.0117382
44300.4 0.0180512
44548.2 0.0276419
44796.1 0.0411361
45043.9 0.0592922
45539.5 0.113508
46035.1 0.200560
46530.7 0.336331
47026.3 0.546081
47521.9 0.871422
48017.5 1.38360
48513.2 2.21036
49008.8 3.59248
49504.4 6.00799
50000.0 10.4383
50267.0 14.2863
50534.0 19.6861
51067.0 35.9893
51600.0 50.5716
52133.0 45.0808
52666.0 31.3444
53026.0 24.0991
53386.0 18.8871
53745.9 15.1807
54105.9 12.5043
54825.9 9.02784
55545.8 6.94792
56265.8 5.60055
56985.7 4.67119
58425.6 3.48958
59865.5 2.77710
61305.4 2.30126
64185.2 1.69790
67065.0 1.31664
69944.8 1.03591
72824.6 0.793915
73544.5 0.729160
74264.5 0.651247
74624.5 0.598724
74804.5 0.564550
74984.4 0.520329
75164.4 0.457441
75254.4 0.413290
75344.4 0.354277
75434.4 0.270781
75479.4 0.215091
75524.4 0.147543
75569.4 0.0719331
75591.9 0.0402059
75614.4 0.0329705
75636.9 0.106809
75648.1 0.224262
75659.4 0.467518
75665.0 0.674978
75670.6 0.977623
75676.3 1.42810
75681.9 2.11081
75687.5 3.17683
75693.1 4.88442
75698.8 7.69651
75704.4 12.3578
75712.1 23.0372
75719.9 33.1823
75727.7 30.3244
75735.4 21.4761
75741.0 16.4227
75746.6 12.8420
75752.2 10.3324
75757.8 8.54239
75768.9 6.24693
75780.1 4.89042
75791.3 4.01832
75802.4 3.42137
75824.7 2.66921
75847.1 2.22227
75869.4 1.92982
75891.7 1.72483
75914.0 1.57374
75958.7 1.36659
76003.3 1.23158
76048.0 1.13657
76092.6 1.06598
76181.9 0.967564
76271.2 0.901578
76449.8 0.816768
76628.4 0.762554
76806.9 0.723278
77164.1 0.666740
77878.4 0.589906
78592.7 0.531219
81450.0 0.344731
84307.3 0.183898
85735.9 0.109159
86093.1 0.0902185
86450.3 0.0696418
86628.8 0.0575534
86807.4 0.0422161
86986.0 0.0193561
87075.3 0.0180258
87097.6 0.0404821
87119.9 0.129826
87131.1 0.266362
87136.7 0.401634
87142.3 0.636611
87147.8 1.08318
87150.6 1.46588
87153.4 2.04980
87156.2 2.98750
87159.0 4.58824
87161.8 7.50720
87164.6 13.0403
87167.2 21.7843
87169.9 28.3629
87172.6 23.6208
87175.2 15.3787
87178.1 9.59221
87180.9 6.36452
87183.7 4.50638
87186.5 3.36925
87189.4 2.62475
87192.2 2.11557
87197.8 1.47978
87203.5 1.11181
87209.2 0.879254
87220.5 0.609552
87231.8 0.462609
87243.1 0.372488
87265.7 0.269890
87288.3 0.214219
87310.9 0.179701
87356.1 0.139415
87446.5 0.101626
87537.0 0.0828050
87717.8 0.0621597
87898.7 0.0495238
88260.4 0.0324243
88622.1 0.0203002
88983.8 0.0113341
89345.5 0.00516912
89707.2 0.00188759
90068.9 0.00177783
90430.7 0.00526748
90792.4 0.0129078
91154.1 0.0253798
91515.8 0.0435115
91877.5 0.0683040
92239.2 0.100967
92962.6 0.196071
93686.1 0.344748
94409.5 0.570802
95132.9 0.910408
95856.3 1.41939
96579.7 2.18486
97303.2 3.34288
98026.6 5.10081
98750.0 7.74809
100000 15.1697
101500 24.9814
102239 25.8400
102608 25.0525
102793 24.4459
102885 24.1232
102908 24.0584
102931 24.0394
102943 24.0922
102954 24.3083
102960 24.6195
102966 25.3872
102969 26.2763
102972 28.1310
102973 29.9642
102974 32.8358
102976 37.8897
102977 47.9148
102979 62.0416
102980 72.4622
102981 62.4034
102983 48.2619
102984 39.2874
102985 34.3255
102987 31.0948
102988 29.2198
102990 27.0148
102993 25.8896
102995 25.2417
102998 24.8341
103003 24.3724
103013 23.9593
103022 23.7704
103042 23.5716
103062 23.4435
103102 23.2396
103141 23.0542
103300 22.3299
103616 20.8505
104250 17.9536
105086 14.6738
105922 12.1257
107593 8.71265
109265 6.66580
110937 5.34852
114280 3.78129
117624 2.87408
120967 2.25834
124310 1.78282
127654 1.36973
129326 1.16711
130161 1.05617
130579 0.981443
130684 0.952364
130788 0.907207
130841 0.869080
130893 0.801815
130919 0.741139
130945 0.632867
130958 0.538174
130971 0.385343
130984 0.138469
130991 0.193944
130994 0.946862
130996 2.22882
130997 5.51530
130999 11.3252
131000 17.9701
131001 18.8402
131001 17.7224
131003 13.4383
131005 9.21671
131006 6.78383
131008 5.26981
131010 4.37094
131013 3.30242
131017 2.72427
131024 2.12928
131031 1.83079
131045 1.53543
131059 1.38972
131087 1.24506
131115 1.17250
131171 1.09739
131226 1.05691
131338 1.01016
131450 0.980453
131674 0.939559
131785 0.930239
131841 0.953303
131869 1.05933
131876 1.15904
131883 1.40498
131887 1.68980
131890 2.30416
131892 2.93518
131894 3.99127
131896 6.01314
131896 7.83683
131897 10.4712
131899 15.9640
131900 19.9293
131901 15.9001
131903 10.3577
131904 7.52245
131905 5.62691
131907 3.55622
131909 2.56568
131911 2.03130
131915 1.51204
131919 1.27941
131927 1.08337
131935 1.00501
131967 0.918921
132031 0.888032
132159 0.864854
132415 0.829171
132926 0.762218
133950 0.630916
134974 0.498965
135486 0.432660
135741 0.400864
135869 0.392701
135933 0.422319
135949 0.459720
135965 0.566430
135973 0.708308
135981 1.07219
135985 1.51066
135989 2.50252
135991 3.53591
135993 5.47650
135994 7.12686
135995 9.61329
135996 13.4730
135997 19.3381
135999 30.9016
136000 38.5410
136001 31.1420
136003 19.5679
136004 11.2249
136006 6.96946
136007 4.72767
136009 3.50265
136012 2.17151
136015 1.53551
136021 0.971653
136028 0.736282
136040 0.545664
136052 0.470769
136077 0.410794
136102 0.386240
136201 0.350665
136400 0.317866
136599 0.291076
136698 0.287079
136748 0.332017
136760 0.386593
136773 0.541453
136779 0.744863
136785 1.25262
136788 1.84082
136791 3.09571
136793 4.36690
136794 6.42875
136796 10.5793
136797 14.0654
136797 18.8911
136799 30.4358
136800 38.2203
136801 31.0545
136803 19.5969
136804 14.3043
136804 10.9179
136806 6.65121
136808 4.45733
136809 3.27196
136813 2.00171
136816 1.39926
136823 0.860738
136829 0.639164
136843 0.455940
136856 0.382477
136882 0.322049
136909 0.296284
137015 0.257506
137228 0.222788
137652 0.169946
138502 0.0828936
138927 0.0505762
139352 0.0298123
139564 0.0252118
139777 0.0254769
139989 0.0315568
140201 0.0445919
140414 0.0659674
140626 0.0973204
140839 0.140663
141051 0.198422
141476 0.369679
141901 0.643175
142326 1.06681
142750 1.71083
143175 2.67664
143600 4.10071
144100 6.57389
144600 10.0325
145600 17.6047
146100 19.1920
146600 18.6887
147600 14.9145
147899 13.7362
148048 13.1829
148123 12.9348
148141 12.8928
148160 12.8971
148169 12.9606
148179 13.1800
148183 13.4794
148188 14.1819
148190 14.9832
148193 16.4944
148194 17.8953
148195 19.8926
148196 23.4348
148197 29.3296
148199 39.1957
148200 46.5722
148201 39.6521
148203 29.8828
148204 22.5300
148206 18.7492
148208 16.7166
148209 15.5888
148212 14.3423
148215 13.7330
148221 13.1743
148228 12.9258
148240 12.6961
148253 12.5806
148277 12.4381
148302 12.3317
148402 11.9793
148601 11.3509
148999 10.2393
149795 8.45724
150591 7.02903
150989 6.21373
151088 5.90342
151138 5.69731
151188 5.42763
151238 5.03967
151263 4.76656
151287 4.40395
151312 3.89159
151325 3.54835
151337 3.12893
151362 2.06746
151368 1.87383
151375 1.92619
151378 2.16612
151381 2.67948
151384 3.64142
151387 5.32027
151390 8.30012
151394 12.8809
151400 24.5285
151403 28.2593
151407 29.0379
151413 25.5949
151421 20.7471
151428 17.3278
151436 15.0508
151444 13.4867
151451 12.3654
151459 11.5296
151474 10.3817
151489 9.62498
151504 9.09248
151535 8.39290
151565 7.94751
151595 7.63718
151656 7.22224
151777 6.74699
151899 6.45463
152142 6.06224
152384 5.77488
153355 4.96682
154326 4.38381
154812 4.13766
155055 4.02443
155176 3.97562
155237 3.97241
155267 4.04097
155275 4.11261
155282 4.29457
155286 4.51006
155290 4.98737
155294 6.36937
155296 8.21774
155297 12.3979
155299 17.4297
155300 20.6891
155301 17.2974
155303 12.1992
155304 8.36399
155306 6.60014
155309 5.14081
155312 4.59526
155316 4.33903
155322 4.11318
155328 4.02186
155354 3.91549
155406 3.86764
155509 3.81672
155715 3.72701
156126 3.55535
156950 3.22635
157774 2.89622
158186 2.72024
158391 2.62755
158494 2.58706
158546 2.60511
158559 2.64541
158572 2.76742
158578 2.93488
158585 3.35322
158588 3.84149
158591 4.89158
158593 5.92148
158594 7.72190
158596 11.1554
158597 14.0312
158597 18.6326
158599 28.5807
158600 35.2621
158601 29.0496
158603 19.1592
158604 13.3786
158605 9.84372
158606 7.71529
158607 6.37166
158610 4.86482
158612 4.09455
158617 3.37373
158622 3.05791
158631 2.79141
158641 2.68250
158660 2.58924
158679 2.54690
158756 2.47152
158909 2.37806
159215 2.19305
159520 1.97745
159826 1.70948
160132 1.35484
160285 1.12820
160438 0.857707
160591 0.542202
160744 0.233124
160782 0.182037
160821 0.160491
160859 0.188689
160897 0.299667
160916 0.402763
160935 0.549082
160974 1.02665
161012 1.88132
161050 3.34298
161088 5.66180
161125 9.08075
161200 17.3871
161238 19.6960
161275 19.8541
161350 16.8142
161401 14.4583
161451 12.5115
161553 9.80695
161654 8.14135
161756 7.05174
161857 6.29424
161958 5.74034
162161 4.98631
162364 4.49538
162567 4.14736
162972 3.67785
163378 3.36522
163784 3.13303
163986 3.03568
164189 2.94772
164392 2.87328
164443 2.86334
164493 2.87430
164519 2.90870
164544 3.02206
164557 3.17958
164570 3.58412
164576 4.06745
164582 5.10238
164585 6.14406
164589 7.91600
164592 11.4303
164593 14.4083
164595 18.5280
164597 28.1250
164600 34.9127
164603 28.6720
164605 19.1766
164608 13.4148
164610 9.92086
164612 7.83160
164615 6.56335
164619 5.09613
164624 4.34208
164633 3.63233
164643 3.31909
164662 3.05139
164681 2.94023
164718 2.84315
164756 2.79718
164831 2.74534
164907 2.70992
165057 2.65292
165208 2.60270
165811 2.42480
167016 2.11004
169428 1.47270
170633 1.08013
171236 0.848765
171839 0.590804
172442 0.319883
172743 0.197911
173044 0.113741
173195 0.100772
173346 0.121204
173421 0.148996
173497 0.192049
173647 0.338776
173798 0.599560
173949 1.03128
174099 1.71689
174250 2.77125
174438 4.81053
174625 7.84916
175000 15.3376
175188 17.4713
175375 17.6797
175750 15.0504
176101 12.2603
176452 10.1714
176804 8.69020
177155 7.62515
177857 6.23324
178559 5.37989
179262 4.80733
179964 4.39662
181368 3.84384
182773 3.48459
184178 3.22851
186987 2.87946
192605 2.47160
198224 2.22314
203842 2.04774
209460 1.91835
212270 1.87139
215079 1.84799
216483 1.85941
217186 1.88007
217888 1.92239
218590 2.01180
218941 2.09430
219293 2.22948
219644 2.47154
219819 2.67072
219995 2.96664
220170 3.43182
220346 4.21367
220522 5.63354
220697 8.32906
220849 11.9643
221000 14.0653
221152 11.1804
221303 7.36067
221398 5.73646
221492 4.62663
221681 3.34149
221870 2.69217
222059 2.33222
222248 2.11587
222437 1.97738
222815 1.81830
223194 1.73456
223572 1.68512
224328 1.63112
225084 1.60225
225840 1.58351
227352 1.55840
230377 1.52710
233402 1.51430
236426 1.53687
239451 1.66095
240963 1.83298
242475 2.21807
243232 2.59292
243988 3.22793
244744 4.36818
245500 6.47948
246250 9.87637
247000 12.3137
247750 10.2703
248500 7.00511
249035 5.36608
249570 4.26620
250106 3.52698
250641 3.01719
251711 2.38755
252781 2.02979
254922 1.65363
257063 1.46081
261344 1.25466
265625 1.12936
274188 0.940636
282750 0.762149
291313 0.561352
295594 0.445594
299875 0.317257
304156 0.180527
306297 0.115957
308438 0.0657845
309508 0.0526353
310578 0.0538821
311113 0.0623158
311649 0.0777388
312184 0.101927
312719 0.137098
313789 0.252340
314859 0.455661
315930 0.796985
317000 1.34921
318125 2.25590
319250 3.56480
321500 6.58806
322625 7.31759
323750 7.23299
326000 5.89682
328406 4.46540
330813 3.46642
333219 2.78246
335625 2.29075
340438 1.61265
345250 1.12553
350063 0.711119
354875 0.330119
357281 0.168440
358484 0.108259
359688 0.0746484
360289 0.0728916
360891 0.0850455
361492 0.115016
362094 0.167732
362695 0.249405
363297 0.367680
363899 0.531924
364500 0.753086
365188 1.09154
365875 1.53974
367250 2.82150
370000 6.35831
371375 7.56630
372750 7.90990
375500 7.01970
377838 5.91226
380175 4.93116
381344 4.47119
382513 3.96639
383097 3.64627
383389 3.44490
383681 3.19252
383974 2.85130
384120 2.62540
384266 2.34217
384412 1.97847
384558 1.51525
384631 1.26035
384704 1.04702
384777 1.04563
384814 1.26247
384850 1.78067
384888 2.83160
384925 4.63716
385000 10.0584
385038 12.1892
385075 13.0822
385150 12.3338
385201 11.2628
385251 10.2617
385352 8.73933
385453 7.72929
385554 7.03663
385655 6.53803
385756 6.16412
385957 5.63981
386159 5.28717
386361 5.03102
386765 4.67592
387168 4.43312
387572 4.25025
388379 3.98032
389994 3.61654
391609 3.35690
394838 2.97620
398068 2.69264
404526 2.27252
410985 1.95473
417444 1.68700
423903 1.44599
427132 1.33886
430361 1.26807
431976 1.27940
433591 1.39286
434398 1.54352
435205 1.83665
436013 2.42291
436820 3.61175
438300 6.79577
439040 5.62048
439780 3.68932
440523 2.34652
441265 1.50742
441636 1.21897
442008 1.03092
442379 1.03005
442564 1.17065
442750 1.48162
442938 2.05755
443125 2.97620
443500 5.39826
443688 6.14968
443875 6.27860
444250 5.48170
444484 4.85158
444719 4.30254
445188 3.48765
445656 2.94671
446125 2.57079
446594 2.29540
447063 2.08440
448000 1.77887
448938 1.56359
449875 1.39930
451750 1.15413
455500 0.811776
459250 0.544716
463000 0.312969
466750 0.129198
467688 0.0981048
468625 0.0772033
469563 0.0702917
470500 0.0832385
471438 0.126307
471906 0.165121
472375 0.221722
472844 0.305706
473313 0.436590
473781 0.659907
474250 1.09845
474582 1.72518
474914 2.96178
475207 4.83836
475500 6.39670
475793 5.65541
476086 4.09373
476302 3.26273
476518 2.72198
476950 2.17189
477382 1.98123
477815 1.95999
478679 2.16204
479543 2.53529
483000 4.56766
486291 5.73174
487937 5.80546
488348 5.82286
488759 5.91073
489171 6.26279
489376 6.73724
489582 7.70527
489791 9.49154
490000 11.1616
490209 10.5879
490418 9.01187
490585 8.03137
490751 7.35224
491084 6.54096
491417 6.08486
491750 5.78387
492781 5.20159
493813 4.78538
495875 4.05913
497938 3.34387
500000 2.56605
500000 2.91220
550000 2.88580
600000 2.87130
650000 2.86650
700000 2.86950
750000 2.87880
800000 2.89340
850000 2.91230
900000 2.93480
950000 2.96020
1.00000E+06 2.98790
1.10000E+06 3.04860
1.18360E+06 3.10280
1.18360E+06 3.10278
1.20000E+06 3.11360
1.30000E+06 3.18030
1.40000E+06 3.24650
1.50000E+06 3.31070
1.60000E+06 3.37160
1.70000E+06 3.42820
1.80000E+06 3.47980
1.90000E+06 3.52600
1.92673E+06 3.53750
1.92673E+06 3.53750
2.00000E+06 3.56680
2.10000E+06 3.60190
2.20000E+06 3.63160
2.30000E+06 3.65610
2.33553E+06 3.66360
2.33553E+06 3.66360
2.40000E+06 3.67560
2.50000E+06 3.69050
2.60000E+06 3.70120
2.70000E+06 3.70790
2.71746E+06 3.70870
2.71746E+06 3.70870
2.80000E+06 3.71120
2.81864E+06 3.71140
2.90000E+06 3.71120
2.98978E+06 3.70890
3.00000E+06 3.70850
3.10000E+06 3.70320
3.11419E+06 3.70220
3.11419E+06 3.70220
3.20000E+06 3.69570
3.30000E+06 3.68620
3.34649E+06 3.68120
3.36038E+06 3.67970
3.36038E+06 3.67970
3.37706E+06 3.67770
3.38377E+06 3.67700
3.40000E+06 3.67500
3.43424E+06 3.67090
3.50000E+06 3.66240
3.60000E+06 3.64840
3.66256E+06 3.63910
3.66256E+06 3.63910
3.70000E+06 3.63340
3.74555E+06 3.62620
3.74555E+06 3.62620
3.76043E+06 3.62380
3.79698E+06 3.61780
3.80000E+06 3.61730
3.86285E+06 3.60680
3.86286E+06 3.60680
3.87709E+06 3.60440
3.90000E+06 3.60050
3.95369E+06 3.59120
3.95369E+06 3.59120
4.00000E+06 3.58300
4.00336E+06 3.58240
4.01261E+06 3.58070
4.01262E+06 3.58070
4.10345E+06 3.56430
4.10345E+06 3.56430
4.18590E+06 3.54900
4.18590E+06 3.54900
4.20000E+06 3.54640
4.20372E+06 3.54570
4.26467E+06 3.53410
4.40000E+06 3.50810
4.49116E+06 3.49030
4.60000E+06 3.46880
4.73053E+06 3.44280
4.80000E+06 3.42890
4.84920E+06 3.41910
4.98842E+06 3.39100
5.00000E+06 3.38870
5.17521E+06 3.35340
5.19291E+06 3.34980
5.20000E+06 3.34840
5.27198E+06 3.33390
5.38011E+06 3.31210
5.40000E+06 3.30810
5.44660E+06 3.29880
5.52036E+06 3.28400
5.60000E+06 3.26810
5.80000E+06 3.22840
5.81865E+06 3.22470
5.97945E+06 3.19300
6.00000E+06 3.18900
6.02508E+06 3.18410
6.06385E+06 3.17650
6.08983E+06 3.17150
6.20000E+06 3.15010
6.25770E+06 3.13890
6.38751E+06 3.11400
6.40000E+06 3.11160
6.60000E+06 3.07370
6.80000E+06 3.03640
7.00000E+06 2.99960
7.20000E+06 2.96350
7.40000E+06 2.92790
7.60000E+06 2.89300
7.80000E+06 2.85880
8.00000E+06 2.82510
8.50000E+06 2.74400
9.00000E+06 2.66720
9.05729E+06 2.65870
9.50000E+06 2.59510
1.00000E+07 2.52820
1.01685E+07 2.50680
1.01686E+07 2.50679
1.05000E+07 2.46680
1.07426E+07 2.43910
1.09236E+07 2.41930
1.10000E+07 2.41120
1.11659E+07 2.39410
1.13043E+07 2.38040
1.13874E+07 2.37240
1.13875E+07 2.37239
1.14031E+07 2.37090
1.15000E+07 2.36180
1.16119E+07 2.35150
1.20000E+07 2.31830
1.24442E+07 2.28460
1.25000E+07 2.28060
1.30000E+07 2.24830
1.35000E+07 2.22080
1.36320E+07 2.21430
1.36320E+07 2.21430
1.37413E+07 2.20910
1.38962E+07 2.20200
1.40000E+07 2.19750
1.42260E+07 2.18820
1.42854E+07 2.18590
1.43296E+07 2.18420
1.43472E+07 2.18350
1.45000E+07 2.17780
1.50000E+07 2.16120
1.54620E+07 2.14800
1.55000E+07 2.14700
1.59108E+07 2.13710
1.60000E+07 2.13510
1.60142E+07 2.13480
1.63653E+07 2.12760
1.65000E+07 2.12500
1.66964E+07 2.12150
1.67698E+07 2.12030
1.67962E+07 2.11980
1.70000E+07 2.11660
1.73098E+07 2.11210
1.75000E+07 2.10970
1.80000E+07 2.10420
1.85000E+07 2.10010
1.90000E+07 2.09740
1.91531E+07 2.09680
1.95000E+07 2.09600
1.95025E+07 2.09600
1.95974E+07 2.09580
1.98456E+07 2.09570
2.00000E+07 2.09580
2.00000E+07 2.09585
2.10000E+07 2.09909
2.20000E+07 2.10664
2.30000E+07 2.11789
2.40000E+07 2.13200
2.50000E+07 2.14810
2.60000E+07 2.16550
2.70000E+07 2.18350
2.80000E+07 2.20150
2.90000E+07 2.21900
3.00000E+07 2.23570
3.10000E+07 2.25150
3.20000E+07 2.26600
3.30000E+07 2.27920
3.40000E+07 2.29101
3.50000E+07 2.30138
3.60000E+07 2.31027
3.70000E+07 2.31766
3.80000E+07 2.32356
3.90000E+07 2.32795
4.00000E+07 2.33081
4.10000E+07 2.33224
4.20000E+07 2.33233
4.30000E+07 2.33097
4.40000E+07 2.32824
4.50000E+07 2.32434
4.60000E+07 2.31907
4.70000E+07 2.31281
4.80000E+07 2.30537
4.90000E+07 2.29682
5.00000E+07 2.28738
5.10000E+07 2.27703
5.20000E+07 2.26577
5.30000E+07 2.25378
5.40000E+07 2.24108
5.50000E+07 2.22774
5.60000E+07 2.21367
5.70000E+07 2.19916
5.80000E+07 2.18401
5.90000E+07 2.16851
6.00000E+07 2.15255
6.10000E+07 2.13624
6.20000E+07 2.11966
6.30000E+07 2.10271
6.40000E+07 2.08549
6.50000E+07 2.06810
6.60000E+07 2.05053
6.70000E+07 2.03277
6.80000E+07 2.01493
6.90000E+07 1.99700
7.00000E+07 1.97898
7.10000E+07 1.96096
7.20000E+07 1.94294
7.30000E+07 1.92482
7.40000E+07 1.90680
7.50000E+07 1.88897
7.60000E+07 1.87102
7.70000E+07 1.85326
7.80000E+07 1.83549
7.90000E+07 1.81800
8.00000E+07 1.80039
8.10000E+07 1.78320
8.20000E+07 1.76595
8.30000E+07 1.74877
8.40000E+07 1.73196
8.50000E+07 1.71512
8.60000E+07 1.69864
8.70000E+07 1.68213
8.80000E+07 1.66599
8.90000E+07 1.64996
9.00000E+07 1.63405
9.10000E+07 1.61848
9.20000E+07 1.60296
9.30000E+07 1.58779
9.40000E+07 1.57266
9.50000E+07 1.55790
9.60000E+07 1.54320
9.70000E+07 1.52873
9.80000E+07 1.51459
9.90000E+07 1.50050
1.00000E+08 1.48678
1.02000E+08 1.45965
1.04000E+08 1.43350
1.06000E+08 1.40823
1.08000E+08 1.38373
1.10000E+08 1.36002
1.12000E+08 1.33696
1.14000E+08 1.31483
1.16000E+08 1.29350
1.18000E+08 1.27288
1.20000E+08 1.25283
1.22000E+08 1.23365
1.24000E+08 1.21519
1.26000E+08 1.19737
1.28000E+08 1.18005
1.30000E+08 1.16351
1.32000E+08 1.14759
1.34000E+08 1.13216
1.36000E+08 1.11741
1.38000E+08 1.10323
1.40000E+08 1.08958
1.42000E+08 1.07632
1.44000E+08 1.06374
1.46000E+08 1.05162
1.48000E+08 1.03983
1.50000E+08 1.02864
1.52000E+08 1.01790
1.54000E+08 1.00748
1.56000E+08 0.997580
1.58000E+08 0.988080
1.60000E+08 0.978840
1.62000E+08 0.970110
1.64000E+08 0.961730
1.66000E+08 0.953610
1.68000E+08 0.945940
1.70000E+08 0.938580
1.72000E+08 0.931420
1.74000E+08 0.924700
1.76000E+08 0.918190
1.78000E+08 0.912050
1.80000E+08 0.906200
1.82000E+08 0.900500
1.84000E+08 0.895190
1.86000E+08 0.890150
1.88000E+08 0.885250
1.90000E+08 0.880690
1.92000E+08 0.876380
1.94000E+08 0.872180
1.96000E+08 0.868330
1.98000E+08 0.864560
2.00000E+08 0.861180