Zn-67(n,tot) ENDF/B-VII.1
Energy(eV) XS(b)
1.00000E-05 377.817
1.30872E-05 330.526
1.50000E-05 308.871
1.61743E-05 297.525
2.00000E-05 267.771
2.23486E-05 253.424
2.75000E-05 228.664
2.85230E-05 224.564
3.16102E-05 213.422
3.46973E-05 203.801
3.50000E-05 202.927
3.57529E-05 200.802
3.65057E-05 198.742
3.80115E-05 194.808
4.10230E-05 187.599
4.70459E-05 175.318
5.00000E-05 170.123
5.93945E-05 156.263
7.17432E-05 142.369
7.50000E-05 139.290
8.40918E-05 131.661
0.000100000 120.909
0.000108789 116.009
0.000133486 104.932
0.000150000 99.1064
0.000158184 96.5635
0.000179092 90.8781
0.000200000 86.1094
0.000207578 84.5616
0.000232276 80.0541
0.000256973 76.2132
0.000275000 73.7427
0.000306367 69.9760
0.000350000 65.6040
0.000405156 61.1230
0.000500000 55.2305
0.000503945 55.0221
0.000516294 54.3853
0.000528642 53.7710
0.000553340 52.6046
0.000602734 50.4907
0.000750000 45.4800
0.000800313 44.0942
0.000997891 39.7072
0.00100000 39.6676
0.00100611 39.5533
0.00101222 39.4401
0.00102443 39.2168
0.00104887 38.7819
0.00109774 37.9560
0.00119547 36.4589
0.00150000 32.7729
0.00159063 31.8861
0.00178821 30.1922
0.00198578 28.7579
0.00200000 28.6629
0.00204762 28.3522
0.00209524 28.0521
0.00219047 27.4816
0.00238094 26.4450
0.00275000 24.7522
0.00317125 23.1938
0.00350000 22.1785
0.00396156 20.9723
0.00475188 19.3312
0.00500000 18.8981
0.00566625 17.8793
0.00633250 17.0259
0.00750000 15.8147
0.00791313 15.4517
0.00949375 14.2893
0.0100000 13.9766
0.0113275 13.2587
0.0126550 12.6569
0.0150000 11.7962
0.0158163 11.5426
0.0189775 10.7198
0.0200000 10.4965
0.0226500 9.98967
0.0253000 9.56475
0.0320978 8.72667
0.0376500 8.21812
0.0388956 8.11926
0.0416717 7.91510
0.0444478 7.73037
0.0500000 7.40820
0.0524913 7.28054
0.0592892 6.97412
0.0660870 6.71627
0.0750000 6.43286
0.0796826 6.30340
0.0898413 6.05818
0.100000 5.85134
0.106874 5.72842
0.134065 5.33870
0.150000 5.16133
0.161256 5.05221
0.188448 4.83014
0.200000 4.74980
0.242830 4.50370
0.275000 4.35796
0.297213 4.27142
0.350000 4.09982
0.351596 4.09524
0.354995 4.08559
0.358394 4.07608
0.365192 4.05745
0.378787 4.02171
0.405979 3.95567
0.460361 3.84152
0.500000 3.77028
0.569126 3.66425
0.677891 3.53132
0.750000 3.45949
0.895421 3.34174
1.00000 3.27327
1.11295 3.21028
1.33048 3.11204
1.50000 3.05048
1.76554 2.97205
2.00000 2.91581
2.20060 2.87473
2.63566 2.80160
2.75000 2.78517
3.12500 2.73735
3.50000 2.69688
3.50578 2.69630
3.51938 2.69495
3.53297 2.69361
3.56016 2.69094
3.61455 2.68569
3.72331 2.67550
3.94084 2.65628
4.37590 2.62179
5.00000 2.57951
5.24602 2.56468
6.11615 2.51856
6.98627 2.47989
7.50000 2.45966
8.72651 2.41720
10.0000 2.37958
10.4667 2.36704
12.2070 2.32480
13.9472 2.28796
15.0000 2.26763
17.4277 2.22497
20.0000 2.18455
20.9082 2.17119
24.2041 2.12575
27.5000 2.08403
27.8692 2.07954
28.7393 2.06909
29.6094 2.05882
31.3497 2.03873
34.8301 2.00019
35.0000 1.99835
35.4245 1.99379
35.8489 1.98925
36.6978 1.98025
38.3956 1.96252
41.7911 1.92803
50.0000 1.84877
55.7131 1.79613
69.6350 1.67323
75.0000 1.62711
78.8930 1.59388
78.8930 1.59388
78.8931 1.59388
78.8931 1.59388
78.8932 1.59388
78.8933 1.59387
78.8937 1.59387
78.8943 1.59387
78.8956 1.59386
78.8982 1.59383
78.9033 1.59379
78.9136 1.59370
78.9342 1.59353
78.9755 1.59318
79.0579 1.59247
79.2228 1.59107
79.5526 1.58826
80.2122 1.58265
81.5314 1.57142
84.1698 1.54901
89.4465 1.50418
100.000 1.41408
101.300 1.40289
101.300 1.40289
101.301 1.40289
101.301 1.40289
101.302 1.40288
101.304 1.40286
101.307 1.40283
101.314 1.40277
101.328 1.40265
101.356 1.40241
101.413 1.40192
101.525 1.40096
101.750 1.39902
102.199 1.39514
103.098 1.38738
104.896 1.37181
108.493 1.34048
115.685 1.27691
130.070 1.14485
130.070 1.14485
130.071 1.14485
130.071 1.14484
130.073 1.14483
130.075 1.14481
130.080 1.14476
130.090 1.14467
130.109 1.14448
130.148 1.14412
130.226 1.14338
130.382 1.14191
130.693 1.13896
131.316 1.13304
132.561 1.12117
135.053 1.09721
140.035 1.04844
150.000 0.947438
167.020 0.769047
167.020 0.769048
167.021 0.769042
167.021 0.769037
167.022 0.769027
167.024 0.769006
167.028 0.768965
167.036 0.768883
167.052 0.768718
167.085 0.768389
167.149 0.767731
167.278 0.766416
167.536 0.763792
168.051 0.758567
169.081 0.748222
171.143 0.728058
175.265 0.690898
183.510 0.644103
191.755 0.701113
193.816 0.753431
195.878 0.833747
196.908 0.887912
197.939 0.953942
198.969 1.03430
200.000 1.13208
201.806 1.35779
203.613 1.67930
205.419 2.14376
207.225 2.82869
209.031 3.86819
210.838 5.50809
212.644 8.23600
214.450 13.1225
214.450 13.1233
214.451 13.1252
214.451 13.1270
214.452 13.1307
214.454 13.1380
214.458 13.1524
214.466 13.1815
214.482 13.2400
214.513 13.3580
214.577 13.5983
214.703 14.0967
214.956 15.1700
215.461 17.6721
216.472 24.6489
217.484 36.0086
218.495 56.0765
219.000 72.3027
219.506 95.9539
220.011 132.157
220.517 191.150
221.022 295.780
221.275 380.605
221.528 504.170
221.781 692.136
222.034 992.033
222.286 1493.49
222.539 2347.19
222.820 3807.89
223.100 4823.09
223.381 3907.98
223.661 2474.76
223.863 1753.66
224.065 1274.90
224.267 956.676
224.469 740.027
224.873 477.599
225.277 333.181
225.681 246.062
226.084 189.674
226.892 123.615
227.700 87.8213
228.508 66.2105
229.316 52.1234
230.123 42.4020
231.739 30.1559
233.355 22.9685
234.970 18.3564
236.586 15.2002
239.817 11.2412
243.048 8.91416
246.279 7.41179
249.511 6.37558
255.973 5.06108
262.435 4.27958
275.360 3.43266
275.360 3.43686
275.361 3.43683
275.362 3.43680
275.363 3.43674
275.366 3.43662
275.371 3.43639
275.382 3.43591
275.404 3.43496
275.447 3.43307
275.534 3.42930
275.708 3.42181
276.055 3.40706
276.750 3.37841
278.141 3.32439
280.921 3.22839
286.482 3.07764
297.605 2.90568
308.727 2.87517
314.288 2.92076
317.069 3.00280
317.764 3.06357
318.459 3.21012
318.806 3.38776
318.980 3.54812
319.154 3.81138
319.328 4.28932
319.502 5.29032
319.588 6.25043
319.675 7.89340
319.762 10.9342
319.849 16.8409
319.925 25.1833
320.000 30.7535
320.076 25.1908
320.151 16.8520
320.216 12.0663
320.282 9.17069
320.347 7.39467
320.412 6.25875
320.543 4.97095
320.673 4.30839
320.804 3.92751
320.935 3.69012
321.196 3.42407
321.718 3.20993
322.240 3.13182
323.285 3.08414
324.330 3.08007
328.508 3.15297
336.866 3.42344
353.580 4.43311
353.580 4.42881
353.581 4.42887
353.582 4.42893
353.583 4.42905
353.586 4.42928
353.591 4.42975
353.602 4.43068
353.624 4.43254
353.667 4.43628
353.755 4.44377
353.929 4.45883
354.278 4.48931
354.975 4.55166
356.370 4.68223
359.159 4.96857
364.738 5.65911
375.895 7.70260
387.053 11.2510
398.210 17.8835
403.789 23.4544
409.368 31.8027
414.946 44.9606
420.525 67.1328
426.104 108.089
428.893 142.520
431.683 194.356
434.472 276.486
437.261 414.731
440.051 662.970
442.840 1124.76
445.520 1838.99
448.200 2341.65
450.885 1908.44
453.570 1219.01
454.000 1129.48
454.000 1129.44
454.001 1129.28
454.002 1129.14
454.003 1128.86
454.006 1128.30
454.011 1127.19
454.023 1124.95
454.045 1120.49
454.090 1111.62
454.180 1094.13
454.360 1060.04
454.719 995.442
455.438 879.804
456.875 695.262
459.750 457.628
462.625 321.463
465.500 238.050
468.375 183.764
471.250 146.603
477.000 100.514
482.750 74.0771
488.500 57.4713
500.000 38.4447
510.369 29.0315
520.738 23.0905
531.106 19.0571
541.475 16.1592
551.844 13.9783
562.213 12.2864
567.397 11.6117
572.581 11.1539
575.173 11.1363
577.766 11.5334
579.062 12.1002
580.358 13.2253
581.654 15.5655
582.302 17.6786
582.950 21.0291
582.950 21.0306
582.951 21.0339
582.951 21.0365
582.952 21.0424
582.954 21.0543
582.957 21.0773
582.964 21.1236
582.978 21.2177
583.006 21.4084
583.063 21.8030
583.175 22.6497
583.400 24.6036
583.850 29.9263
584.300 38.2562
584.750 52.1671
585.200 77.5759
585.424 98.7081
585.649 130.217
585.874 179.550
586.099 261.219
586.324 404.669
586.549 664.376
586.775 1079.03
587.000 1374.03
587.226 1124.34
587.451 721.182
587.608 521.787
587.766 386.950
587.923 295.980
588.080 233.226
588.395 156.164
588.709 113.112
589.024 86.8403
589.339 69.6745
589.968 49.3367
590.597 38.1605
591.226 31.3249
592.485 23.6596
593.743 19.6118
595.001 17.1685
596.260 15.5516
597.518 14.4075
600.035 12.8942
602.551 11.9281
607.585 10.7275
612.618 9.96945
617.652 9.41741
627.718 8.61661
647.852 7.55513
667.986 6.82334
708.253 5.82568
728.386 5.46428
738.453 5.31264
740.970 5.28145
743.487 5.26002
744.745 5.25918
746.003 5.27739
746.632 5.30353
747.262 5.35653
747.891 5.47258
748.205 5.58480
748.520 5.77797
748.520 5.78121
748.521 5.78178
748.521 5.78227
748.523 5.78334
748.525 5.78549
748.531 5.78981
748.541 5.79860
748.562 5.81666
748.603 5.85522
748.686 5.94353
748.852 6.18047
749.017 6.54451
749.183 7.14310
749.349 8.22364
749.432 9.11934
749.514 10.4540
749.597 12.5552
749.680 16.0695
749.763 22.3766
749.846 34.1107
749.923 51.5142
750.000 63.1015
750.077 51.4939
750.154 34.1141
750.206 25.9775
750.257 20.4552
750.360 14.1112
750.463 10.9168
750.566 9.13523
750.669 8.05390
750.772 7.35261
750.978 6.53216
751.185 6.08989
751.391 5.82494
751.803 5.53585
752.215 5.38855
752.627 5.30224
753.451 5.20736
754.275 5.15601
755.099 5.12260
756.747 5.07804
760.043 5.01859
763.340 4.97088
776.525 4.80742
802.896 4.52907
855.637 4.08662
961.120 3.45893
961.120 3.45748
961.121 3.45748
961.121 3.45747
961.123 3.45747
961.125 3.45746
961.130 3.45743
961.139 3.45739
961.158 3.45729
961.196 3.45710
961.272 3.45673
961.424 3.45598
961.728 3.45447
962.335 3.45147
963.550 3.44549
965.980 3.43357
970.840 3.40997
980.560 3.36364
1000.00 3.27412
1046.92 3.07157
1070.39 2.97619
1076.25 2.95364
1082.12 2.93355
1085.05 2.92677
1086.52 2.92590
1087.98 2.92916
1089.45 2.94269
1090.18 2.95884
1090.91 2.99013
1091.65 3.05809
1092.01 3.12478
1092.38 3.24196
1092.75 3.47654
1092.93 3.69150
1093.11 4.04809
1093.30 4.70600
1093.39 5.26119
1093.48 6.09368
1093.57 7.44749
1093.66 9.76219
1093.76 14.1589
1093.85 22.7795
1093.92 34.6885
1094.00 42.6160
1094.08 34.6934
1094.15 22.7853
1094.22 15.7434
1094.29 11.5987
1094.36 9.04526
1094.43 7.44866
1094.57 5.63559
1094.70 4.71335
1094.84 4.17950
1094.98 3.84675
1095.25 3.47294
1095.52 3.27772
1095.80 3.16377
1096.34 3.04189
1096.89 2.98084
1097.44 2.94550
1098.53 2.90711
1099.62 2.88648
1100.72 2.87312
1102.90 2.85525
1107.28 2.83105
1111.65 2.81110
1129.14 2.73810
1164.13 2.59225
1199.11 2.43431
1234.10 2.24560
1234.10 2.24381
1234.11 2.24378
1234.11 2.24375
1234.12 2.24368
1234.14 2.24355
1234.19 2.24329
1234.27 2.24277
1234.44 2.24173
1234.78 2.23963
1235.45 2.23542
1236.80 2.22692
1239.49 2.20953
1244.87 2.17307
1255.65 2.09167
1266.42 1.99407
1277.19 1.87024
1287.96 1.70034
1293.35 1.58649
1298.74 1.44316
1301.43 1.35794
1304.12 1.26416
1306.82 1.16795
1309.51 1.09432
1310.86 1.09016
1312.20 1.14337
1313.55 1.32352
1314.22 1.50742
1314.89 1.80422
1315.23 2.01638
1315.57 2.28835
1315.91 2.63939
1316.24 3.09503
1316.58 3.69668
1316.91 4.49734
1317.25 5.58750
1317.59 7.09364
1317.92 9.24063
1318.26 12.3907
1318.60 17.1969
1318.93 24.8742
1319.27 38.0197
1319.44 48.1741
1319.61 62.2813
1319.78 82.5276
1319.94 111.977
1320.11 155.874
1320.28 221.263
1320.54 371.815
1320.80 488.094
1321.06 410.022
1321.32 269.053
1321.54 186.532
1321.75 133.992
1321.97 100.367
1322.18 78.0755
1322.62 51.7006
1323.05 37.4019
1323.48 28.7933
1323.91 23.1924
1324.78 16.5435
1325.64 12.8416
1326.50 10.5442
1327.37 9.00047
1328.23 7.90528
1329.96 6.46881
1331.68 5.58012
1333.41 4.98137
1335.14 4.55269
1338.59 3.98214
1342.05 3.62041
1348.95 3.18641
1355.86 2.93218
1362.77 2.76237
1376.59 2.54420
1404.22 2.31498
1431.85 2.24167
1445.67 2.28125
1459.48 2.41773
1473.30 2.74241
1487.12 3.48074
1494.02 4.17269
1500.93 5.28719
1507.84 7.17931
1514.75 10.6455
1518.20 13.5135
1521.66 17.7587
1525.11 24.3501
1528.56 35.2440
1532.02 54.8267
1533.75 70.8553
1535.47 94.3754
1537.20 130.395
1538.93 188.294
1540.65 285.893
1542.38 453.680
1544.29 743.067
1546.20 950.835
1548.11 779.190
1550.02 499.488
1552.18 298.080
1554.34 191.317
1556.50 132.162
1558.67 96.8675
1560.83 74.3397
1562.99 59.1565
1567.31 40.6111
1571.63 30.1280
1575.96 23.6080
1584.60 16.1997
1584.60 16.1992
1584.61 16.1962
1584.61 16.1938
1584.62 16.1884
1584.64 16.1782
1584.67 16.1573
1584.74 16.1156
1584.88 16.0335
1585.16 15.8711
1585.72 15.5562
1586.83 14.9617
1589.06 13.8976
1593.52 12.1676
1602.43 9.76934
1611.34 8.20830
1620.26 7.12362
1638.09 5.73012
1655.91 4.87946
1673.74 4.30573
1691.57 3.88967
1727.22 3.31472
1762.88 2.91894
1798.53 2.61231
1834.19 2.35319
1852.02 2.23508
1860.93 2.18216
1863.16 2.17295
1865.39 2.17295
1866.50 2.18516
1867.62 2.23038
1868.17 2.29516
1868.45 2.35807
1868.73 2.46684
1869.01 2.67917
1869.15 2.86805
1869.29 3.17162
1869.43 3.70680
1869.57 4.74982
1869.64 5.68622
1869.71 7.14238
1869.78 9.58159
1869.84 13.6128
1869.92 20.5107
1870.00 25.1102
1870.08 20.5117
1870.16 13.6134
1870.22 9.80949
1870.28 7.47458
1870.35 5.98152
1870.41 5.02305
1870.54 3.90384
1870.66 3.31632
1870.79 2.97355
1870.92 2.75722
1871.17 2.51116
1871.43 2.38085
1871.68 2.30394
1872.19 2.22026
1873.20 2.15169
1874.21 2.12221
1876.24 2.09226
1878.27 2.07330
1886.39 2.01644
1902.62 1.91467
1935.08 1.71846
1967.54 1.53370
2000.00 1.38934
2017.35 1.36279
2034.70 1.42956
2034.70 1.42978
2034.71 1.42982
2034.71 1.42986
2034.72 1.42992
2034.73 1.43006
2034.77 1.43033
2034.83 1.43088
2034.96 1.43198
2035.22 1.43423
2035.74 1.43886
2036.77 1.44873
2038.85 1.47100
2042.99 1.52714
2051.27 1.70106
2059.56 2.00327
2063.70 2.24334
2064.74 2.32820
2065.78 2.45139
2066.29 2.55770
2066.55 2.64207
2066.81 2.77322
2067.07 3.00748
2067.20 3.20802
2067.33 3.51952
2067.46 4.05485
2067.59 5.06884
2067.65 5.95815
2067.72 7.30953
2067.78 9.51333
2067.85 13.0330
2067.92 19.3393
2068.00 23.5395
2068.08 19.3556
2068.15 13.0629
2068.21 10.0911
2068.26 8.10997
2068.36 5.81109
2068.46 4.65844
2068.57 4.01985
2068.67 3.63601
2068.77 3.39041
2068.98 3.11100
2069.18 2.96933
2069.39 2.89227
2069.80 2.82641
2070.63 2.82310
2071.45 2.87470
2074.75 3.22373
2081.34 4.31801
2087.93 6.18519
2094.52 9.57992
2097.81 12.3598
2101.11 16.4255
2104.40 22.6371
2107.70 32.6598
2111.00 50.0556
2114.29 83.2644
2115.94 111.790
2117.59 154.973
2119.23 222.370
2120.88 327.946
2123.09 540.657
2125.30 695.961
2127.51 573.337
2129.72 369.178
2131.49 255.387
2133.26 182.536
2135.03 135.672
2136.80 104.529
2140.34 67.6282
2143.88 47.6799
2147.42 35.7238
2150.96 27.9900
2158.04 18.8691
2165.11 13.8374
2172.19 10.7205
2186.35 7.11495
2200.51 5.09695
2207.59 4.41282
2214.67 3.94658
2221.74 3.89200
2225.28 4.23396
2228.82 5.18565
2232.36 7.61503
2234.13 10.1021
2235.90 14.4363
2237.67 22.5763
2238.56 29.4102
2239.44 39.5746
2240.33 55.3491
2241.21 80.9475
2242.10 124.383
2242.98 199.357
2243.99 336.224
2245.00 443.700
2246.01 375.210
2247.02 248.142
2247.70 185.375
2248.37 141.523
2249.72 89.4632
2251.07 62.1565
2252.42 46.3534
2253.77 36.4168
2255.12 29.7607
2257.82 21.6141
2260.52 16.9461
2263.22 13.9822
2268.62 10.4896
2274.02 8.52037
2279.43 7.25775
2290.23 5.71600
2301.03 4.78472
2311.83 4.14002
2333.43 3.26467
2355.04 2.67746
2376.64 2.30684
2398.24 2.32185
2409.04 2.69506
2414.44 3.08938
2417.14 3.39880
2417.82 3.51433
2418.49 3.69506
2418.83 3.86094
2419.17 4.19855
2419.34 4.55103
2419.51 5.25621
2419.59 5.91684
2419.68 7.00584
2419.76 8.95070
2419.84 12.5689
2419.92 17.9105
2420.00 21.4765
2420.08 17.9352
2420.16 12.6165
2420.24 8.99149
2420.33 7.06803
2420.41 6.00741
2420.50 5.38198
2420.67 4.73223
2420.84 4.43310
2421.17 4.19501
2421.51 4.12812
2422.19 4.14481
2422.87 4.22848
2425.58 4.75253
2431.01 6.37929
2436.43 9.13514
2441.85 14.0426
2447.28 23.5218
2449.99 31.6948
2452.70 44.1771
2455.41 64.1704
2458.13 98.0486
2460.84 158.967
2463.55 272.143
2466.28 459.754
2469.00 606.258
2471.73 511.346
2474.45 336.971
2476.61 238.263
2478.77 173.872
2480.93 131.798
2483.09 103.460
2487.40 69.3477
2491.72 50.5347
2496.04 39.0672
2500.35 31.5365
2508.99 22.4866
2517.62 17.3783
2526.26 14.1547
2543.53 10.3508
2560.79 8.16130
2578.06 6.68450
2595.33 5.55852
2603.97 5.08140
2612.60 4.68143
2612.60 4.68178
2612.61 4.68158
2612.61 4.68143
2612.62 4.68108
2612.64 4.68042
2612.67 4.67910
2612.74 4.67646
2612.88 4.67119
2613.15 4.66078
2613.70 4.64058
2614.79 4.60269
2616.98 4.53895
2621.36 4.48406
2625.73 4.61004
2630.11 5.14513
2634.49 6.73303
2636.68 8.47042
2638.87 11.6208
2641.06 17.7613
2642.15 23.0525
2643.24 31.0925
2644.34 43.8539
2645.43 65.0907
2646.53 102.266
2647.62 168.932
2648.81 287.848
2650.00 384.460
2651.19 329.486
2652.38 221.037
2653.58 145.544
2654.79 101.435
2655.99 75.0777
2657.19 58.4297
2658.39 47.3215
2659.59 39.5511
2662.00 29.6458
2664.40 23.7619
2666.81 19.9457
2671.61 15.3859
2676.42 12.8050
2681.23 11.1635
2686.04 10.0366
2688.44 9.61771
2689.04 9.54102
2689.64 9.50707
2689.95 9.53831
2690.25 9.67702
2690.40 9.85894
2690.55 10.2461
2690.62 10.6098
2690.70 11.2073
2690.77 12.2411
2690.85 14.0714
2690.92 16.9971
2691.00 18.9494
2691.08 16.9761
2691.15 14.0281
2691.20 12.7501
2691.25 11.8494
2691.34 10.7743
2691.43 10.1999
2691.53 9.86362
2691.71 9.50494
2691.90 9.32215
2692.27 9.13310
2692.64 9.02613
2693.39 8.88250
2694.13 8.77015
2697.11 8.40406
2703.07 7.82844
2714.99 7.01157
2726.91 6.44748
2738.83 6.02693
2762.67 5.42613
2786.50 5.00342
2834.17 4.41880
2858.01 4.19983
2869.93 4.10365
2875.89 4.06409
2877.38 4.05972
2878.87 4.06776
2879.61 4.08789
2880.36 4.15029
2880.73 4.23365
2881.10 4.44088
2881.29 4.68029
2881.48 5.19136
2881.57 5.69018
2881.66 6.55917
2881.75 8.20892
2881.80 9.60047
2881.85 11.5302
2881.92 16.0603
2882.00 19.0228
2882.08 15.9981
2882.15 11.5299
2882.22 8.97553
2882.28 7.43192
2882.35 6.45837
2882.41 5.83969
2882.54 5.12471
2882.67 4.75508
2882.93 4.40326
2883.18 4.24832
2883.70 4.11760
2884.21 4.06407
2885.24 4.01818
2886.27 3.99645
2890.38 3.95242
2898.61 3.89106
2915.08 3.78112
2948.00 3.58333
2980.92 3.40674
2997.38 3.32664
3001.50 3.30926
3005.61 3.29721
3007.67 3.29824
3009.73 3.31882
3010.75 3.35502
3011.78 3.46088
3012.30 3.60229
3012.56 3.73589
3012.81 3.96415
3013.07 4.40052
3013.20 4.78598
3013.33 5.39224
3013.46 6.43907
3013.58 8.41240
3013.65 10.1421
3013.71 12.7486
3013.78 16.8661
3013.84 23.4209
3013.92 35.5730
3014.00 43.6956
3014.08 35.5831
3014.16 23.4331
3014.25 14.8355
3014.34 10.4509
3014.43 8.06751
3014.53 6.66880
3014.62 5.78198
3014.71 5.19998
3014.89 4.50211
3015.07 4.11582
3015.26 3.88268
3015.62 3.62588
3015.98 3.49456
3016.35 3.41855
3017.08 3.33731
3018.54 3.27162
3019.99 3.24326
3022.91 3.21376
3025.83 3.19448
3037.50 3.13517
3060.83 3.02921
3107.50 2.82817
3154.18 2.63332
3177.51 2.53657
3189.18 2.48866
3195.01 2.46694
3197.93 2.46471
3199.39 2.49396
3199.76 2.52483
3200.12 2.60206
3200.30 2.69195
3200.48 2.88263
3200.67 3.38957
3200.76 3.99556
3200.85 5.20290
3200.92 6.85442
3201.00 7.95285
3201.08 6.85486
3201.15 5.20298
3201.21 4.35249
3201.27 3.80845
3201.38 3.20834
3201.60 2.76625
3201.83 2.61500
3202.06 2.54666
3202.96 2.46341
3204.77 2.43164
3208.38 2.40979
3215.61 2.37762
3230.08 2.31605
3259.00 2.19279
3287.92 2.07062
3302.39 2.01278
3309.62 1.98709
3313.23 1.98045
3315.04 1.99722
3315.95 2.07012
3316.17 2.13392
3316.40 2.27741
3316.62 2.70130
3316.74 3.28019
3316.85 4.61426
3316.92 6.21242
3317.00 7.28039
3317.08 6.21330
3317.15 4.61498
3317.23 3.61210
3317.30 3.04821
3317.45 2.51217
3317.74 2.17268
3318.03 2.06866
3318.32 2.02394
3319.49 1.97066
3321.83 1.94897
3326.51 1.93182
3335.88 1.91112
3354.60 1.92510
3354.60 1.92472
3354.61 1.92474
3354.61 1.92476
3354.62 1.92479
3354.63 1.92486
3354.67 1.92499
3354.73 1.92526
3354.86 1.92580
3355.12 1.92690
3355.64 1.92921
3356.68 1.93429
3358.76 1.94637
3362.93 1.97979
3371.25 2.10038
3379.58 2.34863
3387.90 2.87212
3396.23 4.08486
3400.39 5.31108
3404.55 7.49361
3408.71 11.8172
3410.80 15.6946
3412.88 21.9055
3414.96 32.6009
3417.04 52.8676
3418.08 70.1803
3419.12 96.2632
3420.16 136.783
3421.20 199.871
3422.60 326.447
3424.00 417.267
3425.40 342.212
3426.80 219.677
3427.91 152.245
3429.02 109.006
3430.13 81.1598
3431.24 62.6387
3433.46 40.7214
3435.68 28.9006
3437.90 21.8376
3440.12 17.2882
3444.56 11.9589
3449.00 9.05488
3453.44 7.28375
3462.31 5.29491
3471.19 4.23732
3480.07 3.59289
3488.95 3.16706
3491.17 3.08747
3493.39 3.02737
3494.50 3.01659
3495.61 3.05304
3496.16 3.12980
3496.72 3.35188
3497.00 3.63152
3497.13 3.88053
3497.27 4.27415
3497.41 4.95495
3497.55 6.23883
3497.62 7.36095
3497.69 9.04963
3497.76 11.7086
3497.83 15.9241
3497.91 23.7899
3498.00 29.0428
3498.09 23.7887
3498.17 15.9189
3498.23 12.2506
3498.29 9.75485
3498.41 6.88640
3498.52 5.44049
3498.64 4.63277
3498.87 3.82176
3499.10 3.44551
3499.57 3.11513
3500.03 2.97406
3500.96 2.84775
3501.88 2.78487
3503.74 2.70849
3505.59 2.65273
3513.01 2.48236
3520.43 2.35176
3524.14 2.31247
3525.06 2.31812
3525.99 2.35713
3526.46 2.41845
3526.92 2.58256
3527.15 2.78264
3527.38 3.23444
3527.50 3.70258
3527.61 4.57536
3527.67 5.31231
3527.73 6.41527
3527.79 8.11380
3527.85 10.6817
3527.92 15.8103
3528.00 19.1819
3528.08 15.7436
3528.16 10.6845
3528.22 8.00710
3528.28 6.29917
3528.34 5.20344
3528.40 4.47776
3528.52 3.62515
3528.63 3.17325
3528.87 2.73359
3529.11 2.53604
3529.59 2.36656
3530.07 2.29540
3531.03 2.23247
3531.98 2.20129
3535.81 2.13487
3543.46 2.04563
3558.76 1.91191
3589.37 1.77410
3619.97 1.84784
3650.58 2.33266
3665.88 2.88965
3681.18 3.85355
3696.49 5.54954
3711.79 8.66466
3727.09 14.8177
3734.74 20.1830
3742.40 28.4152
3750.05 41.6259
3757.70 63.9582
3765.35 103.817
3773.00 176.970
3781.00 303.580
3789.00 406.229
3797.00 348.189
3805.00 233.292
3814.01 146.328
3823.02 98.3532
3832.03 70.9358
3841.04 54.1374
3850.06 43.1609
3859.07 35.5947
3877.09 26.0828
3895.11 20.5005
3913.13 16.9038
3949.18 12.6205
3985.22 10.1822
4021.26 8.57924
4039.28 7.93228
4048.30 7.62269
4057.31 7.30811
4066.32 6.97002
4070.82 6.78331
4075.33 6.58002
4077.58 6.47306
4079.83 6.36715
4082.09 6.27494
4084.34 6.23464
4086.59 6.37357
4087.72 6.63352
4088.84 7.21885
4089.97 8.58203
4090.53 9.90948
4091.10 12.1326
4091.66 16.0862
4092.22 23.7029
4092.51 30.2168
4092.79 39.9160
4093.07 54.7760
4093.35 77.4085
4093.78 130.036
4094.20 173.637
4094.63 150.677
4095.05 103.272
4095.47 70.5310
4095.89 51.0838
4096.31 39.2946
4096.73 31.7670
4097.15 26.6924
4097.57 23.1291
4098.41 18.5533
4099.26 15.8112
4100.10 14.0249
4101.78 11.8764
4103.46 10.6530
4105.14 9.87086
4106.82 9.32915
4108.50 8.93132
4111.86 8.38275
4115.22 8.01713
4118.59 7.75097
4121.95 7.54481
4128.67 7.23708
4135.40 7.00973
4138.76 6.91546
4142.12 6.83330
4145.48 6.77993
4146.32 6.78729
4147.16 6.83889
4147.58 6.91935
4148.00 7.13218
4148.21 7.38631
4148.42 7.94456
4148.53 8.50481
4148.63 9.51064
4148.74 11.5083
4148.79 13.2661
4148.84 15.7992
4148.92 21.2966
4149.00 24.9701
4149.08 21.2954
4149.16 15.7953
4149.23 12.6178
4149.30 10.7266
4149.36 9.56333
4149.43 8.81717
4149.57 7.96765
4149.70 7.52759
4149.98 7.11166
4150.25 6.92748
4150.79 6.76870
4151.34 6.69990
4152.43 6.63354
4153.51 6.59553
4157.87 6.49654
4166.58 6.34282
4184.00 6.08698
4201.43 5.87193
4210.14 5.77641
4214.49 5.73545
4216.67 5.73228
4217.76 5.78720
4218.30 5.97369
4218.58 6.39732
4218.71 7.04281
4218.78 7.69541
4218.85 8.79079
4218.92 10.6768
4219.00 11.9164
4219.08 10.6507
4219.15 8.78974
4219.24 7.47471
4219.33 6.79957
4219.50 6.21244
4219.84 5.87155
4220.53 5.72797
4221.91 5.66995
4224.67 5.63015
4230.18 5.57378
4241.22 5.47205
4263.28 5.28767
4307.40 4.97361
4307.40 4.97538
4307.41 4.97534
4307.41 4.97530
4307.43 4.97522
4307.45 4.97507
4307.49 4.97478
4307.59 4.97418
4307.77 4.97299
4308.14 4.97061
4308.88 4.96586
4310.37 4.95640
4313.33 4.93768
4319.26 4.90098
4331.11 4.83087
4342.97 4.77004
4345.93 4.76120
4348.90 4.76666
4350.38 4.78843
4351.86 4.86223
4352.60 4.96654
4352.97 5.06817
4353.34 5.24552
4353.72 5.59700
4353.90 5.91568
4354.09 6.43834
4354.27 7.38606
4354.36 8.17156
4354.46 9.32858
4354.55 11.1639
4354.64 14.1936
4354.73 19.6588
4354.83 29.6592
4354.91 44.6245
4355.00 54.6003
4355.09 44.6460
4355.17 29.6857
4355.24 22.1125
4355.30 17.1614
4355.37 13.9182
4355.43 11.7355
4355.56 9.12957
4355.69 7.72740
4355.81 6.88509
4355.94 6.34675
4356.20 5.72758
4356.45 5.39696
4356.71 5.20139
4357.22 4.98988
4358.24 4.82154
4359.26 4.75505
4361.30 4.69858
4363.34 4.67124
4367.43 4.63777
4371.51 4.61243
4379.68 4.56882
4383.76 4.55166
4385.81 4.55547
4386.83 4.59782
4387.34 4.73098
4387.59 5.02195
4387.72 5.45112
4387.85 6.54273
4387.92 7.74723
4388.00 8.54793
4388.08 7.74638
4388.15 6.54110
4388.26 5.54088
4388.37 5.10413
4388.59 4.77466
4389.03 4.60691
4389.90 4.54147
4391.65 4.51419
4395.14 4.49201
4402.13 4.45727
4416.11 4.39233
4444.07 4.27026
4499.98 4.04887
4555.89 3.84955
4583.85 3.75708
4597.83 3.71824
4601.32 3.71427
4604.82 3.72384
4606.57 3.74681
4608.31 3.81972
4609.19 3.92120
4609.62 4.01972
4610.06 4.19187
4610.50 4.53403
4610.72 4.84765
4610.93 5.36329
4611.15 6.30618
4611.26 7.09084
4611.37 8.27104
4611.48 10.1480
4611.59 13.3429
4611.70 19.2070
4611.81 30.4864
4611.90 46.7153
4612.00 57.4077
4612.10 46.5509
4612.19 30.5040
4612.25 23.3061
4612.31 18.3753
4612.43 12.5199
4612.56 9.44942
4612.68 7.71598
4612.80 6.64001
4612.92 5.94136
4613.16 5.11257
4613.40 4.66269
4613.64 4.39218
4614.12 4.09769
4614.60 3.94853
4615.08 3.86259
4616.05 3.77172
4617.97 3.69946
4619.90 3.66916
4623.76 3.63904
4627.61 3.62029
4643.03 3.56455
4673.86 3.46423
4735.52 3.26165
4797.18 3.03512
4828.01 2.89972
4843.43 2.82248
4851.14 2.78367
4854.99 2.77653
4856.92 2.82114
4857.40 2.87121
4857.88 3.00187
4858.12 3.16040
4858.36 3.51978
4858.49 3.89704
4858.61 4.60169
4858.73 6.10809
4858.79 7.51959
4858.85 9.72881
4858.92 13.9476
4859.00 16.7102
4859.08 13.8950
4859.16 9.73443
4859.24 6.76137
4859.33 5.22800
4859.42 4.39762
4859.51 3.91165
4859.69 3.40432
4859.87 3.16180
4860.22 2.94664
4860.58 2.85638
4861.29 2.78175
4862.00 2.75050
4864.85 2.70457
4870.54 2.65897
4881.93 2.57465
4887.63 2.53250
4893.32 2.49993
4896.17 2.50088
4899.02 2.55367
4900.44 2.64938
4901.15 2.74877
4901.86 2.92837
4902.57 3.29428
4902.93 3.63400
4903.29 4.20178
4903.64 5.25000
4903.82 6.13774
4904.00 7.49131
4904.18 9.68396
4904.35 13.5142
4904.53 20.8156
4904.62 26.9192
4904.71 35.4800
4904.86 55.4430
4905.00 68.6348
4905.15 55.3188
4905.29 35.5059
4905.40 25.2225
4905.51 18.5820
4905.62 14.2784
4905.73 11.4061
4905.95 8.00562
4906.17 6.18594
4906.39 5.10242
4906.61 4.41168
4907.05 3.61731
4907.49 3.19341
4907.93 2.94107
4908.81 2.66478
4909.69 2.52125
4910.56 2.43422
4912.32 2.33127
4915.84 2.21787
4919.35 2.13526
4926.38 1.97446
4933.41 1.78294
4940.44 1.53380
4943.96 1.37994
4947.47 1.20880
4950.99 1.05349
4952.74 1.02696
4954.50 1.12355
4955.38 1.27901
4956.26 1.58213
4957.14 2.16150
4958.02 3.29362
4958.46 4.24958
4958.90 5.65352
4959.33 7.78093
4959.77 11.1269
4960.21 16.6561
4960.65 26.2767
4961.09 44.0945
4961.31 58.4882
4961.53 78.2929
4961.97 136.171
4962.40 184.891
4962.84 160.489
4963.27 108.683
4963.70 72.9929
4964.12 51.5480
4964.55 38.4633
4964.97 30.0834
4965.82 20.3989
4966.67 15.2371
4967.52 12.1291
4968.37 10.0960
4970.07 7.63825
4971.77 6.23076
4973.46 5.32993
4976.86 4.28194
4980.26 3.85839
4981.96 3.93207
4983.66 4.39743
4985.36 5.77297
4986.21 7.23571
4987.06 9.81168
4987.91 14.6608
4988.33 18.7132
4988.76 24.6867
4989.18 33.8559
4989.61 48.4705
4990.03 72.6461
4990.45 113.027
4990.98 192.135
4991.50 256.312
4992.02 219.585
4992.55 147.320
4993.01 101.711
4993.48 73.2838
4993.94 55.4147
4994.41 43.7108
4995.34 29.9860
4996.27 22.5783
4997.21 18.1001
4998.14 15.1686
5000.00 11.6448
5002.09 9.46156
5004.18 8.13555
5006.27 7.25186
5008.36 6.62294
5012.53 5.78830
5016.71 5.25840
5020.89 4.89004
5025.07 4.61755
5033.42 4.23733
5041.78 3.98021
5050.13 3.79139
5058.49 3.64657
5062.67 3.59586
5064.76 3.61271
5065.28 3.64957
5065.80 3.75472
5066.06 3.88689
5066.32 4.19401
5066.45 4.52330
5066.58 5.15346
5066.71 6.56987
5066.78 7.94684
5066.84 10.2209
5066.92 14.2194
5067.00 16.9238
5067.08 14.2242
5067.16 10.2254
5067.22 7.89577
5067.29 6.50447
5067.42 5.10081
5067.56 4.47697
5067.69 4.15414
5067.96 3.84949
5068.23 3.71500
5068.77 3.59984
5069.30 3.55069
5071.45 3.47936
5075.74 3.41677
5084.32 3.32226
5101.49 3.16481
5118.66 3.02946
5127.24 2.97649
5129.39 2.97377
5131.53 2.99570
5132.61 3.03931
5133.68 3.17050
5134.22 3.34674
5134.48 3.51307
5134.75 3.79639
5135.02 4.33475
5135.15 4.80469
5135.29 5.54396
5135.42 6.79583
5135.56 9.13289
5135.62 11.1106
5135.69 14.0782
5135.76 18.6658
5135.82 25.7873
5135.91 39.6672
5136.00 48.8111
5136.09 39.5209
5136.18 25.8116
5136.25 18.5191
5136.31 13.9350
5136.38 10.9843
5136.45 9.02491
5136.59 6.71682
5136.72 5.48340
5136.86 4.75547
5136.99 4.29247
5137.27 3.76069
5137.54 3.47818
5137.81 3.31132
5138.36 3.13064
5139.44 2.98502
5140.53 2.92523
5142.71 2.86962
5144.89 2.83816
5153.60 2.75133
5162.30 2.66966
5171.01 2.58054
5179.72 2.47818
5188.43 2.35552
5197.14 2.20350
5201.49 2.11829
5203.67 2.09402
5204.76 2.15650
5205.03 2.22750
5205.30 2.40045
5205.57 2.96354
5205.71 3.82197
5205.78 4.68830
5205.85 6.15857
5205.92 8.63875
5206.00 10.3140
5206.08 8.64003
5206.15 6.15733
5206.25 4.33747
5206.34 3.42827
5206.52 2.66037
5206.70 2.36650
5206.88 2.22506
5207.61 2.03725
5209.07 1.94675
5211.99 1.86335
5214.90 1.81569
5217.82 1.84759
5219.28 1.93727
5220.73 2.13449
5222.19 2.54329
5223.65 3.40234
5224.38 4.16518
5225.11 5.33698
5225.84 7.20537
5226.57 10.3366
5227.29 15.9461
5227.66 20.4688
5228.02 26.9343
5228.39 36.5114
5228.75 51.0682
5229.12 73.8430
5229.48 109.643
5229.99 187.074
5230.50 249.821
5231.01 213.739
5231.52 142.978
5231.98 98.3277
5232.43 70.5879
5232.88 53.1265
5233.34 41.7247
5234.25 28.3537
5235.16 21.1466
5236.07 16.8066
5236.97 13.9737
5238.79 10.5853
5240.61 8.67752
5242.43 7.47802
5244.24 6.66257
5246.06 6.07681
5249.70 5.29617
5253.33 4.80303
5256.97 4.46414
5260.60 4.21689
5267.87 3.87914
5275.14 3.65737
5289.68 3.37784
5304.23 3.20229
5318.77 3.07656
5333.31 2.97873
5340.58 2.93750
5344.21 2.92156
5346.03 2.92605
5346.94 2.96794
5347.39 3.09377
5347.62 3.35350
5347.74 3.71161
5347.85 4.54652
5348.00 6.19703
5348.15 4.54728
5348.27 3.70169
5348.38 3.34300
5348.62 3.08326
5349.08 2.95534
5350.01 2.90529
5351.86 2.88228
5355.57 2.86045
5362.99 2.82511
5377.83 2.76182
5407.50 2.65144
5437.17 2.55441
5452.01 2.50944
5459.43 2.48883
5463.14 2.48346
5464.99 2.49813
5465.92 2.56183
5466.38 2.74427
5466.62 3.12128
5466.73 3.64246
5466.85 4.86950
5466.92 6.31905
5467.00 7.27597
5467.08 6.31977
5467.15 4.87007
5467.28 3.58436
5467.40 3.07244
5467.65 2.71442
5468.15 2.54527
5469.14 2.48298
5471.13 2.45944
5475.11 2.44315
5483.06 2.41929
5498.98 2.37468
5530.80 2.28992
5530.80 2.28841
5543.81 2.26020
5547.06 2.25822
5550.32 2.26830
5551.94 2.28958
5553.57 2.35555
5554.38 2.44673
5555.19 2.68975
5555.60 2.99688
5555.80 3.27671
5556.01 3.73823
5556.21 4.58184
5556.31 5.28725
5556.41 6.33680
5556.52 8.02093
5556.62 10.8535
5556.72 16.0918
5556.82 26.0271
5556.91 40.4637
5557.00 49.9823
5557.09 40.3314
5557.18 26.0732
5557.24 19.2379
5557.31 14.6394
5557.37 11.5489
5557.43 9.42538
5557.55 6.83430
5557.68 5.40133
5557.80 4.53657
5557.93 3.97808
5558.17 3.32944
5558.42 2.97993
5558.67 2.77150
5559.16 2.54622
5560.15 2.36776
5561.14 2.29896
5563.13 2.24403
5565.11 2.22072
5573.03 2.18191
5588.89 2.13604
5620.59 2.05325
5684.00 1.89156
5747.40 1.73280
5779.11 1.65642
5794.96 1.62299
5802.88 1.62145
5804.87 1.63407
5806.85 1.67695
5807.84 1.73814
5808.83 1.90416
5809.32 2.11771
5809.82 2.64525
5810.07 3.25977
5810.31 4.58360
5810.44 5.90262
5810.56 8.24961
5810.69 12.8510
5810.75 16.8025
5810.81 22.4312
5810.91 34.9759
5811.00 43.2115
5811.10 34.8517
5811.19 22.4499
5811.28 14.9125
5811.37 10.5285
5811.45 7.89305
5811.54 6.23206
5811.72 4.36754
5811.89 3.42665
5812.24 2.55228
5812.59 2.17656
5813.28 1.86719
5813.98 1.74568
5815.38 1.65061
5816.77 1.61351
5819.56 1.58211
5822.35 1.56687
5833.50 1.53416
5844.66 1.51360
5850.23 1.52118
5851.63 1.53783
5853.02 1.58812
5853.72 1.65639
5854.42 1.83444
5854.76 2.05381
5855.11 2.56407
5855.29 3.12016
5855.46 4.21205
5855.55 5.19047
5855.64 6.74546
5855.72 9.33707
5855.81 13.7369
5855.91 21.1462
5856.00 26.0280
5856.10 21.0834
5856.19 13.7611
5856.25 10.3991
5856.32 8.08670
5856.44 5.39466
5856.56 4.02066
5856.69 3.25243
5856.93 2.47051
5857.18 2.10980
5857.68 1.79705
5858.17 1.66957
5859.16 1.56773
5860.15 1.52797
5864.11 1.48141
5872.02 1.45625
5879.93 1.44149
5883.89 1.44018
5885.87 1.45858
5886.86 1.53024
5887.35 1.73709
5887.60 2.17634
5887.72 2.80953
5887.85 4.38248
5887.92 6.16520
5888.00 7.34247
5888.08 6.16869
5888.15 4.38666
5888.25 3.03364
5888.35 2.38559
5888.54 1.86169
5888.93 1.57978
5889.71 1.46965
5891.26 1.43280
5894.36 1.41815
5900.57 1.40615
5912.99 1.38890
5937.83 1.36623
5987.51 1.38667
6037.20 1.57449
6086.88 2.14119
6111.72 2.71604
6136.56 3.65774
6161.40 5.23541
6186.24 7.98344
6211.08 13.0580
6223.50 17.2140
6235.92 23.2314
6248.34 32.1951
6260.76 45.9476
6273.18 67.5863
6285.60 101.771
6303.30 178.080
6321.00 242.706
6326.92 242.928
6329.89 238.310
6331.37 235.019
6332.11 233.244
6332.48 232.528
6332.66 232.519
6332.75 232.865
6332.85 233.815
6333.00 236.134
6333.15 232.946
6333.24 231.491
6333.34 230.620
6333.52 229.575
6333.88 228.200
6334.61 225.826
6336.06 220.976
6338.97 210.434
6344.78 187.529
6356.40 143.845
6368.18 109.552
6379.96 85.1106
6403.51 55.4944
6427.07 39.5870
6450.62 30.1966
6474.18 24.1913
6497.74 20.0996
6521.29 17.1685
6533.07 16.0007
6538.96 15.4765
6541.90 15.2335
6543.38 15.1367
6544.11 15.1560
6544.48 15.3281
6544.66 15.6789
6544.76 16.1106
6544.85 16.9889
6545.00 18.9883
6545.15 16.9681
6545.32 15.6934
6545.49 15.2920
6545.82 15.0392
6546.49 14.8929
6547.82 14.7573
6550.49 14.5427
6555.82 14.1458
6566.49 13.4185
6587.83 12.1731
6630.50 10.2819
6673.17 8.90550
6694.51 8.34388
6705.18 8.08765
6710.51 7.96792
6713.18 7.92137
6714.51 7.94044
6715.18 8.07628
6715.51 8.43390
6715.68 9.05312
6715.76 9.74818
6715.85 11.0609
6715.92 12.9971
6716.00 14.2829
6716.08 12.9983
6716.15 11.0599
6716.26 9.54289
6716.36 8.83780
6716.56 8.27829
6716.97 7.97697
6717.79 7.84768
6719.43 7.77703
6722.70 7.69623
6729.24 7.55457
6742.33 7.28710
6768.50 6.79095
6794.67 6.33205
6807.76 6.11276
6814.30 6.00848
6817.57 5.97143
6819.21 6.00585
6820.03 6.18975
6820.23 6.35016
6820.43 6.69968
6820.64 7.66840
6820.74 8.88382
6820.84 11.4572
6820.92 14.7877
6821.00 17.0261
6821.08 14.7949
6821.16 11.4608
6821.25 9.06119
6821.34 7.83283
6821.53 6.79798
6821.71 6.40036
6821.90 6.21142
6822.64 5.96807
6824.12 5.86947
6827.09 5.79956
6833.02 5.69641
6844.89 5.49953
6868.61 5.09963
6916.07 4.18169
6939.80 3.56920
6951.66 3.17852
6963.53 2.69132
6975.39 2.05251
6981.32 1.65365
6987.25 1.19972
6993.19 0.751338
6996.15 0.618078
6997.63 0.622518
6999.12 0.719148
7000.60 0.972385
7001.34 1.19091
7002.08 1.49775
7002.83 1.92440
7003.57 2.51285
7004.31 3.32656
7005.05 4.45355
7005.79 6.03161
7006.53 8.26175
7007.27 11.4716
7008.02 16.1674
7008.76 23.2071
7009.50 33.9734
7010.24 50.7620
7010.98 76.9641
7012.14 143.076
7013.30 205.919
7013.88 207.348
7014.46 188.215
7015.62 133.414
7016.80 91.9647
7017.98 66.6443
7019.15 51.0181
7020.33 40.8856
7022.69 29.0069
7025.04 22.5294
7027.40 18.5533
7029.75 15.9049
7034.46 12.6434
7039.17 10.7456
7043.88 9.53379
7053.31 8.20622
7062.73 7.91314
7067.44 8.26453
7072.15 9.23151
7076.86 11.4158
7081.57 16.3967
7083.93 21.1626
7086.28 28.9627
7088.64 42.1965
7090.99 64.9418
7093.85 109.924
7096.70 148.328
7099.20 134.734
7101.70 99.2131
7101.70 99.1876
7101.71 99.1060
7101.71 99.0244
7101.72 98.8749
7101.75 98.5765
7101.79 97.9820
7101.88 96.7887
7102.06 94.4537
7102.41 89.9436
7103.56 76.8959
7104.70 66.1788
7106.99 50.4495
7109.28 40.0500
7111.57 32.9724
7113.86 27.9963
7116.15 24.4422
7117.30 23.1168
7118.44 22.2169
7119.02 22.1178
7119.59 22.7307
7119.87 23.7728
7120.16 26.1985
7120.30 28.5916
7120.45 32.6756
7120.59 40.0715
7120.73 53.8982
7120.87 74.5357
7121.00 88.2666
7121.13 74.3470
7121.27 53.5016
7121.38 41.4836
7121.50 34.1738
7121.62 29.6553
7121.73 26.7539
7121.96 23.3664
7122.19 21.5388
7122.42 20.4173
7122.66 19.6578
7123.12 18.6707
7124.04 17.5307
7124.97 16.7771
7126.81 15.6583
7128.66 14.7789
7132.36 13.4024
7136.06 12.3525
7143.45 10.8462
7147.15 10.2976
7148.99 10.0983
7149.92 10.1373
7150.38 10.5041
7150.61 11.3284
7150.73 12.4713
7150.84 15.1127
7150.92 18.2815
7151.00 20.4086
7151.08 18.2724
7151.16 15.0841
7151.24 12.9112
7151.33 11.7476
7151.50 10.7012
7151.84 10.0559
7152.52 9.72966
7153.88 9.50156
7156.61 9.20801
7162.06 8.73585
7172.96 8.01668
7183.86 7.49266
7186.59 7.39042
7189.31 7.31521
7190.68 7.30698
7192.04 7.37269
7192.72 7.49725
7193.40 7.84586
7193.74 8.27498
7194.08 9.23688
7194.25 10.2304
7194.42 12.0485
7194.51 13.5606
7194.59 15.7906
7194.68 19.1619
7194.76 24.2612
7194.88 34.6006
7195.00 41.5080
7195.12 34.6255
7195.24 24.2866
7195.32 19.1798
7195.41 15.8314
7195.49 13.5813
7195.58 12.0684
7195.75 10.2269
7195.91 9.22142
7196.25 8.22110
7196.59 7.76104
7197.26 7.35690
7197.94 7.18148
7199.28 7.01815
7200.63 6.93080
7203.33 6.81532
7206.03 6.72489
7216.81 6.43034
7238.39 5.96798
7281.54 5.27871
7324.69 4.71786
7346.27 4.44661
7357.06 4.30849
7362.45 4.24226
7365.15 4.22581
7366.50 4.27714
7367.17 4.48184
7367.51 4.99655
7367.68 5.88312
7367.76 6.87960
7367.84 8.76933
7367.92 11.5188
7368.00 13.3785
7368.08 11.5219
7368.16 8.77159
7368.28 6.32640
7368.41 5.33760
7368.66 4.64282
7369.15 4.30893
7370.15 4.17861
7372.15 4.11576
7376.14 4.04963
7384.13 3.92999
7400.09 3.67349
7416.06 3.37522
7432.03 3.01112
7448.00 2.54632
7455.99 2.26645
7463.97 1.96644
7471.96 1.72534
7475.95 1.72363
7479.94 1.97728
7481.94 2.31278
7483.93 2.91928
7485.93 4.00420
7487.93 5.97917
7489.92 9.72744
7490.92 12.8293
7491.92 17.3289
7492.92 24.0110
7493.91 34.1775
7494.91 49.9530
7495.91 74.4706
7497.46 134.955
7499.00 190.588
7500.55 171.543
7502.09 120.175
7503.24 90.6012
7504.39 70.0590
7505.53 55.9247
7506.68 45.9899
7508.98 33.4491
7511.27 26.1578
7513.57 21.5228
7515.87 18.3722
7520.46 14.4343
7525.05 12.1118
7529.64 10.6016
7531.94 10.0371
7534.23 9.57840
7535.38 9.40143
7536.53 9.30943
7537.10 9.35715
7537.68 9.62987
7537.96 10.0247
7538.25 10.9811
7538.39 12.0169
7538.54 13.9956
7538.61 15.7245
7538.68 18.3366
7538.75 22.5394
7538.82 29.2441
7538.91 41.5046
7539.00 49.7768
7539.09 41.5142
7539.18 29.2365
7539.23 23.8362
7539.29 20.0869
7539.39 15.5836
7539.50 13.2049
7539.61 11.8323
7539.83 10.4091
7540.04 9.72400
7540.47 9.09287
7540.91 8.80034
7541.77 8.50223
7542.63 8.32434
7544.36 8.06998
7546.09 7.86575
7549.55 7.52290
7553.01 7.23416
7559.92 6.76392
7566.83 6.39235
7580.66 5.83187
7594.49 5.41668
7622.15 4.80222
7635.97 4.55350
7642.89 4.45402
7644.62 4.44547
7646.34 4.47372
7647.21 4.53536
7648.07 4.72011
7648.50 4.96155
7648.94 5.55043
7649.15 6.21496
7649.37 7.59126
7649.48 8.89043
7649.58 11.0717
7649.69 14.9960
7649.80 22.3993
7649.90 33.2188
7650.00 40.4881
7650.10 33.2084
7650.20 22.3840
7650.29 15.6916
7650.39 11.8202
7650.48 9.54085
7650.58 8.12621
7650.77 6.56720
7650.96 5.78459
7651.34 5.06439
7651.72 4.75373
7652.48 4.49342
7653.24 4.38485
7654.76 4.28606
7656.28 4.23345
7662.35 4.10343
7674.51 3.88695
7686.66 3.66834
7692.74 3.56759
7694.26 3.55482
7695.78 3.57270
7696.54 3.62189
7697.29 3.77538
7697.67 3.97831
7698.05 4.47264
7698.24 5.02639
7698.43 6.15874
7698.53 7.21136
7698.62 8.94818
7698.72 11.9941
7698.81 17.4901
7698.91 25.9762
7699.00 31.6471
7699.09 26.0447
7699.19 17.5730
7699.27 12.6907
7699.35 9.73035
7699.43 7.91609
7699.51 6.75585
7699.67 5.43908
7699.83 4.76224
7700.16 4.12082
7700.48 3.83749
7701.13 3.59468
7701.77 3.49079
7703.07 3.39289
7704.36 3.33813
7709.53 3.19194
7719.87 2.91844
7730.22 2.60123
7740.56 2.21419
7750.90 1.73553
7756.07 1.46835
7761.24 1.22379
7766.42 1.15379
7769.00 1.34081
7770.30 1.56261
7771.59 1.93078
7772.88 2.52793
7774.17 3.49220
7775.47 5.06701
7776.76 7.70236
7778.05 12.2793
7779.35 20.6306
7779.99 27.3346
7780.64 36.7487
7781.28 50.0906
7781.93 68.9068
7783.22 126.178
7784.50 179.611
7785.79 162.935
7787.07 114.892
7788.04 86.6472
7789.00 67.0066
7789.97 53.4916
7790.93 43.9914
7792.87 31.9929
7794.80 25.0051
7796.73 20.5570
7798.66 17.5269
7802.53 13.7264
7806.39 11.4714
7810.25 9.99074
7817.98 8.16903
7825.71 7.08239
7833.44 6.34767
7848.89 5.38107
7864.35 4.75252
7872.07 4.54111
7879.80 4.45263
7887.53 4.66654
7891.39 5.05114
7895.26 5.86442
7899.12 7.60653
7902.98 11.6341
7904.92 15.6068
7906.85 22.3353
7908.78 34.2706
7910.71 55.9063
7912.86 96.2954
7915.00 131.466
7917.15 116.046
7919.29 80.5711
7920.92 60.2202
7922.56 46.3883
7924.19 37.0387
7925.83 30.5630
7929.09 22.5083
7932.36 17.8985
7935.63 15.0002
7938.90 13.0451
7945.43 10.6152
7951.96 9.18451
7958.50 8.24769
7971.57 7.09214
7984.64 6.39620
7997.71 5.91924
8010.77 5.56276
8017.31 5.41636
8020.58 5.35990
8022.21 5.37299
8023.03 5.50612
8023.44 5.88876
8023.64 6.62261
8023.74 7.54726
8023.84 9.50714
8023.92 12.0590
8024.00 13.7376
8024.08 12.0580
8024.16 9.50348
8024.24 7.83144
8024.32 6.91478
8024.48 6.07417
8024.81 5.56535
8025.46 5.34125
8026.76 5.24644
8029.36 5.17732
8034.57 5.07812
8044.98 4.90340
8065.81 4.59539
8107.46 4.04153
8128.29 3.75479
8149.11 3.43289
8159.53 3.24975
8169.94 3.04663
8175.15 2.93813
8180.35 2.83216
8182.96 2.79078
8185.56 2.78938
8186.86 2.84395
8188.16 3.04772
8188.81 3.33712
8189.14 3.61441
8189.47 4.08612
8189.79 4.98140
8189.95 5.75741
8190.12 6.95783
8190.28 8.97088
8190.44 12.6118
8190.52 15.6527
8190.60 20.0518
8190.69 26.6302
8190.77 36.5806
8190.88 56.9690
8191.00 70.7132
8191.12 57.0346
8191.23 36.6434
8191.34 24.0253
8191.45 16.7805
8191.56 12.4917
8191.67 9.81824
8191.89 6.85880
8192.11 5.36633
8192.34 4.51304
8192.56 3.98500
8193.00 3.38807
8193.88 2.88434
8194.76 2.67205
8196.52 2.47480
8198.28 2.36557
8201.80 2.20858
8205.33 2.07073
8212.37 1.80145
8219.42 1.55638
8226.46 1.47292
8229.99 1.63971
8233.51 2.18995
8235.27 2.75486
8237.03 3.67377
8238.79 5.18659
8240.56 7.73674
8242.32 12.2088
8244.08 20.4573
8244.96 27.1432
8245.84 36.6150
8246.72 50.1863
8247.60 69.5011
8249.30 126.827
8251.00 180.182
8252.70 163.240
8254.40 115.047
8255.69 86.4996
8256.99 66.7617
8258.28 53.2462
8259.57 43.7882
8262.16 31.8835
8264.74 24.9769
8267.33 20.5923
8269.91 17.6116
8275.08 13.8820
8280.25 11.6769
8285.42 10.2347
8295.76 8.47161
8306.10 7.43245
8316.44 6.74052
8337.12 5.85197
8357.81 5.27122
8378.49 4.82432
8399.17 4.43399
8409.51 4.24669
8414.68 4.15477
8417.26 4.11297
8418.56 4.10609
8419.20 4.14445
8419.53 4.25917
8419.69 4.46061
8419.85 5.10673
8420.00 6.15414
8420.15 5.10538
8420.28 4.53029
8420.41 4.30540
8420.67 4.14993
8421.18 4.07118
8422.22 4.02847
8424.28 3.98471
8428.41 3.91077
8436.66 3.77533
8444.91 3.67125
8453.17 3.65663
8461.42 3.91184
8465.55 4.30240
8469.67 5.10655
8473.80 6.80957
8475.86 8.33922
8477.93 10.7101
8479.99 14.5217
8482.05 20.9026
8484.12 32.0400
8486.18 51.8391
8488.59 90.6787
8491.00 125.437
8493.41 111.886
8495.82 78.3359
8498.19 54.4060
8500.57 39.8472
8502.94 30.8790
8505.32 25.0751
8507.69 21.1236
8510.06 18.3114
8514.81 14.6503
8519.56 12.4205
8524.31 10.9436
8533.80 9.13441
8543.30 8.08071
8552.79 7.39707
8557.54 7.14181
8562.29 6.93684
8564.66 6.86223
8567.04 6.83915
8568.23 6.88903
8569.41 7.09779
8570.01 7.39991
8570.60 8.18297
8570.90 9.11837
8571.04 9.92476
8571.19 11.1779
8571.34 13.2794
8571.49 17.0739
8571.56 20.1927
8571.64 24.7424
8571.71 31.5308
8571.79 41.7510
8571.89 62.9531
8572.00 77.0476
8572.11 63.0188
8572.21 41.8284
8572.32 28.3181
8572.43 20.7021
8572.54 16.3065
8572.64 13.6369
8572.86 10.7011
8573.07 9.25047
8573.28 8.42784
8573.50 7.92157
8573.92 7.35192
8574.78 6.87322
8575.63 6.67260
8577.34 6.48884
8579.04 6.39129
8582.45 6.26374
8585.87 6.16626
8592.69 6.00533
8599.52 5.86979
8606.35 5.75180
8613.17 5.64853
8620.00 5.56569
8623.41 5.56756
8624.27 5.60198
8625.12 5.71083
8625.55 5.85713
8625.97 6.22176
8626.19 6.64599
8626.40 7.54901
8626.51 8.43573
8626.61 9.96548
8626.72 12.8974
8626.77 15.3172
8626.82 18.7565
8626.91 26.7405
8627.00 32.0952
8627.09 26.7779
8627.18 18.8018
8627.26 13.7507
8627.35 10.8684
8627.44 9.19889
8627.52 8.17486
8627.70 7.05876
8627.87 6.50639
8628.22 5.99923
8628.56 5.78154
8629.26 5.59993
8629.95 5.52466
8632.73 5.42277
8638.28 5.34377
8649.38 5.23019
8671.59 5.04570
8716.01 4.76517
8760.43 4.54998
8782.64 4.45671
8793.74 4.41286
8799.29 4.39283
8802.07 4.38823
8803.46 4.40445
8804.15 4.46852
8804.50 4.63097
8804.67 4.91454
8804.84 5.86057
8805.00 7.35500
8805.16 5.86358
8805.28 5.06623
8805.41 4.74676
8805.66 4.52407
8806.17 4.41711
8807.18 4.37597
8809.21 4.35705
8813.26 4.33868
8821.37 4.30767
8837.58 4.24823
8870.00 4.13198
8902.42 4.01404
8918.63 3.95280
8926.73 3.92422
8930.79 3.92270
8932.81 3.97002
8933.83 4.15217
8934.08 4.31198
8934.33 4.67364
8934.59 5.76702
8934.71 7.31911
8934.78 8.77796
8934.84 11.1117
8934.92 15.4631
8935.00 18.3555
8935.08 15.4770
8935.16 11.1285
8935.23 8.62337
8935.30 7.10502
8935.44 5.59124
8935.72 4.57451
8936.00 4.24881
8936.27 4.10718
8937.39 3.94077
8939.62 3.88310
8944.07 3.85036
8952.98 3.80686
8961.89 3.77103
8966.35 3.78529
8967.46 3.81710
8968.58 3.91258
8969.13 4.04010
8969.69 4.36345
8969.97 4.74773
8970.25 5.59556
8970.39 6.45759
8970.53 8.03245
8970.66 11.2506
8970.73 14.1569
8970.80 18.4902
8970.90 27.4022
8971.00 33.2948
8971.10 27.4193
8971.20 18.5110
8971.30 12.7367
8971.40 9.54541
8971.50 7.71872
8971.60 6.60764
8971.80 5.40226
8972.00 4.81177
8972.40 4.27538
8972.80 4.04827
8973.60 3.86154
8974.40 3.78653
8977.61 3.69357
8984.01 3.63211
8990.42 3.59090
8993.63 3.60766
8994.43 3.64416
8995.23 3.75242
8995.63 3.89511
8996.03 4.24747
8996.23 4.65510
8996.43 5.51718
8996.53 6.35317
8996.63 7.79886
8996.73 10.5136
8996.83 15.9212
8996.92 23.4127
8997.00 28.3682
8997.08 23.4538
8997.17 15.9641
8997.22 12.6415
8997.28 10.3005
8997.38 7.55575
8997.49 6.14485
8997.60 5.34726
8997.82 4.53943
8998.03 4.16446
8998.46 3.83574
8998.89 3.69958
8999.76 3.58655
9000.62 3.53813
9004.07 3.46011
9010.98 3.36322
9017.88 3.25352
9024.78 3.11176
9028.23 3.02277
9031.68 2.91744
9035.14 2.79237
9038.59 2.64809
9042.04 2.50746
9043.77 2.47269
9045.49 2.52996
9047.22 2.86002
9048.08 3.28487
9048.94 4.10884
9049.81 5.77686
9050.24 7.23242
9050.67 9.43230
9051.10 12.8806
9051.53 18.4539
9051.96 27.7814
9052.39 43.5665
9052.95 76.9782
9053.50 107.124
9054.05 95.9497
9054.61 67.3567
9055.11 48.1039
9055.61 35.8871
9056.11 28.0770
9056.61 22.9046
9057.62 16.7288
9058.62 13.3203
9059.62 11.2235
9060.63 9.82812
9062.63 8.11715
9064.64 7.12500
9066.64 6.48465
9068.65 6.03974
9070.66 5.71358
9074.67 5.26814
9078.68 4.97791
9082.69 4.77302
9086.70 4.61978
9094.73 4.40330
9102.75 4.25448
9118.80 4.05383
9118.80 4.05295
9118.81 4.05287
9118.82 4.05279
9118.83 4.05265
9118.86 4.05236
9118.92 4.05179
9119.03 4.05064
9119.26 4.04835
9119.72 4.04382
9120.63 4.03487
9122.46 4.01748
9126.12 3.98447
9133.43 3.92431
9148.06 3.81997
9177.32 3.64169
9206.58 3.46925
9235.84 3.27320
9265.10 3.01538
9279.73 2.84179
9294.36 2.61652
9301.67 2.47595
9308.99 2.31091
9316.30 2.11791
9323.62 1.90197
9330.93 1.71123
9334.59 1.68903
9338.25 1.83641
9341.90 2.45969
9343.73 3.20811
9345.56 4.60459
9347.39 7.32730
9348.30 9.62757
9349.22 13.0234
9350.13 18.1785
9351.05 26.2115
9351.96 39.0492
9352.87 59.6612
9354.19 107.434
9355.50 151.143
9356.81 135.891
9358.13 95.2534
9359.10 72.0283
9360.06 55.8509
9361.03 44.6934
9362.00 36.8443
9363.93 26.9140
9365.87 21.1327
9367.80 17.4579
9369.74 14.9631
9373.61 11.8493
9377.48 10.0183
9381.35 8.82925
9385.22 8.00076
9389.09 7.39336
9396.83 6.56548
9404.57 6.02927
9412.31 5.65388
9420.06 5.37603
9435.54 4.99061
9451.02 4.73362
9466.50 4.54781
9481.98 4.40548
9512.95 4.19736
9543.91 4.04742
9574.88 3.92987
9590.36 3.87922
9598.10 3.85653
9601.97 3.84999
9603.90 3.86310
9604.87 3.92287
9605.36 4.09461
9605.60 4.44861
9605.72 4.93594
9605.84 6.08172
9606.00 8.33612
9606.16 6.08678
9606.30 4.84422
9606.44 4.37070
9606.71 4.04957
9607.26 3.90024
9608.36 3.84544
9610.55 3.82369
9614.94 3.80689
9623.73 3.78125
9641.30 3.73407
9676.43 3.64649
9711.57 3.56535
9729.13 3.53513
9737.92 3.55953
9740.11 3.59981
9742.31 3.71837
9743.41 3.87801
9744.51 4.29320
9745.05 4.80334
9745.60 5.99372
9745.88 7.28650
9746.15 9.83012
9746.29 12.1110
9746.43 15.7387
9746.56 21.7914
9746.70 32.1107
9746.85 49.2848
9747.00 60.7747
9747.15 49.3101
9747.30 32.1331
9747.44 21.4824
9747.59 15.3371
9747.73 11.7323
9747.87 9.51353
9748.16 7.05570
9748.45 5.83020
9749.02 4.70555
9749.60 4.22613
9750.75 3.83380
9751.90 3.67994
9754.20 3.55884
9756.49 3.51050
9765.69 3.44406
9784.07 3.38321
9802.46 3.32683
9811.65 3.29740
9816.25 3.28477
9818.55 3.28892
9819.70 3.32734
9820.27 3.45148
9820.56 3.73749
9820.70 4.18805
9820.85 5.46286
9821.00 7.66937
9821.15 5.46976
9821.26 4.38958
9821.37 3.91035
9821.59 3.54538
9822.02 3.35849
9822.88 3.28608
9824.61 3.25814
9828.07 3.23875
9834.99 3.20885
9848.82 3.14406
9862.65 3.06463
9876.48 2.96122
9883.40 2.89571
9890.31 2.81694
9897.23 2.72054
9904.15 2.60185
9911.06 2.46319
9914.52 2.39872
9917.98 2.36934
9921.44 2.47178
9923.16 2.66483
9924.89 3.09685
9926.62 4.08069
9927.49 5.01335
9928.35 6.52321
9929.22 9.08417
9930.08 13.6633
9930.95 22.3877
9931.38 29.5525
9931.81 39.6058
9932.66 69.2308
9933.50 95.5111
9934.35 84.9669
9935.19 59.2983
9935.70 47.1669
9936.21 38.1532
9937.22 26.6223
9938.23 20.0834
9939.24 16.0875
9940.26 13.4682
9941.27 11.6567
9943.29 9.36029
9945.32 7.99610
9947.34 7.10795
9951.39 6.03737
9955.45 5.42405
9959.50 5.03026
9963.55 4.75695
9967.60 4.55651
9975.70 4.28192
9983.80 4.10196
9991.90 3.97401
10000.0 3.87763
10018.5 3.72485
10036.9 3.62253
10055.4 3.54845
10064.6 3.52611
10069.2 3.54896
10070.4 3.58313
10071.5 3.68048
10072.1 3.81039
10072.7 4.13326
10072.9 4.52367
10073.2 5.40156
10073.4 6.35366
10073.5 8.01370
10073.7 11.4418
10073.7 14.5554
10073.8 20.0950
10073.9 29.5857
10074.0 36.7756
10074.1 29.6293
10074.2 20.1478
10074.3 15.7716
10074.3 12.6610
10074.4 9.20347
10074.5 7.19794
10074.7 6.14035
10074.9 4.98893
10075.1 4.44619
10075.6 3.97090
10076.0 3.77489
10077.0 3.61764
10077.9 3.55613
10081.5 3.48494
10088.9 3.44854
10103.6 3.40754
10133.0 3.34287
10162.3 3.29011
10177.0 3.27801
10184.4 3.31940
10186.2 3.37014
10188.0 3.51129
10189.0 3.69766
10189.9 4.17375
10190.3 4.74819
10190.8 6.05655
10191.0 7.43418
10191.3 10.0589
10191.4 12.4475
10191.5 15.7951
10191.6 20.9888
10191.7 29.3668
10191.9 45.4823
10192.0 55.5626
10192.1 45.5058
10192.3 29.3969
10192.4 20.4422
10192.5 14.7605
10192.7 11.3488
10192.8 9.33710
10193.0 6.93903
10193.3 5.70348
10193.8 4.54574
10194.3 4.04215
10195.3 3.62339
10196.3 3.46054
10198.3 3.33262
10200.3 3.28331
10208.3 3.22338
10224.4 3.18500
10256.5 3.13029
10288.6 3.07791
10304.7 3.05565
10312.7 3.06643
10314.7 3.08920
10316.7 3.15863
10317.8 3.25542
10318.8 3.51017
10319.3 3.82854
10319.8 4.58668
10320.0 5.42673
10320.3 7.13230
10320.4 8.78911
10320.5 11.2988
10320.6 16.0580
10320.8 24.2099
10320.9 37.3769
10321.0 45.5677
10321.1 37.5113
10321.2 24.3810
10321.3 17.8001
10321.4 13.2881
10321.5 10.4455
10321.6 8.74539
10321.8 6.60406
10322.0 5.45723
10322.4 4.32919
10322.8 3.84165
10323.6 3.42473
10324.3 3.25804
10325.9 3.12624
10327.4 3.07483
10333.5 3.01148
10345.8 2.96860
10358.1 2.93160
10370.4 2.88734
10382.7 2.82606
10388.8 2.78280
10395.0 2.72370
10401.1 2.63493
10404.2 2.57057
10407.3 2.48290
10410.3 2.35720
10411.9 2.27280
10413.4 2.17190
10415.0 2.06281
10415.7 2.02382
10416.5 2.03462
10417.3 2.20545
10417.6 2.45539
10418.0 2.95154
10418.4 4.03118
10418.6 4.98027
10418.8 6.44830
10419.0 8.80016
10419.2 12.7236
10419.4 19.5350
10419.6 31.5586
10419.8 56.0122
10420.0 76.8804
10420.1 76.2171
10420.2 68.5156
10420.5 48.5325
10420.7 33.4051
10420.9 24.6345
10421.1 19.1897
10421.3 15.6437
10421.6 13.1267
10421.8 11.4192
10422.2 9.18467
10422.7 7.79325
10423.1 6.89444
10424.0 5.79341
10424.9 5.14967
10425.8 4.73617
10427.6 4.24311
10429.3 3.95870
10431.1 3.77623
10434.6 3.55521
10438.2 3.42719
10441.7 3.34884
10445.3 3.32851
10447.1 3.45322
10447.5 3.58868
10447.9 3.92405
10448.2 4.31327
10448.4 5.14698
10448.5 5.96312
10448.6 7.38910
10448.7 10.1078
10448.8 15.6155
10448.9 23.0781
10449.0 28.0732
10449.1 23.1136
10449.2 15.6583
10449.3 10.1432
10449.4 7.59444
10449.5 6.07953
10449.6 5.27838
10449.8 4.39213
10450.0 3.96977
10450.4 3.59552
10450.9 3.44102
10452.5 3.25515
10455.8 3.17790
10462.5 3.11983
10475.8 3.05413
10489.1 3.00963
10502.4 2.97482
10528.9 2.91928
10555.5 2.87276
10608.7 2.78956
10635.3 2.74929
10648.6 2.72925
10655.2 2.72016
10658.5 2.71953
10660.2 2.73328
10661.0 2.78467
10661.4 2.92625
10661.6 3.20463
10661.8 4.33565
10662.0 5.97593
10662.2 4.34072
10662.3 3.41886
10662.4 3.09048
10662.7 2.86497
10663.2 2.75808
10664.3 2.71977
10666.4 2.70544
10670.6 2.69581
10679.0 2.68187
10687.4 2.66989
10691.6 2.67028
10693.7 2.69433
10694.8 2.78553
10695.3 3.05489
10695.6 3.62596
10695.7 4.45004
10695.8 6.57718
10695.9 8.89396
10696.0 10.4915
10696.1 8.90588
10696.2 6.59180
10696.3 4.28310
10696.5 3.48888
10696.8 2.97353
10697.4 2.75469
10698.6 2.67857
10701.1 2.65282
10706.0 2.63851
10715.8 2.61976
10735.5 2.58333
10755.2 2.54462
10765.0 2.52567
10769.9 2.52322
10772.4 2.55003
10773.6 2.66062
10774.2 2.99594
10774.5 3.79358
10774.7 5.02320
10774.8 6.41309
10774.8 8.50012
10774.9 12.0981
10775.0 14.4999
10775.1 12.1161
10775.2 8.52244
10775.3 6.00626
10775.3 4.79944
10775.5 3.62424
10775.8 2.92421
10776.5 2.63112
10777.9 2.53213
10780.6 2.49757
10786.0 2.47649
10796.8 2.44596
10818.5 2.37974
10840.2 2.29668
10851.0 2.24549
10856.4 2.21760
10859.1 2.20696
10860.5 2.21636
10861.2 2.26666
10861.5 2.39911
10861.7 2.63222
10861.8 3.38968
10862.0 4.60450
10862.2 3.39085
10862.3 2.70732
10862.4 2.46359
10862.7 2.29215
10863.2 2.21229
10864.3 2.17918
10866.5 2.15712
10870.7 2.12485
10879.3 2.05574
10887.9 1.97378
10896.5 1.87779
10905.1 1.77875
10909.4 1.74742
10913.7 1.76924
10918.0 1.95881
10920.1 2.22219
10922.2 2.75444
10924.4 3.89660
10925.5 4.93584
10926.5 6.57918
10927.6 9.32729
10928.7 14.0838
10929.8 22.8590
10930.8 39.5784
10931.9 68.7898
10933.0 94.1132
10934.1 82.9153
10935.2 57.2587
10936.3 39.1035
10937.3 28.1753
10938.4 21.5063
10939.5 17.2328
10940.6 14.3675
10941.7 12.4161
10942.2 11.7398
10942.7 11.3756
10943.0 11.4595
10943.3 12.0544
10943.4 12.8668
10943.6 14.3750
10943.7 17.5456
10943.8 20.6610
10943.8 24.6447
10943.9 34.1160
10944.0 39.5859
10944.1 32.9848
10944.2 24.3724
10944.3 19.2069
10944.4 16.0091
10944.5 12.6794
10944.7 11.1165
10944.8 10.2907
10945.1 9.33338
10945.5 8.81529
10946.1 8.16537
10946.7 7.72473
10948.0 7.06731
10949.2 6.56934
10951.7 5.83577
10954.2 5.32034
10959.2 4.64067
10964.2 4.21607
10969.2 3.92694
10974.3 3.71774
10984.3 3.43518
10994.3 3.25239
11004.3 3.12345
11024.4 2.95069
11044.4 2.83685
11064.4 2.75326
11104.5 2.63203
11144.6 2.54147
11184.7 2.46600
11224.8 2.39911
11244.8 2.36856
11254.8 2.35664
11259.8 2.36184
11262.3 2.40574
11263.6 2.56777
11264.2 3.05879
11264.5 4.15883
11264.7 5.94067
11264.8 7.81165
11264.8 10.5357
11264.9 15.7725
11265.0 18.7624
11265.1 15.1868
11265.2 10.5753
11265.3 6.55974
11265.4 4.76383
11265.6 3.43098
11266.1 2.72631
11267.0 2.45441
11268.9 2.36638
11272.6 2.33745
11280.0 2.32338
11287.4 2.32684
11291.1 2.37280
11292.9 2.53753
11293.4 2.68634
11293.9 3.03016
11294.1 3.40731
11294.3 4.16832
11294.5 6.02157
11294.7 8.15342
11294.8 12.0331
11294.9 17.8387
11295.0 21.5372
11295.1 17.6425
11295.2 11.7866
11295.4 7.07785
11295.5 5.07384
11295.8 3.51318
11296.1 2.94675
11296.4 2.69928
11297.7 2.40078
11300.1 2.31035
11305.0 2.28186
11314.7 2.26443
11334.2 2.24289
11344.0 2.23993
11353.8 2.25831
11358.6 2.29620
11361.1 2.33690
11363.5 2.41191
11365.9 2.56950
11367.2 2.71989
11368.4 2.97842
11369.6 3.47596
11370.2 3.91569
11370.8 4.61590
11371.4 5.82181
11372.0 8.12994
11372.4 10.1728
11372.7 13.2103
11373.0 18.0107
11373.3 25.6552
11373.6 40.0335
11374.0 49.3497
11374.4 39.7834
11374.8 25.8474
11375.0 19.4587
11375.2 15.1892
11375.7 9.99943
11376.2 7.30161
11376.6 5.79021
11377.1 4.83475
11377.6 4.20928
11378.5 3.47635
11379.4 3.07250
11380.4 2.83138
11382.2 2.56518
11384.1 2.42938
11386.0 2.35018
11389.7 2.26471
11397.2 2.19259
11404.6 2.15879
11419.6 2.11937
11434.5 2.09052
11494.3 1.99142
11554.1 1.89190
11584.0 1.83958
11598.9 1.81290
11606.4 1.80061
11610.1 1.79919
11612.0 1.81553
11612.9 1.87816
11613.4 2.05608
11613.6 2.40941
11613.7 2.91407
11613.8 4.01431
11614.0 6.22817
11614.2 4.00555
11614.3 2.60296
11614.5 2.18110
11614.8 1.93178
11615.5 1.82774
11616.9 1.79173
11619.6 1.77711
11625.1 1.76444
11636.0 1.74399
11646.9 1.73091
11652.3 1.75500
11655.1 1.87981
11655.7 2.00112
11656.4 2.30866
11656.8 2.67536
11657.1 3.49614
11657.3 4.34309
11657.4 5.91911
11657.6 9.24107
11657.7 12.5439
11657.8 17.5177
11657.9 27.2111
11658.0 33.3893
11658.1 27.2553
11658.2 17.5734
11658.3 12.5965
11658.4 9.58369
11658.6 6.22532
11658.7 4.58099
11658.9 3.67914
11659.2 2.77147
11659.5 2.37513
11660.2 2.03174
11660.8 1.89358
11663.4 1.74124
11668.6 1.68915
11679.0 1.65639
11689.4 1.63824
11694.6 1.65709
11697.2 1.76938
11697.9 1.88167
11698.5 2.17311
11698.9 2.53803
11699.2 3.35880
11699.3 4.23147
11699.5 5.91444
11699.7 9.67313
11699.7 13.3628
11699.8 19.4853
11699.9 30.7496
11700.0 37.3650
11700.1 30.8020
11700.2 19.5526
11700.3 14.6734
11700.3 10.9074
11700.5 6.80777
11700.6 4.86004
11700.7 3.81475
11701.0 2.80339
11701.3 2.36304
11701.8 1.97919
11702.4 1.82451
11703.5 1.70192
11704.6 1.65405
11709.0 1.59660
11709.0 1.59742
11720.3 1.55439
11731.6 1.52127
11754.1 1.45192
11776.7 1.37147
11799.3 1.27204
11821.8 1.13799
11833.1 1.04784
11844.4 0.931033
11850.1 0.857739
11855.7 0.770996
11861.3 0.667355
11867.0 0.545434
11872.6 0.418844
11875.4 0.377487
11878.3 0.401479
11879.7 0.473909
11881.1 0.632270
11882.5 0.954282
11883.2 1.22531
11883.9 1.60874
11884.6 2.17495
11885.3 3.00372
11886.0 4.28584
11886.7 6.27953
11887.4 9.60991
11888.1 15.2968
11888.8 25.8511
11889.5 45.4434
11890.3 80.8399
11891.0 111.239
11891.7 97.8156
11892.5 67.2686
11893.2 45.1928
11893.9 32.1315
11894.7 24.1482
11895.4 19.0133
11896.1 15.4959
11896.9 13.0433
11898.3 9.86773
11899.8 7.93748
11901.3 6.67852
11904.2 5.14811
11907.1 4.27126
11910.1 3.70966
11913.0 3.32149
11915.9 3.03877
11921.8 2.65242
11927.6 2.40165
11939.3 2.09201
11951.0 1.90480
11962.7 1.77652
11986.2 1.60766
12009.6 1.50234
12033.0 1.44237
12056.4 1.43625
12068.1 1.46404
12074.0 1.49056
12076.9 1.51288
12078.4 1.54466
12079.1 1.62109
12079.5 1.80802
12079.7 2.13023
12079.8 3.31322
12080.0 5.10623
12080.2 3.32306
12080.3 2.14071
12080.5 1.80943
12080.9 1.63161
12081.7 1.56685
12083.2 1.55630
12086.2 1.57598
12092.2 1.63868
12104.3 1.83325
12116.4 2.16536
12128.5 2.74075
12140.6 3.78337
12152.7 5.80905
12158.7 7.55499
12164.8 10.1962
12170.8 14.3561
12173.8 17.3403
12175.3 19.1781
12176.1 20.3114
12176.5 21.1894
12176.7 22.1099
12176.8 22.9738
12176.8 24.6010
12177.0 28.2754
12177.2 25.0479
12177.3 23.4397
12177.4 22.8735
12177.7 22.7488
12178.2 23.2981
12179.2 24.9196
12181.2 28.7749
12185.2 38.8305
12200.0 88.2404
12203.4 86.5693
12204.2 84.9726
12205.1 83.1697
12205.5 82.3597
12205.9 82.0102
12206.2 82.3399
12206.4 83.6327
12206.5 85.1723
12206.6 87.6386
12206.7 92.5800
12206.8 101.661
12206.9 115.255
12207.0 125.186
12207.1 114.637
12207.2 100.394
12207.3 89.9306
12207.5 84.1621
12207.6 80.8326
12207.7 78.7062
12207.9 76.0829
12208.2 74.4498
12208.6 71.9876
12209.1 70.0079
12210.1 66.3795
12211.0 62.9444
12214.8 50.5886
12222.6 32.7790
12230.3 22.5790
12238.1 16.5753
12241.9 14.5155
12243.9 13.7432
12244.8 13.6978
12245.1 13.8950
12245.3 14.4276
12245.6 16.0231
12245.7 18.0363
12245.8 22.6776
12245.9 28.2644
12246.0 32.4698
12246.1 28.2044
12246.2 22.5511
12246.3 18.3250
12246.4 16.1014
12246.6 14.1504
12246.9 13.3510
12247.1 12.9282
12248.0 12.1871
12249.7 11.4625
12251.5 10.8936
12253.2 10.3853
12260.2 8.72395
12267.2 7.46812
12274.2 6.47256
12281.2 5.63891
12288.2 4.89128
12291.7 4.53547
12295.2 4.24909
12297.0 4.25301
12297.8 4.38912
12298.7 4.74553
12299.6 5.62869
12300.0 6.49528
12300.5 7.89027
12300.9 10.3530
12301.3 14.8912
12301.8 23.8633
12302.0 31.4852
12302.2 41.8499
12302.6 71.4041
12303.0 96.1676
12303.4 84.8048
12303.8 58.9838
12304.1 46.5154
12304.3 37.4238
12304.8 26.2509
12305.3 20.0017
12305.8 16.2092
12306.3 13.7361
12306.8 12.0268
12307.7 9.85837
12308.7 8.56202
12309.7 7.70762
12311.7 6.65271
12313.6 6.02098
12315.6 5.59275
12319.5 5.03050
12323.4 4.65848
12327.3 4.38238
12335.2 3.97680
12343.0 3.67642
12350.9 3.43648
12366.6 3.06368
12397.9 2.54984
12429.3 2.19469
12492.1 1.70345
12523.5 1.51654
12539.2 1.43322
12547.0 1.39676
12550.9 1.39132
12552.9 1.43352
12553.9 1.59979
12554.3 2.06451
12554.6 3.03758
12554.7 4.30759
12554.8 7.34670
12554.9 11.0910
12555.0 13.3643
12555.1 11.1093
12555.2 7.36959
12555.2 5.24953
12555.3 3.90779
12555.5 2.64080
12555.8 1.84928
12556.4 1.50582
12557.7 1.38539
12560.3 1.33980
12565.4 1.30657
12575.6 1.25748
12596.0 1.16976
12636.8 1.02356
12677.7 0.933441
12718.5 0.955992
12759.4 1.24930
12779.8 1.62381
12800.2 2.31463
12820.6 3.61485
12841.0 6.18950
12851.2 8.40633
12861.4 11.7310
12871.6 16.8475
12876.7 20.4047
12879.3 22.5198
12880.6 23.7083
12881.2 24.4269
12881.5 25.0187
12881.7 25.6498
12881.8 27.1820
12882.0 29.6615
12882.2 27.4981
12882.3 26.3992
12882.4 26.0316
12882.6 25.9199
12883.1 26.2382
12884.1 27.1995
12886.0 29.3630
12889.9 34.2827
12902.4 55.5324
12908.6 67.9912
12911.7 73.7819
12913.3 76.4834
12914.0 78.0243
12914.4 79.4145
12914.6 80.9697
12914.7 82.5542
12914.8 84.9725
12914.9 88.9213
12915.0 91.6513
12915.1 89.2296
12915.2 85.5581
12915.4 82.4932
12915.5 81.3128
12915.8 80.6864
12916.4 80.9081
12917.6 81.9888
12920.0 83.7189
12927.5 82.5689
12935.1 73.4822
12950.1 50.1080
12959.9 38.3316
12969.6 29.7877
12974.5 26.4804
12977.0 25.0394
12979.4 23.7548
12981.8 22.6971
12983.1 22.3242
12984.3 22.1689
12985.5 22.4870
12986.1 23.0245
12986.7 24.0782
12987.3 26.1282
12987.9 30.3085
12988.2 34.0664
12988.5 39.6232
12988.9 48.6097
12989.2 62.2146
12989.6 91.8225
12990.0 114.005
12990.4 98.4111
12990.9 71.1103
12991.2 55.3287
12991.5 45.2885
12991.9 38.4782
12992.2 33.9868
12992.9 28.3943
12993.5 25.2500
12994.2 23.2161
12994.9 21.8279
12996.2 19.9824
12997.5 18.7717
12998.8 17.8715
13001.5 16.5278
13004.2 15.4896
13006.8 14.6127
13012.1 13.1385
13017.5 11.9224
13020.1 11.4203
13022.8 11.0481
13025.4 10.9770
13026.8 11.2059
13028.1 11.8314
13029.4 13.2938
13030.8 16.7540
13031.4 20.1767
13032.1 25.7927
13032.8 35.6510
13033.4 52.6703
13034.2 86.3845
13035.0 115.855
13035.8 102.961
13036.6 73.2253
13037.2 55.0420
13037.9 43.2066
13038.5 35.3604
13039.2 29.9937
13040.4 23.3470
13041.7 19.5836
13043.0 17.1806
13044.3 15.5470
13046.9 13.4409
13049.4 12.1279
13052.0 11.2091
13057.1 9.95617
13062.3 9.09286
13067.4 8.42935
13077.7 7.42370
13088.0 6.66060
13098.3 6.04330
13103.4 5.77484
13108.5 5.53072
13113.7 5.32805
13116.3 5.32646
13116.9 5.40279
13117.5 5.63978
13117.9 5.94593
13118.2 6.66550
13118.3 7.43757
13118.5 8.93232
13118.7 12.2783
13118.7 15.5658
13118.8 21.0229
13118.9 31.0651
13119.0 36.9616
13119.1 31.1052
13119.2 21.0689
13119.3 15.6016
13119.4 12.3013
13119.5 8.93109
13119.7 7.41546
13119.8 6.62492
13120.2 5.87250
13120.5 5.53632
13121.1 5.24285
13121.8 5.11214
13124.3 4.90107
13129.5 4.68173
13139.7 4.32818
13150.0 4.01782
13160.3 3.74051
13170.5 3.49448
13175.7 3.38610
13180.8 3.29326
13185.9 3.23146
13188.5 3.22652
13191.1 3.26139
13193.6 3.39038
13194.9 3.53604
13196.2 3.80519
13197.5 4.35650
13198.1 4.85639
13198.8 5.67064
13199.4 7.11182
13200.0 9.97973
13200.4 12.5696
13200.7 16.7156
13201.0 23.6934
13201.3 35.6898
13201.7 55.9101
13202.0 68.9427
13202.4 55.2504
13202.7 35.6303
13203.1 21.7579
13203.5 14.7002
13203.9 10.7286
13204.2 8.44581
13204.6 6.96513
13205.0 6.00196
13205.8 4.82191
13206.5 4.16486
13207.3 3.76036
13208.9 3.30331
13210.4 3.05768
13211.9 2.90457
13215.0 2.71817
13218.1 2.59993
13221.2 2.51046
13227.3 2.36869
13239.7 2.14021
13252.0 1.94035
13276.6 1.58327
13301.2 1.27041
13350.5 0.814787
13362.8 0.762764
13375.1 0.757062
13381.3 0.779429
13387.4 0.829280
13393.6 0.957779
13395.1 1.04533
13396.7 1.25085
13397.4 1.50123
13398.2 2.11765
13398.6 2.85976
13399.0 4.47820
13399.2 6.13969
13399.4 9.21755
13399.5 11.9704
13399.6 15.6640
13399.7 21.9858
13399.7 31.6038
13399.9 49.4477
13400.0 62.2714
13400.1 49.5601
13400.3 31.6249
13400.4 19.9094
13400.5 13.5592
13400.6 9.56057
13400.8 7.29982
13401.0 4.71170
13401.3 3.43049
13401.8 2.27098
13402.2 1.79162
13403.2 1.40478
13404.2 1.26951
13406.2 1.19418
13408.2 1.19899
13412.2 1.27963
13416.2 1.40370
13424.1 1.74978
13432.0 2.24258
13447.9 3.88914
13455.9 5.23123
13457.9 5.64945
13459.9 6.11586
13461.8 6.71404
13462.3 6.94980
13462.8 7.34125
13463.1 7.72384
13463.3 8.49446
13463.6 10.6054
13463.7 13.2029
13463.8 18.9295
13463.9 26.0057
13464.0 30.9145
13464.1 26.1756
13464.2 19.1778
13464.3 13.5016
13464.4 10.8073
13464.7 8.90353
13464.9 8.28027
13465.2 8.03576
13466.2 7.95467
13468.2 8.48185
13470.2 9.16452
13472.2 9.92907
13480.2 13.8099
13488.3 19.3942
13496.3 27.3631
13508.5 45.4370
13514.6 57.0009
13516.1 60.0669
13517.7 63.2190
13518.4 64.9448
13519.2 66.9686
13519.6 68.3393
13519.9 70.4396
13520.1 72.1515
13520.3 74.8858
13520.5 79.8207
13520.6 84.1249
13520.7 89.6014
13520.9 102.210
13521.0 110.474
13521.2 102.181
13521.3 89.9736
13521.4 82.7030
13521.6 78.6052
13521.9 75.0105
13522.1 73.7211
13522.4 73.2950
13522.9 73.3996
13523.5 73.9519
13524.6 75.4085
13525.7 76.9129
13530.0 81.9212
13537.9 84.4907
13541.8 82.7610
13542.8 82.1306
13543.8 81.5482
13544.3 81.3754
13544.8 81.5377
13545.0 81.9952
13545.3 83.1272
13545.4 84.4006
13545.5 86.4747
13545.7 90.2722
13545.8 98.1237
13545.9 109.346
13546.0 116.596
13546.1 109.078
13546.2 97.6296
13546.3 90.9924
13546.4 86.9201
13546.6 82.8243
13546.8 80.9448
13547.0 79.9379
13547.4 78.7675
13547.8 78.0561
13548.6 77.0827
13549.4 76.4032
13550.1 76.0748
13550.5 76.1698
13550.9 76.6047
13551.3 77.6874
13551.7 80.1436
13551.9 82.4677
13552.1 85.9015
13552.3 91.6344
13552.5 100.214
13552.7 117.589
13553.0 129.377
13553.3 117.611
13553.5 99.7419
13553.7 91.8430
13553.8 86.2242
13554.2 79.3313
13554.5 75.5104
13554.8 73.1395
13555.1 71.5128
13555.4 70.3002
13556.1 68.5478
13556.7 67.1992
13557.3 66.0775
13558.6 64.1111
13561.2 60.6464
13563.7 57.4827
13568.0 52.6036
13572.2 48.2216
13580.7 40.8074
13585.0 37.7093
13589.2 34.9805
13591.4 33.7485
13593.5 32.6370
13594.6 32.1683
13595.6 31.8847
13596.2 31.9474
13596.7 32.4739
13597.0 33.2444
13597.2 34.8952
13597.4 36.6270
13597.5 39.3620
13597.6 44.2046
13597.7 53.6934
13597.9 67.3059
13598.0 77.1185
13598.1 67.3565
13598.3 53.6669
13598.4 44.0286
13598.5 39.0344
13598.7 36.1511
13598.8 34.3721
13599.1 32.3379
13599.3 31.3199
13599.8 30.2482
13600.4 29.6687
13601.4 28.9199
13602.5 28.3572
13604.6 27.3996
13606.7 26.5455
13610.9 24.9990
13615.1 23.6213
13631.9 19.2952
13648.7 16.2733
13665.5 14.0682
13699.2 11.0989
13716.0 10.0595
13724.4 9.61712
13728.6 9.42194
13730.7 9.36778
13731.8 9.47282
13732.3 9.88974
13732.6 10.7862
13732.7 12.0475
13732.8 15.1680
13732.9 18.9551
13733.0 21.1962
13733.1 18.9876
13733.2 15.2039
13733.3 12.3762
13733.4 11.0726
13733.6 10.0030
13734.1 9.44764
13735.0 9.20107
13736.8 9.05667
13740.4 8.88203
13747.7 8.58144
13762.1 8.04905
13791.1 7.17546
13849.0 5.92230
13906.9 5.05238
13935.9 4.70542
13950.4 4.54847
13957.6 4.47468
13961.2 4.44303
13963.0 4.44368
13963.9 4.49656
13964.4 4.66008
13964.6 5.00601
13964.8 6.52936
13965.0 8.68156
13965.2 6.53975
13965.3 5.34923
13965.4 4.90998
13965.7 4.59952
13966.2 4.45607
13967.3 4.39651
13969.4 4.36094
13973.7 4.31565
13982.2 4.23418
13999.3 4.08091
14033.5 3.80288
14067.7 3.55908
14084.8 3.45038
14093.3 3.40236
14097.6 3.39125
14099.7 3.43087
14100.8 3.60134
14101.3 4.09301
14101.6 5.16478
14101.7 6.63560
14101.8 10.3679
14101.9 14.7436
14102.0 17.3998
14102.1 14.7789
14102.2 10.4124
14102.3 7.23472
14102.4 5.62353
14102.6 4.39207
14103.0 3.71396
14103.9 3.45090
14105.6 3.36047
14109.0 3.31870
14115.9 3.27645
14129.6 3.20865
14156.9 3.10347
14184.3 3.05332
14198.0 3.06982
14204.9 3.13383
14206.6 3.18945
14208.3 3.33133
14209.1 3.51101
14210.0 3.94928
14210.4 4.46806
14210.8 5.61385
14211.1 6.81578
14211.3 8.91487
14211.5 13.1460
14211.6 17.1095
14211.7 22.9406
14211.9 34.9871
14212.0 42.8141
14212.2 35.0034
14212.3 22.9623
14212.4 17.1314
14212.5 13.1671
14212.7 8.93446
14213.0 6.76341
14213.2 5.63235
14213.6 4.48737
14214.0 3.97033
14214.9 3.53380
14215.7 3.36131
14217.5 3.23201
14219.2 3.18962
14226.0 3.18221
14232.9 3.24195
14236.4 3.32746
14238.1 3.54383
14238.5 3.73136
14238.9 4.17688
14239.2 4.68812
14239.4 5.68272
14239.6 8.07011
14239.7 10.7649
14239.8 15.2401
14239.9 22.4478
14240.0 27.5638
14240.1 22.7655
14240.2 15.6361
14240.3 10.8154
14240.4 8.21517
14240.7 5.73430
14240.9 4.74121
14241.1 4.25742
14241.6 3.82417
14242.0 3.64676
14243.9 3.45812
14247.5 3.44833
14254.8 3.56714
14269.4 3.97477
14284.0 4.67061
14298.6 5.88018
14313.2 8.10954
14327.7 12.6013
14335.0 16.6218
14342.3 22.9060
14349.6 33.0840
14356.9 49.7211
14361.8 65.8355
14364.3 75.3112
14364.9 77.9326
14365.5 80.8514
14365.8 82.7078
14366.1 85.3282
14366.3 87.4146
14366.5 90.4279
14366.6 95.6267
14366.8 105.790
14366.9 119.501
14367.0 128.145
14367.1 120.448
14367.2 107.701
14367.4 99.9456
14367.5 95.8598
14367.6 93.6518
14367.7 92.4531
14368.0 91.5246
14368.2 91.4832
14368.7 92.3602
14369.2 93.6301
14370.2 96.3935
14371.1 98.9797
14375.0 104.850
14384.1 87.0610
14393.1 56.7364
14402.3 36.2185
14411.5 24.4560
14420.7 17.5135
14429.9 13.1549
14448.2 8.17290
14466.6 5.45897
14485.0 3.74809
14494.2 3.14586
14503.4 2.75271
14512.5 2.75519
14517.1 3.06430
14521.7 3.78077
14526.3 5.24906
14530.9 8.16750
14535.5 14.0485
14537.8 19.0015
14540.1 25.9959
14545.1 50.2013
14550.0 75.6720
14552.5 77.9792
14555.0 72.4036
14559.9 53.5876
14564.9 38.5579
14569.9 29.0453
14574.9 23.0090
14576.1 21.8608
14577.3 20.8497
14578.6 20.0465
14579.2 20.0532
14579.5 20.8525
14579.7 22.3895
14579.8 24.0699
14579.8 26.6040
14579.9 31.4146
14580.0 34.1925
14580.1 31.3426
14580.2 26.4247
14580.3 22.1792
14580.5 20.3926
14580.8 19.1249
14581.3 18.2605
14582.5 17.4135
14584.9 16.1558
14589.6 14.2014
14598.9 11.5379
14603.6 10.5957
14608.3 9.84102
14610.7 9.53620
14613.0 9.32444
14614.2 9.31090
14615.4 9.51780
14616.0 9.88442
14616.5 10.8287
14616.8 11.9506
14617.1 14.1804
14617.3 16.3182
14617.4 19.5581
14617.6 25.5242
14617.7 35.2819
14617.9 51.3394
14618.0 62.0841
14618.2 51.4135
14618.3 35.3505
14618.4 25.5534
14618.6 19.8418
14618.7 16.4401
14618.9 14.3081
14619.1 11.9299
14619.4 10.7474
14620.0 9.57750
14620.5 9.05250
14621.6 8.55346
14622.7 8.29738
14624.9 7.97934
14627.2 7.74718
14631.6 7.36939
14636.0 7.05065
14644.9 6.51730
14653.7 6.08254
14689.1 4.90795
14724.5 4.21332
14742.2 3.96659
14751.0 3.86303
14755.4 3.82024
14757.6 3.81729
14758.7 3.87522
14759.3 4.06885
14759.6 4.51694
14759.7 5.20482
14759.8 6.87421
14760.0 9.97532
14760.2 6.87988
14760.3 5.20650
14760.4 4.51412
14760.7 4.06673
14761.2 3.85562
14762.3 3.77288
14764.5 3.73058
14768.8 3.68529
14777.5 3.61301
14786.1 3.55987
14790.5 3.57461
14792.6 3.72070
14793.2 3.86632
14793.7 4.23208
14794.0 4.65987
14794.3 5.58845
14794.5 8.15377
14794.7 11.5417
14794.8 18.2980
14794.9 27.5670
14795.0 33.1717
14795.1 27.6746
14795.2 18.3640
14795.3 11.6623
14795.5 8.42044
14795.7 5.76225
14796.0 4.77405
14796.3 4.30997
14796.8 3.89880
14797.3 3.73257
14799.4 3.54000
14803.6 3.46708
14812.0 3.41928
14820.4 3.40634
14824.6 3.46556
14825.6 3.53308
14826.7 3.71725
14827.2 3.95689
14827.7 4.53645
14828.0 5.20068
14828.3 6.61037
14828.4 7.97914
14828.5 10.3516
14828.7 14.8265
14828.7 18.8791
14828.8 24.1667
14828.9 36.4152
14829.0 45.0215
14829.1 36.5256
14829.2 24.3033
14829.3 17.6889
14829.4 13.6261
14829.6 8.99535
14829.7 6.85235
14829.9 5.76980
14830.2 4.65581
14830.6 4.17605
14831.2 3.76496
14831.9 3.60273
14834.5 3.42418
14839.9 3.37131
14850.5 3.36382
14871.8 3.42958
14914.4 3.88654
14957.0 5.11587
14978.3 6.29772
14983.7 6.69388
14989.0 7.15448
14991.6 7.42875
14994.3 7.78385
14995.6 8.05253
14997.0 8.54219
14997.6 9.04884
14998.3 10.1122
14998.6 11.2484
14999.0 13.3680
14999.1 15.2875
14999.3 18.0924
14999.5 22.9325
14999.6 30.7770
14999.8 44.5992
15000.0 53.6343
15000.2 44.8232
15000.4 31.0915
15000.5 24.4135
15000.7 20.1353
15000.9 15.2514
15001.2 12.7456
15001.4 11.4275
15002.0 10.1178
15002.5 9.56049
15003.5 9.14615
15004.6 9.05447
15006.7 9.14492
15008.8 9.35547
15013.0 9.90054
15017.2 10.5391
15034.0 13.9339
15034.0 13.9383
15034.1 13.9532
15034.1 13.9657
15034.2 13.9906
15034.4 14.0406
15034.8 14.1441
15035.6 14.3516
15037.3 14.7798
15040.5 15.6947
15047.0 17.7740
15060.0 23.1814
15073.0 30.8630
15086.0 41.7027
15111.0 73.1117
15123.5 90.2484
15129.8 96.7651
15132.9 99.1568
15136.0 101.014
15136.9 101.595
15137.8 102.487
15138.3 103.338
15138.8 105.078
15139.0 106.799
15139.2 109.911
15139.5 116.237
15139.6 121.579
15139.7 129.530
15139.8 146.929
15140.0 157.790
15140.2 147.114
15140.3 129.785
15140.5 118.672
15140.7 112.351
15140.9 108.863
15141.0 106.795
15141.4 104.608
15141.8 103.562
15142.5 102.551
15143.2 102.060
15144.6 101.423
15146.0 100.836
15151.7 97.4978
15163.2 86.5656
15186.0 61.4001
15201.4 48.1540
15209.1 42.8992
15211.0 41.7252
15212.9 40.6440
15213.9 40.1728
15214.9 39.8497
15215.3 39.8594
15215.8 40.2638
15216.1 40.8866
15216.3 42.3217
15216.4 43.7398
15216.5 46.1752
15216.7 50.6346
15216.8 59.2023
15216.9 71.6200
15217.0 80.0240
15217.1 71.6292
15217.2 59.1261
15217.3 50.4144
15217.5 45.8049
15217.6 43.0622
15217.7 41.5598
15218.0 39.8521
15218.2 38.9984
15218.7 38.0642
15219.2 37.5382
15220.2 36.8137
15221.2 36.2360
15223.2 35.2155
15225.1 34.2736
15233.0 30.9278
15248.9 25.6409
15280.5 18.6842
15312.2 14.4603
15328.0 12.9426
15335.9 12.2956
15339.9 12.0248
15341.8 12.0078
15342.8 12.3613
15343.3 13.4227
15343.6 15.5041
15343.7 17.9844
15343.8 23.3425
15343.9 30.1949
15344.0 35.1282
15344.1 30.2769
15344.2 23.4331
15344.3 18.6613
15344.4 16.1867
15344.6 13.8336
15344.8 12.8933
15345.0 12.4303
15345.9 11.8031
15347.6 11.4984
15350.9 11.2148
15357.6 10.7660
15371.1 9.98063
15397.9 8.68873
15424.8 7.66635
15431.5 7.44445
15438.2 7.23842
15445.0 7.07369
15448.3 7.11810
15449.2 7.22659
15450.0 7.53012
15450.4 7.89764
15450.8 8.70255
15451.3 10.9136
15451.5 13.6386
15451.7 18.8900
15451.8 26.1331
15452.0 31.0280
15452.2 26.1991
15452.3 18.9654
15452.5 13.6934
15452.7 11.0355
15453.1 8.78056
15453.5 7.91486
15453.9 7.49801
15454.7 7.11865
15455.5 6.94885
15458.7 6.69820
15465.1 6.48135
15478.0 6.14831
15503.6 5.57123
15529.2 5.06848
15542.0 4.84119
15548.4 4.74255
15551.6 4.73495
15553.2 4.87403
15554.0 5.37185
15554.4 6.59781
15554.6 8.66508
15554.7 10.9634
15554.8 15.1989
15554.9 21.9306
15555.0 25.8513
15555.1 21.2854
15555.2 15.2830
15555.3 10.7374
15555.4 8.55850
15555.6 6.51263
15556.0 5.31568
15556.9 4.81493
15558.5 4.62511
15561.9 4.52357
15568.5 4.40394
15581.9 4.19521
15608.5 3.80991
15635.2 3.45338
15648.5 3.28387
15655.2 3.20202
15658.5 3.16614
15660.2 3.16495
15661.0 3.21739
15661.4 3.38162
15661.6 3.71044
15661.8 5.01584
15662.0 6.93523
15662.2 5.02587
15662.4 3.65895
15662.6 3.34279
15663.1 3.18505
15664.0 3.11690
15665.8 3.07724
15669.4 3.02838
15676.7 2.93991
15691.2 2.76852
15720.3 2.43648
15778.4 1.80092
15836.6 1.19288
15865.6 0.908024
15880.2 0.786920
15887.4 0.779854
15889.3 0.821903
15891.1 0.961559
15892.0 1.15573
15892.9 1.65837
15893.3 2.27297
15893.8 3.62570
15894.0 5.05657
15894.2 7.58527
15894.5 13.1119
15894.6 17.9574
15894.7 25.6417
15894.9 41.0302
15895.0 50.8224
15895.2 41.1583
15895.3 25.8023
15895.4 18.1083
15895.5 12.8978
15895.8 7.53134
15896.0 4.89483
15896.2 3.54798
15896.7 2.21184
15897.2 1.62408
15898.1 1.11293
15899.0 0.907135
15900.9 0.736658
15902.8 0.663981
15910.2 0.549488
15917.7 0.489569
15925.2 0.445068
15940.1 0.392843
15955.0 0.404629
15970.0 0.517562
15984.9 0.798528
15999.8 1.37214
16003.6 1.58888
16007.3 1.85323
16011.0 2.23730
16012.0 2.41223
16012.9 2.74043
16013.4 3.09214
16013.8 3.84619
16014.1 4.68614
16014.3 6.28451
16014.5 10.0208
16014.6 14.1232
16014.8 21.0813
16014.9 32.5997
16015.0 40.0519
16015.1 32.8380
16015.2 21.4005
16015.3 15.3913
16015.4 11.7709
16015.6 7.65995
16015.8 5.75255
16016.0 4.78720
16016.4 3.83228
16016.7 3.42411
16017.5 3.12288
16018.2 3.05462
16021.2 3.25034
16024.2 3.62602
16027.1 4.08013
16039.0 6.68982
16050.9 11.1942
16056.8 14.6035
16058.3 15.6482
16059.8 16.8326
16060.5 17.5490
16061.3 18.5252
16061.7 19.2981
16062.0 20.6746
16062.2 21.9929
16062.4 24.2165
16062.6 29.1214
16062.7 33.4841
16062.8 41.0520
16062.9 53.9382
16063.0 63.4048
16063.1 54.1814
16063.2 41.4958
16063.3 34.0934
16063.4 29.5212
16063.6 25.0034
16063.8 23.1019
16064.0 22.2095
16064.4 21.5683
16064.8 21.4992
16065.6 21.8838
16066.4 22.5136
16068.4 24.5051
16070.5 26.7672
16074.6 31.8936
16082.7 44.2245
16099.0 67.0757
16101.9 68.8675
16102.6 69.2421
16103.3 69.7336
16103.7 70.1749
16104.1 71.0846
16104.2 72.0153
16104.4 73.7822
16104.6 77.6828
16104.7 81.4843
16104.8 88.1134
16104.9 99.2134
16105.0 107.180
16105.1 99.4606
16105.2 88.4191
16105.3 81.2483
16105.4 77.3099
16105.6 73.3509
16105.8 71.6895
16106.0 70.8779
16106.5 70.0644
16106.9 69.6611
16107.7 69.1760
16108.5 68.7864
16111.8 66.8791
16118.4 61.0657
16131.6 47.2583
16143.5 37.0415
16155.5 29.7500
16167.4 24.7103
16179.4 21.2715
16191.3 19.0376
16203.2 17.9535
16209.2 18.0541
16212.2 18.4178
16215.2 19.1719
16218.2 20.6903
16219.7 21.9975
16221.2 23.9973
16222.6 27.2500
16224.1 33.0214
16224.9 37.7448
16225.6 44.5121
16226.4 54.7275
16227.1 69.6202
16228.1 94.5869
16229.0 103.900
16230.0 77.1774
16230.9 48.1622
16231.8 32.1586
16232.7 23.8074
16233.6 19.2529
16234.5 16.6359
16236.3 14.0540
16238.0 12.9846
16239.8 12.4964
16241.6 12.2718
16245.2 12.1487
16248.7 12.1998
16252.3 12.3222
16259.4 12.6829
16273.7 13.8082
16288.0 15.6227
16316.5 22.6175
16345.0 37.7881
16374.5 67.5019
16404.0 97.2853
16433.5 90.3970
16463.0 65.6803
16492.4 46.8949
16521.9 35.1379
16551.3 27.7074
16566.0 25.0137
16569.7 24.4256
16573.3 23.8836
16577.0 23.4853
16577.9 23.4926
16578.9 23.7159
16579.3 24.0747
16579.8 24.9627
16580.0 25.9174
16580.2 27.7268
16580.5 31.5788
16580.6 34.9522
16580.7 40.0535
16580.9 50.8413
16581.0 57.4861
16581.2 50.1987
16581.3 40.1166
16581.4 34.2473
16581.6 30.8499
16581.8 27.0954
16582.1 25.3528
16582.3 24.4469
16582.8 23.5034
16583.3 23.0574
16584.3 22.6024
16585.3 22.3435
16589.2 21.6998
16593.2 21.1880
16597.1 20.7154
16612.9 19.0451
16644.5 16.4280
16676.1 14.4689
16692.0 13.6673
16699.9 13.3206
16703.8 13.2294
16704.8 13.2696
16705.8 13.4459
16706.3 13.7021
16706.8 14.3307
16707.0 15.0570
16707.3 16.4760
16707.5 20.0968
16707.6 23.8633
16707.8 30.9782
16707.9 42.0195
16708.0 49.1031
16708.1 42.1295
16708.2 31.1094
16708.3 25.3096
16708.4 21.5047
16708.6 17.6876
16708.8 15.8243
16709.0 14.8878
16709.4 13.9540
16709.8 13.5398
16710.6 13.1662
16711.3 12.9978
16714.4 12.7239
16720.6 12.4352
16732.9 11.9584
16757.5 11.1249
16782.2 10.4025
16794.5 10.0766
16800.7 9.92788
16803.7 9.88308
16805.3 9.96052
16806.1 10.3011
16806.4 11.1905
16806.6 12.6835
16806.7 14.4695
16806.8 17.4333
16806.9 22.0784
16807.0 25.2108
16807.1 22.1545
16807.2 17.5251
16807.3 13.8828
16807.4 12.2815
16807.6 10.9371
16808.1 10.1768
16809.0 9.85418
16810.7 9.71309
16814.3 9.60024
16821.3 9.42798
16835.5 9.11215
16849.7 8.81734
16856.7 8.68442
16860.3 8.65209
16862.1 8.75259
16862.9 9.15921
16863.4 10.2168
16863.6 12.1213
16863.7 14.3910
16863.8 19.3370
16863.9 25.9356
16864.0 30.1538
16864.1 25.9634
16864.2 19.3695
16864.3 15.3594
16864.4 12.9863
16864.5 10.7628
16864.9 9.39884
16865.6 8.78265
16867.0 8.55351
16869.8 8.44004
16875.5 8.31892
16881.2 8.22366
16884.0 8.22378
16885.4 8.38549
16886.1 8.94631
16886.5 10.2498
16886.6 12.4061
16886.7 14.7234
16886.8 18.6613
16886.9 25.1895
16887.0 29.4149
16887.1 25.3137
16887.2 18.8155
16887.3 13.4023
16887.5 11.1635
16887.7 9.41441
16888.3 8.54609
16889.3 8.20329
16891.4 8.06243
16895.7 7.95656
16904.2 7.79853
16921.3 7.50610
16955.3 6.94971
16989.4 6.40494
17023.4 5.83921
17057.5 5.19758
17074.5 4.81702
17091.6 4.36560
17108.6 3.80513
17117.1 3.47254
17125.6 3.11366
17134.2 2.79288
17138.4 2.72392
17142.7 2.84608
17146.9 3.44878
17149.1 4.14271
17151.2 5.34865
17153.3 7.45583
17155.5 11.2098
17157.6 18.0622
17159.7 30.5894
17162.4 58.7448
17165.0 88.5693
17166.3 91.5058
17167.7 85.3031
17170.3 63.7820
17173.2 45.4348
17176.0 34.2091
17178.9 27.2655
17181.8 22.7387
17184.6 19.6251
17187.5 17.3823
17193.2 14.4072
17198.9 12.5426
17204.6 11.2764
17216.1 9.66613
17227.5 8.67836
17239.0 8.00316
17261.9 7.11594
17284.8 6.53448
17307.6 6.10427
17353.4 5.46937
17399.2 4.98403
17445.0 4.57280
17467.9 4.38413
17490.8 4.20456
17513.6 4.04367
17519.4 4.01729
17525.1 4.02307
17527.9 4.06889
17530.8 4.23083
17532.2 4.45893
17533.7 5.05296
17534.4 5.77674
17535.1 7.38324
17535.5 9.06861
17535.8 12.2247
17536.0 14.9008
17536.2 18.9201
17536.4 25.1334
17536.5 34.3035
17536.8 52.5639
17537.0 65.0426
17537.2 52.8134
17537.5 34.6127
17537.8 21.6207
17538.0 14.9512
17538.3 11.3079
17538.6 9.16162
17539.1 6.90597
17539.6 5.82033
17540.2 5.21037
17540.7 4.84589
17541.8 4.44002
17544.0 4.10250
17546.1 3.96300
17550.5 3.83567
17554.8 3.76814
17563.5 3.67722
17572.2 3.60336
17589.5 3.46936
17598.2 3.40929
17602.5 3.39907
17604.7 3.46699
17605.7 3.73877
17606.3 4.50106
17606.5 6.04013
17606.7 8.23234
17606.8 13.3815
17606.9 19.5095
17607.0 23.5057
17607.1 19.5859
17607.2 13.4766
17607.3 8.08516
17607.5 5.90409
17607.8 4.39535
17608.4 3.68429
17609.6 3.42420
17612.0 3.32994
17616.8 3.27260
17626.4 3.19524
17645.5 3.05079
17664.7 2.90684
17674.3 2.83491
17679.1 2.80086
17681.5 2.79214
17682.7 2.81770
17683.3 2.91970
17683.6 3.16835
17683.7 3.57181
17683.8 4.66131
17684.0 6.60137
17684.2 4.69578
17684.3 3.47975
17684.5 3.11115
17684.9 2.88701
17685.6 2.79129
17687.0 2.75078
17689.7 2.72054
17695.3 2.67512
17706.5 2.58814
17728.8 2.41271
17773.5 2.04829
17818.1 1.65660
17840.4 1.44534
17851.6 1.33934
17857.2 1.30877
17860.0 1.38287
17861.4 1.71468
17862.1 2.66597
17862.4 4.61550
17862.6 7.16023
17862.8 12.8872
17862.9 19.9235
17863.0 24.6352
17863.1 19.9598
17863.2 12.9306
17863.4 7.19369
17863.6 4.74028
17863.9 2.76204
17864.6 1.74512
17865.9 1.34314
17868.5 1.19285
17873.7 1.09725
17884.1 0.956221
17894.6 0.806260
17905.0 0.634091
17915.5 0.431583
17925.9 0.224603
17931.1 0.198082
17933.8 0.271151
17936.4 0.494941
17937.7 0.717293
17939.0 1.06619
17940.3 1.62557
17941.6 2.52327
17942.9 4.02483
17944.2 6.57976
17945.5 11.1471
17946.8 19.2941
17948.4 36.7550
17950.0 54.0695
17950.8 54.9693
17951.6 50.3388
17953.2 36.2735
17954.2 29.1968
17955.1 23.8772
17957.1 16.8981
17959.0 12.8531
17960.9 10.3373
17962.9 8.66859
17964.8 7.50240
17968.6 6.01396
17972.5 5.13155
17976.4 4.56758
17984.1 3.93536
17991.8 3.65074
17999.5 3.56339
18014.9 3.78719
18030.4 4.49324
18045.8 5.80312
18061.3 8.02935
18069.0 9.67694
18070.9 10.1833
18072.8 10.7797
18073.8 11.1672
18074.8 11.7452
18075.2 12.2504
18075.7 13.2141
18076.0 14.1377
18076.2 15.8026
18076.4 19.2551
18076.6 22.4410
18076.7 27.7579
18076.8 37.2472
18077.0 44.0179
18077.2 37.4439
18077.3 28.0723
18077.4 22.8275
18077.6 19.7048
18077.8 16.2914
18078.1 14.7623
18078.3 13.9938
18078.8 13.3457
18079.3 13.1528
18080.3 13.1929
18081.3 13.4226
18083.3 14.0687
18085.3 14.8205
18093.3 18.5192
18109.2 29.6944
18131.6 56.5611
18154.0 83.6349
18169.9 83.1340
18177.9 76.9867
18181.9 73.2224
18183.9 71.2874
18184.8 70.4111
18185.3 70.2315
18185.6 70.6495
18185.7 71.4036
18185.8 73.3753
18186.0 77.3776
18186.2 73.0872
18186.4 70.1941
18186.6 69.2035
18187.0 68.3818
18187.7 67.4119
18189.3 65.7683
18192.5 62.6146
18198.8 56.6148
18212.0 45.8258
18225.2 37.5127
18251.7 26.4212
18278.1 19.7734
18304.5 15.5082
18330.9 12.6782
18357.4 11.1166
18370.6 11.1031
18383.8 12.2394
18397.0 16.0541
18403.6 20.0842
18410.2 26.6468
18421.1 45.2968
18432.0 65.3022
18438.4 66.9676
18441.5 64.7018
18443.1 63.4367
18443.5 63.3636
18443.9 63.7507
18444.3 65.7733
18444.5 68.8330
18444.7 75.3896
18444.9 84.3027
18445.0 89.6796
18445.2 83.3378
18445.3 74.7043
18445.4 69.0311
18445.6 65.8911
18445.8 62.5134
18446.4 59.8689
18446.9 58.5313
18447.4 57.5298
18449.6 54.2280
18453.8 48.3275
18461.9 38.9556
18470.1 32.1412
18478.2 27.2566
18486.3 23.6898
18502.5 18.9399
18518.8 15.9650
18535.0 13.9237
18551.3 12.4246
18567.5 11.2656
18575.6 10.7916
18579.7 10.6381
18581.7 10.7955
18582.2 11.0117
18582.7 11.5690
18583.0 12.2267
18583.3 13.5389
18583.5 16.7646
18583.6 20.4584
18583.8 26.7917
18583.9 37.0276
18584.0 43.4018
18584.1 37.1447
18584.2 26.9311
18584.4 18.8679
18584.6 15.2750
18584.9 12.4394
18585.3 11.4436
18585.6 10.9829
18586.3 10.5706
18587.0 10.3837
18589.8 10.0818
18595.4 9.78093
18601.0 9.60316
18602.4 9.62673
18603.8 9.79209
18604.5 10.0443
18605.2 10.6840
18605.6 11.4067
18605.9 12.8763
18606.3 16.4238
18606.5 20.0539
18606.6 26.7218
18606.8 37.3554
18607.0 44.4132
18607.2 37.5215
18607.4 26.9187
18607.6 19.4183
18607.8 15.6502
18608.0 13.4826
18608.2 12.2658
18608.6 10.9410
18609.0 10.3078
18609.8 9.70945
18610.6 9.44334
18612.3 9.18740
18613.9 9.04815
18620.4 8.71484
18626.9 8.45421
18633.4 8.21435
18659.5 7.35228
18711.6 5.85990
18763.7 4.45206
18789.8 3.79630
18802.8 3.57039
18809.3 3.53513
18812.6 3.55972
18814.2 3.61351
18815.0 3.73666
18815.4 4.03368
18815.6 4.55792
18815.8 6.62069
18816.0 9.68382
18816.2 6.65586
18816.3 4.85652
18816.5 4.23909
18816.8 3.86182
18817.4 3.71369
18818.7 3.69605
18821.2 3.78373
18826.3 4.12900
18831.4 4.76496
18836.5 5.88774
18841.6 7.86708
18846.6 11.4187
18851.7 17.9552
18856.8 30.0973
18862.9 56.1767
18869.0 82.8711
18875.1 78.3521
18881.2 57.6738
18886.4 43.5388
18891.6 33.9520
18896.7 27.4933
18901.9 23.0116
18912.2 17.3739
18922.6 14.0578
18932.9 11.8877
18943.3 10.3527
18964.0 8.27983
18984.6 6.87709
19005.3 5.79731
19026.0 4.88883
19036.4 4.49320
19041.5 4.38296
19042.8 4.42420
19044.1 4.61382
19044.8 4.89140
19045.4 5.57961
19045.7 6.39195
19046.1 8.03103
19046.4 12.1117
19046.5 16.6162
19046.7 25.0020
19046.9 38.0052
19047.0 46.1566
19047.2 38.1326
19047.3 25.1551
19047.4 18.8210
19047.5 14.7182
19047.8 10.1481
19048.0 7.91283
19048.2 6.68600
19048.6 5.46930
19049.1 4.90787
19050.0 4.41045
19050.8 4.19034
19054.4 3.85634
19061.4 3.54334
19068.5 3.28668
19075.5 3.05137
19089.6 2.65341
19103.8 2.44198
19117.9 2.68539
19124.9 3.17467
19132.0 4.13424
19139.0 5.90793
19146.1 9.11621
19153.2 14.9246
19160.2 25.3132
19165.2 36.7491
19170.1 52.0020
19180.0 82.4712
19185.0 86.9290
19189.9 82.4075
19194.9 73.2056
19197.3 68.1560
19199.8 63.3237
19201.3 60.8376
19201.7 60.4526
19202.0 60.4974
19202.4 62.0867
19202.6 65.2241
19202.7 68.3316
19202.8 73.6885
19202.9 83.0655
19203.0 89.5441
19203.1 82.8010
19203.2 73.0763
19203.4 64.9181
19203.5 61.1719
19203.8 57.9002
19204.1 56.4274
19204.4 55.5056
19205.7 53.0003
19206.9 50.9714
19208.1 49.1257
19213.0 42.7448
19222.8 33.5047
19232.6 27.3782
19242.4 23.1271
19252.2 20.0395
19262.0 17.7092
19266.9 16.7551
19271.7 15.9428
19274.2 15.6191
19276.6 15.4505
19277.9 15.5424
19279.1 16.0484
19279.7 16.7593
19280.3 18.4032
19280.6 20.1142
19280.9 23.0861
19281.2 29.1432
19281.4 34.1946
19281.5 41.8481
19281.8 58.2798
19282.0 69.7521
19282.2 58.5677
19282.5 42.1574
19282.7 33.6464
19282.8 27.9888
19283.0 24.3166
19283.2 21.9730
19283.5 19.0510
19283.9 17.4430
19284.6 15.8060
19285.3 15.0294
19286.7 14.2607
19288.1 13.8492
19290.9 13.3190
19293.7 12.9205
19299.4 12.2490
19305.0 11.6563
19305.0 11.6536
19305.1 11.6455
19305.2 11.6385
19305.3 11.6235
19305.6 11.5945
19306.2 11.5360
19307.4 11.4204
19309.7 11.1955
19314.4 10.7640
19323.8 9.96755
19333.3 9.25221
19342.7 8.64275
19352.1 8.25204
19361.5 8.48880
19366.2 9.23861
19370.9 11.0067
19375.6 14.9802
19380.3 23.7285
19385.2 41.6518
19390.0 61.6479
19394.9 60.7584
19399.7 47.3828
19403.7 37.9158
19407.7 31.2190
19411.7 26.5652
19415.7 23.2540
19423.7 18.9710
19431.7 16.3696
19439.7 14.6251
19447.7 13.3715
19451.7 12.8696
19455.7 12.4411
19459.7 12.1513
19461.7 12.3470
19462.2 12.6323
19462.7 13.3392
19463.2 15.5845
19463.4 18.8240
19463.6 21.7662
19463.7 26.5938
19463.8 35.4603
19464.0 41.6647
19464.2 35.5189
19464.3 26.6466
19464.5 19.4439
19464.8 16.0826
19465.2 13.5323
19465.6 12.6008
19466.0 12.1542
19467.8 11.5198
19471.2 11.1033
19478.1 10.5881
19485.0 10.1634
19491.9 9.78735
19519.4 8.57187
19547.0 7.60402
19574.6 6.73641
19602.1 5.88620
19629.7 4.99885
19657.2 4.07831
19671.0 3.68389
19677.9 3.57038
19681.3 3.60754
19683.1 3.84830
19683.9 4.59267
19684.4 6.34047
19684.6 9.29251
19684.7 12.5515
19684.8 18.3673
19684.9 26.9801
19685.0 33.3798
19685.1 27.1018
19685.2 18.5172
19685.3 13.5295
19685.4 10.6673
19685.5 7.55794
19685.9 5.26994
19686.5 4.13899
19687.8 3.73782
19690.4 3.67557
19692.9 3.75832
19695.5 3.91093
19700.7 4.45173
19705.8 5.45255
19711.0 7.22316
19716.1 10.3195
19721.3 15.7300
19726.4 25.0744
19730.3 36.0799
19734.2 50.9020
19742.0 81.1421
19745.9 85.9928
19749.8 82.0483
19757.6 63.9220
19766.9 45.9690
19776.2 35.0808
19785.4 28.4370
19787.7 27.1992
19790.1 26.1061
19792.4 25.2470
19793.5 25.2546
19794.1 26.1399
19794.4 27.7986
19794.7 32.6496
19794.9 37.8524
19795.0 41.1834
19795.2 37.8004
19795.3 32.4972
19795.6 27.7370
19795.8 25.7945
19796.3 24.3750
19797.4 23.4335
19799.4 22.5516
19801.5 21.8816
19803.5 21.2916
19805.6 20.7584
19807.6 20.3028
19809.7 20.0929
19810.2 20.2229
19810.7 20.6884
19811.0 21.2881
19811.2 22.5114
19811.5 25.7022
19811.6 29.2361
19811.7 35.3440
19811.9 44.8839
19812.0 51.6810
19812.1 45.0540
19812.3 35.5148
19812.4 28.9742
19812.5 25.3156
19812.8 22.0647
19813.1 20.7521
19813.4 20.1070
19813.9 19.4526
19814.5 19.1154
19816.7 18.4447
19821.1 17.6188
19825.5 16.9403
19829.9 16.3438
19847.5 14.5026
19865.2 13.2216
19874.0 12.7188
19878.4 12.5052
19880.6 12.4478
19881.7 12.5611
19882.3 12.9839
19882.5 13.8982
19882.7 15.1664
19882.8 17.9259
19883.0 23.5083
19883.2 17.8452
19883.4 14.6320
19883.5 13.4786
19883.9 12.7148
19884.6 12.3495
19885.9 12.1733
19888.7 12.0200
19894.1 11.7837
19905.1 11.3725
19927.0 10.6974
19937.9 10.4153
19948.9 10.1627
19959.8 9.94099
19965.3 9.86563
19968.1 9.93227
19969.4 10.3102
19969.8 10.6508
19970.1 11.4289
19970.4 13.7834
19970.6 17.0926
19970.7 20.4445
19970.8 25.2727
19970.9 34.5998
19971.0 41.0393
19971.1 34.7348
19971.2 25.4376
19971.4 17.5255
19971.5 14.1487
19971.9 11.6328
19972.2 10.7622
19972.5 10.3657
19973.8 9.87725
19976.4 9.68787
19981.5 9.56268
19991.8 9.40783
19996.9 9.36139
20002.0 9.37974
20004.6 9.46945
20007.2 9.76161
20008.4 10.1510
20009.1 10.5038
20009.7 11.0769
20010.4 12.0862
20011.0 14.0746
20011.3 15.8491
20011.6 18.6527
20012.0 23.2843
20012.3 31.0579
20012.6 44.3439
20013.0 53.2803
20013.4 44.5400
20013.7 31.2968
20014.0 24.6766
20014.2 20.4437
20014.5 17.6044
20014.7 15.6551
20015.2 13.2757
20015.7 11.9569
20016.2 11.1451
20016.7 10.6304
20017.7 10.0236
20018.8 9.68856
20019.8 9.48530
20021.8 9.25179
20025.8 9.03647
20029.8 8.92386
20037.8 8.77877
20045.9 8.66797
20061.9 8.47979
20078.0 8.31360
20110.1 8.02048
20142.3 7.76526
20206.5 7.33354
20238.7 7.14692
20254.7 7.06117
20262.8 7.02861
20266.8 7.04918
20268.8 7.19312
20269.8 7.68210
20270.3 8.94419
20270.5 11.2461
20270.7 14.1858
20270.8 20.0593
20270.9 28.1310
20271.0 33.2854
20271.1 28.2522
20271.2 20.2119
20271.4 13.4380
20271.5 10.6563
20271.8 8.57666
20272.4 7.52039
20273.6 7.12797
20276.1 6.99609
20280.9 6.93681
20290.7 6.87824
20310.2 6.78070
20349.1 6.60059
20427.0 6.27267
20504.9 5.97134
20543.9 5.82547
20563.3 5.75332
20573.1 5.72058
20578.0 5.71881
20580.4 5.77362
20581.6 5.99043
20582.2 6.62854
20582.5 7.97431
20582.7 9.89855
20582.8 14.9507
20582.9 20.7033
20583.0 24.3002
20583.1 20.7879
20583.2 15.0577
20583.3 10.6270
20583.4 8.63274
20583.7 7.02706
20584.2 6.15449
20585.1 5.81845
20587.1 5.70597
20591.0 5.66064
20598.9 5.62203
20614.5 5.55875
20645.9 5.43134
20677.2 5.29384
20692.9 5.23020
20700.7 5.25466
20702.7 5.31176
20704.6 5.48271
20705.6 5.70787
20706.6 6.26269
20707.1 6.89508
20707.6 8.21880
20707.8 9.51418
20708.1 11.6223
20708.3 15.4186
20708.6 22.8309
20708.8 33.6420
20709.0 40.8003
20709.2 33.8164
20709.4 23.0480
20709.6 18.0664
20709.7 14.7990
20710.0 10.9373
20710.3 8.93161
20710.6 7.78848
20711.1 6.62080
20711.7 6.07191
20712.8 5.58867
20713.9 5.38534
20716.2 5.21334
20718.4 5.13680
20727.4 4.99973
20736.4 4.89593
20745.3 4.77190
20754.3 4.59677
20758.8 4.47201
20763.3 4.30214
20767.8 4.05159
20770.0 3.87560
20772.2 3.64571
20774.5 3.34100
20776.7 2.96995
20777.8 2.84141
20779.0 3.05720
20779.5 3.62892
20780.1 5.14514
20780.4 6.68246
20780.6 9.24408
20780.9 13.5835
20781.2 20.9401
20781.4 29.3403
20781.6 39.7578
20782.0 59.3647
20782.2 61.4916
20782.4 57.5286
20782.8 43.7339
20783.3 31.4431
20783.7 23.9534
20784.2 19.3589
20784.6 16.3821
20785.1 14.3445
20785.5 12.8828
20786.4 10.9544
20787.3 9.75708
20788.2 8.94963
20790.0 7.94304
20791.8 7.33856
20793.6 6.93852
20795.4 6.65433
20797.2 6.44284
20800.8 6.14482
20804.4 5.94515
20808.0 5.80031
20811.6 5.68934
20818.8 5.52742
20825.9 5.41183
20840.3 5.24889
20854.7 5.13018
20869.1 5.03289
20883.4 4.94823
20890.6 4.91538
20894.2 4.92695
20896.0 5.03259
20896.9 5.39917
20897.4 6.35525
20897.6 8.04868
20897.7 10.0544
20897.8 14.2268
20897.9 20.0544
20898.0 23.6389
20898.1 20.1203
20898.2 14.3102
20898.3 9.43814
20898.5 7.44155
20898.8 5.97225
20899.3 5.23636
20900.5 4.96511
20902.7 4.87176
20907.3 4.82415
20916.4 4.76926
20934.6 4.67066
20970.9 4.46628
20989.1 4.35218
21007.3 4.22363
21025.5 4.07634
21034.6 4.01892
21039.1 4.10676
21040.3 4.23036
21041.4 4.56996
21042.0 5.00135
21042.6 6.02213
21042.8 7.16267
21043.1 9.34518
21043.4 14.3605
21043.5 19.4393
21043.7 28.5563
21043.8 43.1670
21044.0 53.6306
21044.2 43.4517
21044.3 28.9049
21044.4 20.7339
21044.6 15.8431
21044.8 10.5741
21045.0 8.07758
21045.3 6.73439
21045.8 5.40949
21046.3 4.82701
21047.2 4.32110
21048.2 4.11184
21052.0 3.84043
21059.8 3.64689
21067.5 3.47003
21075.2 3.25181
21082.9 2.95647
21086.8 2.76626
21090.7 2.54247
21094.5 2.30330
21096.5 2.21107
21098.4 2.20201
21100.3 2.43911
21101.3 2.78423
21102.3 3.44514
21103.2 4.73441
21104.2 7.26245
21104.7 9.44291
21105.2 12.5540
21105.6 17.1008
21106.1 23.7126
21107.1 44.7482
21108.0 66.2289
21108.5 67.9946
21109.0 63.0277
21109.9 46.8397
21110.7 35.7594
21111.5 28.1636
21112.3 23.0235
21113.0 19.4915
21114.6 15.0063
21116.2 12.4178
21117.8 10.7540
21119.3 9.62121
21122.5 8.18075
21125.6 7.31440
21128.8 6.73848
21135.1 6.01996
21141.4 5.58593
21147.7 5.29098
21160.3 4.90415
21172.9 4.64819
21185.5 4.45445
21210.7 4.15159
21261.1 3.63077
21273.7 3.49044
21286.3 3.33839
21298.9 3.18991
21302.0 3.17599
21305.2 3.22727
21306.8 3.33966
21308.3 3.66951
21309.1 4.08986
21309.9 5.04342
21310.3 6.07047
21310.7 7.95777
21310.9 9.60555
21311.1 11.9520
21311.3 15.7688
21311.5 21.4164
21311.7 32.6015
21312.0 40.1784
21312.3 32.7827
21312.5 21.6343
21312.8 14.2173
21313.1 10.1665
21313.3 7.80086
21313.6 6.43074
21314.2 4.92823
21314.7 4.18912
21315.8 3.50977
21316.9 3.20690
21319.1 2.92379
21321.3 2.77135
21330.1 2.32916
21334.5 2.06056
21338.9 1.72406
21341.1 1.56487
21343.3 1.59124
21344.4 1.89583
21344.9 2.24883
21345.5 2.86534
21346.0 3.94838
21346.6 5.88963
21347.1 9.45759
21347.7 15.9083
21348.3 30.5123
21349.0 45.7032
21349.3 47.2328
21349.7 44.0141
21350.4 33.0616
21350.8 26.8771
21351.2 22.2005
21352.1 16.2222
21353.0 12.7741
21353.8 10.6260
21354.7 9.19193
21355.6 8.17966
21357.3 6.86128
21359.1 6.04469
21360.8 5.49690
21364.3 4.80266
21367.8 4.37523
21371.3 4.08151
21378.2 3.68806
21385.2 3.42083
21392.2 3.21404
21406.1 2.88576
21420.0 2.60992
21434.0 2.36406
21447.9 2.15687
21454.9 2.08209
21458.4 2.06070
21460.1 2.06953
21461.0 2.12595
21461.4 2.29022
21461.6 2.62233
21461.8 3.97156
21462.0 5.94474
21462.2 4.00043
21462.4 2.61531
21462.6 2.29409
21463.1 2.12663
21463.9 2.06463
21465.7 2.04759
21469.3 2.06245
21476.4 2.18872
21483.6 2.50553
21490.7 3.16736
21497.9 4.49095
21505.0 7.14126
21508.6 9.37446
21512.2 12.6044
21515.7 17.2960
21519.3 24.0675
21526.7 46.6166
21534.0 70.6141
21537.7 73.0704
21541.4 68.1874
21548.7 51.0225
21555.7 37.7825
21562.6 29.1068
21569.6 23.4905
21571.3 22.4447
21573.1 21.5810
21573.9 21.2825
21574.8 21.2329
21575.3 21.4568
21575.7 22.1151
21576.1 24.0356
21576.3 26.2085
21576.6 29.8938
21576.8 36.1625
21577.0 40.0954
21577.2 35.7346
21577.5 29.5760
21577.7 25.4219
21577.9 23.1549
21578.3 20.9149
21578.8 19.8708
21579.2 19.2606
21580.1 18.5176
21581.0 18.0146
21582.7 17.2468
21584.5 16.6101
21588.0 15.5224
21591.6 14.6013
21598.6 13.0937
21605.6 11.9066
21619.7 10.1258
21626.8 9.42411
21630.3 9.10865
21632.1 8.97628
21633.0 8.97474
21633.4 9.13533
21633.6 9.49590
21633.8 11.0690
21634.0 13.3727
21634.2 11.0727
21634.4 9.59386
21634.5 9.13273
21634.9 8.85294
21635.7 8.68767
21637.1 8.52869
21640.1 8.27307
21646.1 7.78248
21652.0 7.27540
21657.9 6.71140
21663.9 6.01341
21666.9 5.56999
21669.8 5.01744
21672.8 4.29358
21674.3 3.84512
21675.8 3.34141
21677.3 2.82884
21678.8 2.60536
21679.5 2.96541
21679.9 3.44820
21680.2 4.30115
21680.6 5.75678
21681.0 8.20660
21681.4 12.3025
21681.7 19.0602
21682.0 28.0261
21682.4 40.3234
21683.0 66.4620
21683.3 71.4515
21683.6 69.0583
21684.3 54.9736
21685.0 40.9556
21685.7 32.0145
21686.4 26.3684
21687.2 22.6701
21687.9 20.0479
21688.6 18.1362
21690.0 15.5757
21691.5 13.9308
21692.9 12.8023
21695.8 11.3418
21698.6 10.4288
21701.5 9.79889
21707.2 8.97045
21713.0 8.43104
21718.7 8.04024
21730.2 7.48625
21753.1 6.78361
21776.0 6.30912
21821.9 5.63276
21844.8 5.36161
21856.3 5.23831
21862.0 5.19188
21864.9 5.21994
21866.3 5.40344
21867.1 5.96517
21867.4 7.17911
21867.6 8.93448
21867.8 13.3081
21867.9 18.2721
21868.0 21.5635
21868.1 18.3298
21868.2 13.3787
21868.4 8.45384
21868.7 6.78600
21869.1 5.76268
21870.0 5.30335
21871.7 5.13283
21875.2 5.05130
21882.1 4.96656
21896.0 4.82056
21909.9 4.67837
21916.9 4.60849
21920.4 4.57851
21922.1 4.58182
21923.0 4.64195
21923.4 4.81421
21923.6 5.14905
21923.8 6.44179
21924.0 8.35781
21924.2 6.45896
21924.5 4.95180
21924.8 4.69722
21925.4 4.57517
21926.7 4.52225
21929.2 4.48405
21934.2 4.42799
21944.3 4.32012
21964.4 4.09734
21984.6 3.85937
22004.7 3.60457
22024.8 3.35000
22034.9 3.24904
22045.0 3.21606
22055.0 3.37417
22060.1 3.62301
22065.1 4.11152
22070.1 5.05713
22075.1 6.92784
22080.2 10.7859
22082.7 14.1303
22085.2 18.9710
22090.1 34.0322
22095.0 49.2591
22099.9 46.4438
22104.8 34.4476
22109.0 26.2974
22113.1 20.8476
22115.2 18.9099
22117.3 17.4789
22118.3 17.0534
22119.4 17.1011
22119.9 17.5708
22120.4 18.8339
22120.7 20.1082
22120.9 22.2534
22121.2 25.9984
22121.5 32.6802
22121.7 43.7464
22122.0 50.8801
22122.3 43.6796
22122.5 32.3911
22122.8 25.4318
22123.1 21.3992
22123.3 18.8954
22123.6 17.3638
22124.1 15.5447
22124.7 14.5455
22125.7 13.4049
22126.8 12.7110
22128.9 11.7663
22131.0 11.0696
22135.2 10.0017
22139.4 9.18921
22147.8 8.00195
22156.2 7.16446
22173.0 6.02580
22181.4 5.60368
22185.6 5.41731
22187.7 5.34016
22188.8 5.34072
22189.3 5.44683
22189.6 5.69923
22189.8 6.94040
22190.0 8.64926
22190.2 6.93902
22190.4 5.75747
22190.6 5.44962
22191.1 5.27057
22192.0 5.17350
22193.8 5.08306
22197.3 4.93791
22204.5 4.66926
22211.7 4.41288
22215.3 4.28899
22217.1 4.23359
22218.0 4.22621
22218.4 4.27684
22218.8 4.94262
22219.0 5.72442
22219.2 4.94004
22219.5 4.31558
22219.8 4.19848
22220.3 4.13198
22221.5 4.07469
22223.9 3.98721
22228.7 3.82046
22238.2 3.48637
22247.7 3.15219
22257.2 2.84166
22266.7 2.64471
22276.2 2.89495
22281.0 3.52067
22285.7 4.99518
22288.1 6.33831
22290.5 8.35487
22292.8 11.4045
22295.2 15.9332
22297.7 22.7358
22300.1 31.8987
22305.0 50.6236
22307.5 53.6713
22309.9 51.2868
22314.8 40.1369
22318.1 33.2572
22321.4 27.9733
22327.9 21.0505
22334.5 17.0078
22341.1 14.4580
22347.6 12.7338
22354.2 11.5007
22367.3 9.86401
22380.4 8.82823
22393.5 8.11063
22419.8 7.16880
22446.0 6.56200
22472.3 6.12442
22498.5 5.78331
22511.6 5.63882
22518.2 5.58106
22521.5 5.59038
22523.1 5.71875
22523.9 6.11998
22524.3 6.98106
22524.5 8.26116
22524.7 11.4951
22525.0 17.5356
22525.3 11.5274
22525.5 8.02198
22525.7 6.78107
22526.2 5.99193
22527.2 5.64111
22529.1 5.50489
22532.9 5.43320
22540.5 5.35165
22555.8 5.21203
22586.4 4.95713
22647.5 4.48131
22678.0 4.23632
22708.6 3.96821
22739.1 3.65594
22754.4 3.47694
22762.0 3.39457
22765.9 3.40952
22767.8 3.60844
22768.7 4.21236
22769.2 5.47162
22769.4 7.19720
22769.7 11.1266
22769.8 15.9386
22770.0 19.0672
22770.2 15.9882
22770.3 11.1856
22770.6 7.03502
22770.8 5.35820
22771.3 4.12809
22772.4 3.52989
22774.4 3.28750
22778.4 3.16217
22786.6 3.02248
22794.7 2.90718
22802.8 2.83882
22810.9 2.92354
22815.0 3.11898
22819.0 3.55241
22823.1 4.49264
22827.1 6.60735
22829.2 8.59617
22831.2 11.7769
22833.2 16.9836
22835.2 25.4906
22838.1 45.5725
22841.0 64.9255
22843.9 59.9024
22846.8 43.3897
22848.5 35.2450
22850.2 29.0768
22853.7 21.0492
22857.1 16.4001
22860.6 13.5106
22864.1 11.5795
22867.5 10.2238
22874.4 8.46116
22881.3 7.37553
22888.2 6.64191
22902.1 5.70067
22915.9 5.10276
22929.7 4.67330
22936.6 4.50204
22943.5 4.37070
22947.0 4.34209
22950.4 4.40271
22952.2 4.54231
22953.9 4.94679
22954.8 5.44978
22955.6 6.55865
22956.1 7.67736
22956.5 9.69169
22956.9 13.7048
22957.1 17.3062
22957.4 22.6034
22957.7 33.8382
22958.0 41.2902
22958.3 33.8795
22958.6 22.6455
22958.9 16.5663
22959.2 12.8416
22959.4 10.4519
22959.7 8.86790
22960.2 6.97670
22960.7 5.98907
22961.7 5.01873
22962.7 4.57691
22964.7 4.18294
22966.7 4.00177
22970.8 3.81121
22974.8 3.68967
22982.9 3.49885
22990.9 3.32876
23007.1 3.00567
23023.2 2.70700
23039.4 2.50814
23047.4 2.52765
23055.5 2.75145
23063.6 3.43224
23067.6 4.11485
23071.7 5.20757
23075.7 6.97876
23079.7 9.87529
23083.8 14.7022
23087.8 22.6983
23093.9 43.6314
23100.0 66.0859
23103.1 68.4305
23106.1 63.9093
23112.2 47.9807
23117.6 36.4052
23123.0 28.5921
23128.4 23.3672
23133.7 19.7659
23144.5 15.2761
23155.3 12.6718
23166.0 11.0001
23176.8 9.85584
23182.2 9.42378
23187.6 9.09597
23190.2 9.00797
23192.9 9.07837
23194.3 9.29568
23195.6 9.91829
23196.3 10.6646
23197.0 12.1902
23197.3 13.6296
23197.6 15.9114
23198.0 19.9707
23198.3 27.0451
23198.7 38.4488
23199.0 45.9345
23199.3 38.5666
23199.7 27.1662
23199.9 21.5908
23200.2 17.8130
23200.4 15.3246
23200.7 13.6410
23201.2 11.6150
23201.7 10.5206
23202.7 9.39863
23203.7 8.87065
23205.7 8.36569
23207.6 8.11047
23211.6 7.80816
23215.6 7.59784
23223.5 7.26733
23231.5 6.99179
23247.3 6.52496
23263.2 6.11874
23279.1 5.72594
23295.0 5.27781
23302.9 4.98125
23306.9 4.79177
23310.9 4.55430
23314.8 4.24004
23318.8 3.81031
23320.8 3.56360
23322.8 3.43268
23323.8 3.60043
23324.8 4.33788
23325.3 5.24546
23325.8 6.89465
23326.3 10.0624
23326.8 15.9111
23327.4 29.9200
23328.0 45.4096
23328.6 44.9332
23329.3 34.8891
23329.9 26.4259
23330.5 20.9502
23331.1 17.4316
23331.8 15.1064
23333.0 12.2341
23334.3 10.6176
23335.5 9.58830
23336.8 8.89431
23339.3 8.03235
23341.8 7.56792
23344.3 7.43785
23345.6 7.60311
23346.8 8.21402
23347.4 8.97219
23348.1 10.5145
23348.4 11.9778
23348.7 14.2662
23349.0 18.1056
23349.3 24.8560
23349.7 36.1571
23350.0 43.8063
23350.3 36.6129
23350.7 25.3912
23351.0 18.7175
23351.3 14.7961
23351.6 12.3218
23351.9 10.7928
23352.5 9.01536
23353.1 8.09637
23354.3 7.18777
23355.5 6.75655
23358.0 6.33521
23360.4 6.11430
23365.2 5.85012
23370.1 5.67279
23379.8 5.41206
23389.5 5.20515
23428.3 4.48777
23447.7 4.06668
23457.4 3.80655
23467.1 3.49345
23476.8 3.11283
23486.5 2.71295
23491.3 2.63943
23493.7 2.73879
23496.2 3.05962
23498.6 3.85522
23501.0 5.71154
23502.2 7.44391
23503.4 10.1472
23504.6 14.4033
23505.8 21.0766
23507.9 40.5156
23510.0 61.7073
23511.0 64.1856
23512.1 60.2596
23514.2 45.7439
23515.7 36.6762
23517.2 30.0236
23518.7 25.2512
23520.2 21.8019
23523.2 17.2556
23526.2 14.4929
23529.2 12.6707
23532.2 11.4007
23538.3 9.75799
23544.3 8.74858
23550.3 8.06959
23562.4 7.21121
23574.4 6.68694
23586.5 6.33193
23592.5 6.19636
23598.5 6.08937
23604.5 6.05727
23607.5 6.25309
23608.3 6.45230
23609.0 6.91241
23609.8 8.33146
23610.2 10.4128
23610.4 12.4332
23610.5 15.5195
23610.8 21.1992
23611.0 24.9514
23611.2 21.0082
23611.5 15.2765
23611.7 11.5715
23611.9 9.53276
23612.4 7.62478
23612.9 6.85343
23613.3 6.47471
23614.3 6.12960
23615.2 5.97881
23619.0 5.77815
23626.5 5.64324
23641.5 5.47137
23656.5 5.33394
23671.5 5.21706
23686.5 5.11560
23701.5 5.02811
23716.5 4.96497
23724.1 4.99357
23725.9 5.04880
23727.8 5.20860
23728.7 5.41763
23729.7 5.92957
23730.2 6.50945
23730.6 7.71255
23730.9 8.87853
23731.1 10.7494
23731.3 14.0558
23731.6 20.2842
23731.8 29.8078
23732.0 36.1112
23732.2 30.1375
23732.4 20.6985
23732.7 14.4343
23732.9 10.9675
23733.4 7.91072
23733.9 6.67276
23734.3 6.06379
23735.3 5.50759
23736.2 5.27405
23738.1 5.08194
23740.0 5.00824
23743.8 4.96261
23747.6 4.97767
23751.3 5.06098
23753.2 5.15313
23755.1 5.31680
23757.0 5.63615
23757.9 5.91793
23758.9 6.35490
23759.8 7.09553
23760.8 8.43675
23761.2 9.54407
23761.7 11.1654
23762.2 13.5943
23762.7 17.2308
23763.3 24.8237
23764.0 29.8098
23764.7 24.7547
23765.4 17.2894
23766.0 12.8685
23766.5 10.2595
23767.1 8.64106
23767.7 7.62716
23768.9 6.46801
23770.1 5.87426
23771.3 5.52699
23772.5 5.30968
23774.8 5.05836
23779.6 4.83852
23784.3 4.74033
23793.8 4.64089
23803.3 4.58070
23822.3 4.49167
23841.2 4.41676
23879.2 4.28436
23898.2 4.24104
23902.9 4.24966
23907.7 4.30491
23910.0 4.39300
23912.4 4.63307
23913.6 4.92880
23914.8 5.58750
23915.4 6.27398
23916.0 7.50943
23916.5 10.0093
23916.8 12.2644
23917.1 15.5061
23917.6 22.6087
23918.0 27.3847
23918.4 22.9132
23918.9 16.0991
23919.4 10.9862
23919.9 8.42249
23920.4 7.03224
23920.9 6.21558
23921.9 5.35658
23923.0 4.94048
23925.0 4.56341
23927.0 4.39960
23931.1 4.25642
23935.2 4.19127
23943.4 4.12289
23951.5 4.07964
23984.2 3.95248
24016.9 3.83517
24033.2 3.78357
24041.4 3.80349
24043.4 3.85007
24045.5 3.99073
24046.5 4.17742
24047.5 4.64063
24048.0 5.17139
24048.5 6.28751
24048.8 7.38300
24049.0 9.17561
24049.3 12.6014
24049.5 19.0944
24049.8 28.3711
24050.0 34.8719
24050.2 28.6993
24050.5 19.5009
24050.7 13.9418
24050.9 10.5684
24051.3 7.32668
24051.7 5.90660
24052.1 5.17672
24052.9 4.49083
24053.7 4.18918
24055.4 3.93333
24057.0 3.82663
24063.6 3.68658
24076.7 3.58384
24089.9 3.49278
24103.0 3.38304
24116.1 3.23113
24122.7 3.12531
24129.3 2.98376
24135.8 2.78018
24139.1 2.64022
24142.4 2.46282
24145.7 2.23793
24149.0 1.99745
24150.6 1.95576
24152.3 2.22212
24153.1 2.71490
24153.9 3.85331
24154.3 4.90342
24154.7 6.52446
24155.1 9.04373
24155.5 12.9377
24155.9 18.0746
24156.3 24.8433
24157.0 37.8084
24157.4 39.4941
24157.7 37.2389
24158.5 28.6590
24159.3 20.7978
24160.1 16.0655
24160.6 14.5168
24161.0 13.5046
24161.4 13.3915
24161.6 14.4641
24161.8 18.2125
24162.0 25.2955
24162.2 17.7239
24162.4 14.3354
24162.5 12.5238
24162.7 10.7962
24163.3 9.41380
24164.3 8.17834
24165.3 7.43993
24166.4 6.91669
24168.5 6.19730
24170.5 5.73059
24172.6 5.40052
24174.7 5.15681
24178.8 4.81803
24183.0 4.59347
24187.1 4.43275
24195.4 4.21538
24203.7 4.07213
24212.0 3.96797
24228.6 3.82070
24245.2 3.71519
24261.8 3.63112
24295.0 3.49530
24361.4 3.27626
24394.6 3.17666
24411.2 3.12913
24419.5 3.11300
24423.6 3.13672
24425.7 3.26391
24426.7 3.68303
24427.2 4.71842
24427.5 6.48476
24427.6 8.46596
24427.8 11.9132
24427.9 17.4300
24428.0 20.9380
24428.1 17.5800
24428.2 12.1030
24428.4 8.64019
24428.5 6.63340
24428.8 4.86775
24429.3 3.77706
24430.3 3.30166
24432.3 3.13611
24436.3 3.07553
24444.4 3.03736
24460.5 2.98539
24476.6 2.93875
24484.6 2.92997
24488.7 2.98818
24490.7 3.23960
24491.7 4.00428
24492.2 5.65941
24492.4 8.06513
24492.7 14.3155
24492.9 21.4851
24493.0 26.1574
24493.2 21.8131
24493.3 14.7298
24493.5 9.41260
24493.7 6.77227
24494.1 4.66404
24494.9 3.53649
24496.5 3.09062
24499.7 2.93561
24506.1 2.87097
24518.9 2.81687
24544.5 2.72972
24570.0 2.64085
24595.6 2.54410
24621.2 2.43248
24634.0 2.36726
24646.8 2.29244
24659.5 2.20536
24672.3 2.11668
24678.7 2.10503
24681.9 2.13803
24685.1 2.24376
24688.3 2.53679
24689.9 2.84788
24691.5 3.39422
24693.1 4.42843
24694.7 6.56061
24695.5 8.49036
24696.3 11.5277
24697.1 16.4611
24697.9 24.4169
24699.0 41.3981
24700.0 55.6396
24701.1 48.5473
24702.1 33.5416
24702.8 26.1240
24703.5 20.8577
24704.8 14.3640
24706.1 10.8148
24707.5 8.69822
24708.8 7.32891
24710.2 6.40185
24712.9 5.24280
24715.5 4.56111
24718.2 4.12218
24723.6 3.59486
24729.0 3.29115
24734.3 3.09373
24745.1 2.84921
24755.8 2.69861
24766.5 2.59239
24788.0 2.44298
24788.0 2.44147
24788.1 2.44113
24788.1 2.44078
24788.2 2.44015
24788.5 2.43889
24788.9 2.43637
24789.8 2.43133
24791.6 2.42149
24795.1 2.40248
24802.2 2.36675
24816.4 2.30271
24844.7 2.19455
24901.4 2.02790
24958.1 1.92045
24986.4 1.89720
25000.6 1.89728
25007.7 1.90662
25011.2 1.93861
25013.0 2.05204
25013.9 2.40860
25014.3 3.25627
25014.6 4.64914
25014.8 8.87362
25015.0 16.0689
25015.2 9.07455
25015.4 5.27043
25015.6 3.80360
25015.9 2.71489
25016.6 2.18909
25018.0 1.99731
25020.8 1.93927
25026.4 1.92855
25037.6 1.94437
25060.0 2.01351
25082.4 2.13225
25093.6 2.21710
25099.2 2.27677
25102.0 2.34817
25103.4 2.51645
25104.1 2.95212
25104.4 3.82010
25104.6 4.93257
25104.8 7.47769
25105.0 12.7446
25105.2 7.58495
25105.5 4.53345
25105.7 3.44671
25106.2 2.77791
25107.1 2.48774
25109.0 2.40501
25112.8 2.41607
25120.4 2.50021
25135.6 2.72414
25166.0 3.38879
25196.3 4.47984
25211.5 5.26779
25219.1 5.75184
25222.9 6.05626
25224.8 6.34911
25225.8 6.87429
25226.2 7.87142
25226.5 9.30281
25226.7 12.7464
25227.0 19.4148
25227.3 12.9686
25227.6 8.85081
25227.9 7.60610
25228.6 6.89379
25229.9 6.67931
25232.5 6.78212
25237.6 7.19843
25248.0 8.21455
25268.7 10.8996
25289.3 14.7368
25310.0 20.1723
25355.0 39.1683
25400.0 59.4029
25422.5 61.5006
25445.0 57.4158
25490.0 42.9530
25538.0 30.5874
25586.0 22.7603
25610.0 19.9397
25634.0 17.5374
25646.0 16.4149
25658.0 15.3126
25664.0 14.8036
25667.0 14.6016
25670.0 14.4979
25673.0 14.6294
25676.0 15.3692
25677.5 16.2621
25679.0 17.8713
25680.5 20.7754
25681.9 25.9342
25684.0 38.5523
25686.0 52.2621
25688.0 51.1376
25690.1 41.5072
25691.9 34.1637
25693.8 29.2558
25695.7 25.9810
25697.5 23.7167
25701.2 20.8586
25705.0 19.1475
25708.7 17.9999
25712.4 17.1691
25719.8 16.0104
25727.3 15.2032
25734.7 14.5823
25749.6 13.6351
25779.4 12.2949
25809.2 11.3044
25868.7 9.83494
25928.2 8.74414
25987.8 7.86016
26047.3 7.06517
26077.1 6.64958
26092.0 6.41781
26106.9 6.15276
26121.8 5.82713
26129.2 5.62716
26136.7 5.39105
26144.1 5.11418
26151.5 4.84745
26155.3 4.82504
26157.1 4.91848
26159.0 5.17339
26160.8 5.75462
26162.7 7.03102
26164.6 9.87645
26165.5 12.4561
26166.4 16.3267
26168.2 28.7700
26170.0 42.5224
26171.8 41.8511
26173.6 32.6596
26175.1 25.9261
26176.7 21.3083
26178.2 18.1526
26179.8 15.9676
26182.9 13.2051
26185.9 11.5845
26189.0 10.5373
26192.1 9.81036
26198.3 8.87047
26204.5 8.28722
26210.7 7.88612
26223.0 7.35909
26235.4 7.01466
26247.7 6.76152
26272.4 6.39243
26321.9 5.88603
26371.3 5.50109
26470.1 4.86001
26569.0 4.27029
26667.9 3.65320
26717.3 3.30856
26766.7 2.91978
26816.1 2.46616
26840.8 2.21142
26865.6 1.94844
26890.3 1.72853
26902.6 1.69028
26915.0 1.78996
26927.3 2.22161
26933.5 2.70170
26939.7 3.51836
26945.9 4.92201
26952.1 7.37949
26958.2 11.7848
26964.4 19.7167
26972.2 37.4315
26980.0 55.7115
26987.8 53.0198
26995.6 39.1819
27002.2 29.6997
27008.7 23.1947
27015.3 18.7856
27021.8 15.7185
27034.9 11.8475
27048.0 9.57063
27061.1 8.08650
27074.2 7.04328
27100.4 5.65307
27126.5 4.73488
27152.7 4.04778
27205.1 2.99301
27257.5 2.13110
27283.7 1.76458
27309.9 1.49930
27336.0 1.49545
27349.1 1.71559
27362.2 2.23172
27375.3 3.27534
27388.4 5.28221
27401.5 9.09061
27414.6 16.2181
27423.5 23.9743
27432.3 34.4687
27450.0 56.0576
27458.9 59.6331
27467.7 56.9536
27485.4 44.2105
27506.7 31.3700
27528.0 23.5714
27549.2 18.7939
27570.5 15.6813
27591.8 13.5230
27613.1 11.9479
27655.6 9.79921
27698.2 8.38366
27740.7 7.35501
27825.8 5.87525
27910.9 4.73783
27953.5 4.21915
27996.0 3.72100
28038.6 3.27617
28059.8 3.11692
28081.1 3.06994
28102.4 3.27818
28123.7 4.10253
28134.3 5.00834
28144.9 6.54077
28155.6 9.12207
28166.2 13.4106
28183.1 25.3792
28200.0 38.6357
28208.5 40.2449
28216.9 37.8228
28233.8 28.6428
28245.8 22.9000
28257.8 18.5558
28269.8 15.3189
28281.8 12.8670
28293.8 11.0118
28305.8 9.84866
28311.8 9.79662
28317.8 10.6539
28323.8 13.8368
28326.8 17.4083
28329.8 23.5104
28334.4 40.1284
28339.0 58.5657
28343.6 57.5317
28348.2 44.9071
28351.3 37.3139
28354.5 31.5623
28360.8 24.1233
28367.0 19.7953
28373.3 17.0425
28379.6 15.1503
28385.9 13.7676
28398.4 11.8635
28411.0 10.5886
28423.6 9.65313
28448.7 8.32406
28473.8 7.37736
28498.9 6.63072
28549.2 5.43514
28599.4 4.40368
28624.5 3.90717
28649.6 3.42732
28674.8 3.02499
28687.3 2.91892
28699.9 2.97851
28712.4 3.40849
28725.0 4.72196
28731.3 6.08096
28737.6 8.32787
28743.8 12.0571
28750.1 18.1877
28760.1 35.1100
28770.0 53.7424
28775.0 56.0221
28780.0 52.6841
28789.9 40.0218
28798.7 30.5563
28807.5 24.0593
28816.3 19.6565
28825.1 16.5781
28842.8 12.6467
28860.4 10.2573
28878.0 8.62601
28895.6 7.40521
28930.9 5.57733
28966.1 4.10970
28983.7 3.44481
29001.3 2.85132
29019.0 2.45244
29027.8 2.43155
29036.6 2.66258
29045.4 3.35860
29054.2 4.93280
29063.0 8.19398
29071.8 14.6387
29077.9 22.0523
29083.9 32.4408
29096.0 55.3993
29102.1 60.3531
29108.1 58.9606
29120.2 47.6591
29129.0 39.5685
29137.7 33.2873
29146.5 28.5960
29155.2 25.0749
29172.7 20.2798
29190.2 17.2364
29207.7 15.1563
29225.2 13.6483
29260.2 11.5999
29295.2 10.2539
29330.2 9.27953
29400.2 7.89503
29470.2 6.85248
29505.2 6.37335
29540.2 5.88690
29575.2 5.36801
29610.2 4.82134
29627.7 4.60374
29636.5 4.56631
29645.2 4.65126
29654.0 5.00123
29662.7 5.95363
29671.5 8.36241
29675.8 10.7093
29680.2 14.3882
29688.1 25.9103
29696.0 39.1672
29703.9 39.2696
29711.8 31.0382
29719.7 23.9850
29727.7 19.3476
29735.6 16.3286
29743.6 14.2821
29759.4 11.7549
29775.3 10.2797
29791.2 9.31497
29807.1 8.62982
29838.8 7.70243
29870.6 7.07835
29902.4 6.60659
29965.9 5.88066
30029.4 5.26829
30092.9 4.64196
30124.7 4.27179
30140.5 4.05222
30156.4 3.79055
30172.3 3.45448
30180.2 3.23830
30188.2 2.96888
30196.1 2.61774
30200.1 2.39975
30204.1 2.15090
30208.0 1.89193
30212.0 1.75318
30214.0 1.90068
30216.0 2.52923
30217.0 3.25129
30217.9 4.51393
30218.9 6.71507
30219.9 10.5117
30220.7 15.1100
30221.5 21.3585
30223.0 34.3602
30223.8 36.6271
30224.5 35.1599
30226.1 27.7279
30227.7 21.0549
30229.2 16.6603
30230.8 13.8059
30232.4 11.8768
30234.0 10.5126
30235.6 9.50755
30238.7 8.13903
30241.9 7.25649
30245.0 6.64057
30251.4 5.83262
30257.7 5.31452
30264.0 4.94469
30276.6 4.42472
30301.9 3.73986
30327.1 3.22439
30352.4 2.81989
30365.0 2.70549
30377.7 2.73816
30390.3 3.10199
30402.9 4.25932
30409.3 5.47005
30415.6 7.47294
30421.9 10.7999
30428.2 16.2598
30433.4 23.0669
30438.6 32.1787
30449.0 50.5116
30454.2 53.2652
30459.4 50.6337
30469.8 39.2537
30479.5 30.1202
30489.2 23.9229
30498.8 19.7748
30508.5 16.9138
30527.9 13.3238
30547.2 11.2080
30566.5 9.82010
30585.9 8.83592
30624.6 7.50943
30663.3 6.62031
30702.0 5.94568
30779.4 4.87812
30856.7 3.90986
30895.4 3.40179
30934.1 2.86016
30972.8 2.30669
30992.2 2.06643
31011.5 1.92551
31030.9 2.04804
31040.5 2.32363
31050.2 2.87012
31059.9 3.87296
31069.6 5.65243
31079.2 8.76968
31088.9 14.1398
31096.7 20.8984
31104.5 30.1672
31120.0 49.8660
31127.8 53.5806
31135.6 51.7091
31151.1 40.9812
31161.1 34.3744
31171.1 29.1577
31191.1 22.1174
31211.1 17.8793
31231.1 15.1449
31251.2 13.2604
31271.2 11.8888
31311.2 10.0220
31351.2 8.79224
31391.2 7.89830
31471.2 6.61176
31551.3 5.61662
31631.3 4.66764
31671.3 4.13665
31691.3 3.83610
31711.4 3.49875
31731.4 3.11374
31751.4 2.70075
31761.4 2.55171
31766.4 2.54624
31771.4 2.65638
31776.4 3.01454
31781.4 3.93555
31783.9 4.82320
31786.4 6.22716
31788.9 8.45712
31791.4 11.9730
31795.7 22.2971
31800.0 33.5759
31804.3 32.7268
31808.6 24.8186
31812.3 19.0883
31815.9 14.9655
31817.8 13.3336
31819.6 11.9153
31820.5 11.3276
31821.4 11.0228
31822.4 11.9214
31822.8 14.1461
31823.0 16.4904
31823.3 20.2791
31823.6 30.8444
31824.0 42.6271
31824.4 41.6627
31824.7 33.5187
31825.1 26.2316
31825.6 21.6771
31826.0 18.8309
31826.4 16.9793
31827.2 14.6386
31828.0 13.2612
31828.0 13.2346
31828.1 13.1411
31828.1 13.0633
31828.3 12.9017
31828.5 12.6148
31829.0 12.1179
31830.0 11.3324
31832.1 10.2465
31834.1 9.48750
31836.1 8.90444
31840.1 8.02362
31844.2 7.37233
31852.2 6.43746
31860.3 5.77967
31876.4 4.87254
31892.5 4.23653
31924.8 3.30366
31957.1 2.57360
31989.3 2.01264
32005.5 1.85879
32021.6 1.89297
32037.7 2.30208
32053.8 3.48606
32061.9 4.61224
32070.0 6.32010
32078.0 8.88176
32086.1 12.6520
32095.6 19.1938
32105.1 28.3430
32124.0 48.5332
32133.5 52.8626
32143.0 51.6009
32161.9 41.5971
32174.0 35.2219
32186.0 30.0835
32210.1 23.0074
32234.3 18.6488
32258.4 15.7791
32282.5 13.7606
32306.6 12.2586
32354.9 10.1403
32403.1 8.68672
32451.3 7.72892
32475.5 7.56266
32499.6 7.92466
32523.7 9.64366
32535.8 11.6544
32547.8 15.1260
32567.4 25.5276
32587.0 37.9333
32606.2 38.3230
32615.8 34.4299
32618.2 33.1803
32620.6 31.7181
32621.8 30.8354
32623.0 29.7784
32624.2 28.6637
32624.8 28.8819
32625.1 30.2356
32625.4 34.5531
32625.7 44.3017
32626.0 57.3215
32626.2 60.6451
32626.6 54.1203
32626.9 47.3012
32627.2 42.9445
32627.6 40.0602
32627.9 38.1639
32628.6 35.7339
32629.2 34.2449
32630.6 32.4186
32631.9 31.2374
32634.6 29.5849
32637.3 28.3249
32642.6 26.2915
32648.0 24.6074
32658.7 21.8780
32669.4 19.7450
32690.9 16.6203
32712.3 14.4020
32733.7 12.6273
32744.4 11.7931
32755.2 10.9247
32765.9 9.93506
32771.2 9.35218
32776.6 8.67845
32781.9 7.88967
32787.3 7.05202
32790.0 6.77239
32792.7 6.97396
32795.3 8.82242
32796.7 11.3987
32798.0 16.3189
32799.0 22.4951
32800.0 31.3216
32802.0 51.4557
32804.0 55.7254
32806.0 46.8334
32807.4 40.4071
32808.7 35.3072
32810.1 31.3798
32811.5 28.4016
32814.2 24.2573
32817.0 21.5954
32819.7 19.7546
32822.5 18.4208
32828.0 16.6087
32833.5 15.4294
32839.0 14.5949
32849.9 13.4682
32860.9 12.7197
32871.9 12.1706
32893.9 11.3869
32915.8 10.8292
32937.8 10.3963
32981.7 9.74216
33069.6 8.85743
33157.5 8.23888
33245.4 7.74529
33333.2 7.29987
33377.2 7.06646
33399.2 6.93610
33421.1 6.78578
33443.1 6.59528
33454.1 6.47091
33465.1 6.31017
33476.0 6.08239
33481.5 5.92379
33487.0 5.71373
33492.5 5.42047
33498.0 4.99302
33503.5 4.49819
33504.9 4.52897
33506.2 4.92848
33506.9 5.46754
33507.6 6.46245
33508.3 8.32715
33509.0 11.6636
33509.5 15.6755
33510.0 21.0921
33511.0 32.8110
33512.0 34.1275
33513.0 27.9526
33513.8 23.6366
33514.5 20.3490
33515.2 17.9311
33516.0 16.1402
33517.5 13.7420
33518.9 12.2527
33520.4 11.2564
33521.9 10.5497
33524.9 9.62169
33527.8 9.04287
33530.8 8.64809
33536.7 8.14352
33542.6 7.83068
33548.5 7.61493
33560.4 7.32912
33572.2 7.13948
33584.0 6.99754
33607.7 6.78292
33655.0 6.45680
33702.4 6.15320
33749.7 5.80091
33773.4 5.57851
33797.0 5.29591
33820.7 4.90306
33832.5 4.63357
33844.3 4.28065
33856.2 3.79249
33862.1 3.47184
33868.0 3.08374
33873.9 2.62853
33879.8 2.21480
33882.8 2.20058
33885.8 2.71117
33887.2 3.45210
33888.7 4.88026
33890.2 7.56858
33891.7 12.4799
33892.8 18.3677
33893.8 26.4506
33896.0 43.9498
33897.1 47.5422
33898.2 46.2158
33900.3 37.2454
33901.8 31.2195
33903.3 26.5389
33904.8 22.9877
33906.3 20.3227
33909.2 16.6613
33912.2 14.3355
33915.2 12.7521
33918.2 11.6116
33924.1 10.0800
33930.0 9.08895
33936.0 8.37964
33947.8 7.37408
33959.7 6.59444
33971.6 5.84779
33977.5 5.47149
33983.5 5.19893
33986.4 5.24866
33989.4 5.72093
33992.4 7.40008
33993.9 9.31501
33995.3 12.6560
33997.7 22.4747
34000.0 34.5650
34002.3 35.7421
34004.7 29.1935
34006.5 24.3047
34008.4 20.6962
34010.2 18.1155
34012.1 16.2522
34015.8 13.7947
34019.5 12.2885
34023.2 11.2844
34026.9 10.5704
34034.4 9.62318
34041.8 9.01976
34049.2 8.59742
34064.0 8.03442
34078.9 7.66474
34093.7 7.39493
34123.4 7.00851
34153.1 6.72547
34182.8 6.49254
34242.1 6.08408
34301.5 5.66080
34331.2 5.40778
34360.9 5.09439
34390.6 4.66802
34405.4 4.38039
34420.3 4.00989
34435.1 3.51195
34442.5 3.19663
34449.9 2.83201
34457.4 2.44553
34461.1 2.28387
34464.8 2.21236
34468.5 2.37726
34472.2 3.15389
34474.1 4.04737
34475.9 5.57609
34477.8 8.18949
34479.6 12.5371
34481.2 18.3634
34482.8 26.4262
34486.0 43.7875
34487.6 47.2971
34489.2 45.9303
34492.4 36.9413
34494.5 31.2278
34496.6 26.6986
34500.7 20.6018
34504.9 16.9368
34509.0 14.5796
34513.2 12.9624
34517.3 11.7920
34525.6 10.2147
34533.9 9.19164
34542.2 8.46133
34558.8 7.42974
34592.0 5.84169
34600.3 5.39292
34608.6 4.92205
34612.8 4.75708
34616.9 4.86658
34619.0 5.22343
34621.1 6.07046
34623.2 7.96637
34625.2 12.0398
34627.6 21.6433
34630.0 33.4610
34632.4 34.5898
34634.8 28.1598
34636.8 23.1828
34638.8 19.5611
34640.8 17.0015
34642.7 15.1667
34646.7 12.7551
34650.7 11.2667
34654.6 10.2536
34658.6 9.50660
34666.6 8.41971
34674.5 7.54606
34678.5 7.10575
34682.4 6.61353
34686.4 6.01287
34690.4 5.22310
34692.4 4.75107
34694.4 4.36088
34695.4 4.37907
34696.3 4.90824
34696.8 5.61817
34697.3 6.88233
34697.8 9.16641
34698.3 13.0319
34698.7 18.2720
34699.2 25.6469
34700.0 42.1112
34700.4 45.7682
34700.8 44.9044
34701.7 37.0486
34702.3 31.6097
34702.8 27.3240
34703.4 24.0807
34704.0 21.6229
34705.2 18.2489
34706.3 16.0998
34707.5 14.6353
34708.6 13.5813
34711.0 12.1784
34713.3 11.2815
34715.6 10.6597
34720.2 9.84866
34724.9 9.33321
34729.5 8.97171
34738.8 8.48423
34748.0 8.16022
34757.3 7.92208
34775.8 7.58310
34794.4 7.34335
34812.9 7.15836
34850.0 6.87990
34887.1 6.66941
34924.1 6.49652
34998.3 6.20801
35072.5 5.94512
35109.5 5.80706
35146.6 5.65187
35183.7 5.45930
35202.2 5.33566
35220.8 5.17798
35239.3 4.95818
35248.6 4.80682
35257.8 4.60765
35267.1 4.33017
35271.7 4.14604
35276.4 3.92117
35285.6 3.40518
35288.0 3.39580
35290.3 3.71544
35291.4 4.19417
35292.6 5.14366
35293.8 6.99479
35294.9 10.5066
35295.7 14.4035
35296.5 19.6762
35298.0 30.9326
35299.6 32.0127
35301.1 25.9181
35302.2 21.9215
35303.2 18.8310
35304.3 16.5217
35305.4 14.8027
35307.5 12.4525
35309.6 10.9713
35311.8 9.96665
35313.9 9.25279
35318.2 8.30716
35322.4 7.70952
35326.7 7.29789
35335.2 6.75799
35343.8 6.40778
35352.3 6.14866
35369.3 5.74595
35386.4 5.36612
35394.9 5.14437
35403.4 4.86993
35412.0 4.49607
35416.2 4.24598
35420.5 3.93247
35424.8 3.53577
35429.0 3.08788
35431.2 2.94603
35433.3 3.15251
35434.4 3.64629
35435.4 4.77156
35436.5 7.27155
35437.0 9.44474
35437.6 12.6009
35438.2 17.9741
35438.8 25.2472
35440.0 40.7403
35440.6 43.7572
35441.2 42.3496
35442.5 34.0779
35443.9 25.4578
35445.3 20.1246
35446.8 16.8125
35448.2 14.6422
35449.7 13.1312
35451.1 12.0440
35454.0 10.5878
35456.9 9.66324
35459.8 9.03127
35465.5 8.22204
35471.3 7.72464
35477.1 7.38737
35482.8 7.14140
35488.6 6.95342
35500.1 6.68099
35511.7 6.49002
35534.7 6.23056
35557.8 6.05334
35580.8 5.91769
35627.0 5.70843
35719.2 5.38519
35811.5 5.08299
35903.7 4.73515
35949.8 4.52029
35996.0 4.25596
36042.1 3.90829
36065.2 3.68308
36088.2 3.40207
36111.3 3.03127
36122.8 2.79214
36134.3 2.49667
36145.9 2.11742
36151.6 1.88443
36157.4 1.61917
36163.2 1.33569
36168.9 1.13951
36171.8 1.21450
36173.3 1.37243
36174.7 1.68370
36176.1 2.25417
36177.6 3.27037
36179.0 5.05973
36180.5 8.16175
36181.6 12.0101
36182.7 17.2295
36185.0 28.2905
36186.1 30.3342
36187.3 29.2261
36189.5 23.1056
36191.0 19.3584
36192.5 16.4012
36195.4 12.4270
36198.3 10.0255
36201.2 8.48007
36204.1 7.40984
36207.0 6.63245
36212.9 5.57092
36218.7 4.87525
36224.5 4.38086
36236.2 3.75046
36247.8 3.51762
36259.5 3.93466
36265.3 4.64529
36271.2 6.01398
36277.0 8.53038
36282.8 13.0073
36287.4 18.5770
36291.9 26.2849
36301.0 42.9105
36305.6 46.2314
36310.1 44.8881
36319.2 36.1868
36325.8 30.1564
36332.3 25.5188
36338.9 22.0779
36345.4 19.5135
36358.5 16.0430
36371.6 13.8672
36384.7 12.3976
36397.8 11.3479
36424.0 9.95415
36450.2 9.07220
36476.3 8.46153
36528.7 7.65949
36581.1 7.13376
36633.5 6.72076
36659.7 6.51458
36672.8 6.39822
36685.9 6.26068
36699.0 6.07960
36705.5 5.95788
36712.0 5.79839
36718.6 5.57253
36725.1 5.22293
36728.4 4.97085
36731.7 4.67702
36733.3 4.57351
36735.0 4.68219
36735.8 4.98351
36736.6 5.70785
36737.4 7.36311
36738.2 11.0036
36739.1 19.2594
36740.0 29.3879
36740.9 30.3550
36741.8 24.8688
36742.6 20.2064
36743.4 16.9743
36744.3 14.7895
36745.1 13.2874
36746.8 11.3727
36748.4 10.2550
36750.1 9.52713
36751.7 9.02460
36755.0 8.37373
36758.3 7.97301
36761.6 7.70120
36768.3 7.35383
36774.9 7.13823
36781.5 6.98870
36794.7 6.78897
36808.0 6.65583
36821.2 6.55642
36847.7 6.40965
36874.2 6.29919
36900.7 6.20838
36953.6 6.05965
37059.5 5.82677
37165.4 5.63061
37271.3 5.44046
37324.3 5.33762
37377.2 5.22005
37430.2 5.07123
37456.7 4.97386
37483.2 4.84756
37509.6 4.66780
37522.9 4.54170
37536.1 4.37308
37549.4 4.13306
37556.0 3.97030
37562.6 3.76602
37569.2 3.51223
37575.8 3.24269
37579.1 3.18312
37582.5 3.39009
37584.1 3.77662
37585.8 4.60773
37587.4 6.35485
37589.1 9.97055
37590.1 13.6400
37591.0 18.6073
37593.0 29.1487
37595.0 30.0821
37596.9 24.3070
37598.5 19.9637
37600.1 16.8070
37601.7 14.5537
37603.3 12.9410
37606.5 10.8334
37609.7 9.55999
37612.9 8.71680
37616.1 8.12319
37622.4 7.34610
37628.8 6.85605
37635.2 6.51428
37647.9 6.04523
37660.7 5.69103
37673.4 5.31959
37679.8 5.06543
37686.2 4.67519
37689.4 4.36757
37692.6 3.91401
37695.7 3.33612
37697.3 3.67752
37698.1 5.26674
37698.5 7.32618
37698.9 11.1803
37699.2 15.4437
37699.5 21.3673
37700.0 34.0307
37700.3 36.4705
37700.5 35.3350
37701.1 28.6071
37701.5 23.2239
37702.0 19.3101
37702.5 16.5978
37702.9 14.7144
37703.9 12.2471
37704.8 10.7921
37705.8 9.83198
37706.7 9.16901
37708.5 8.30865
37710.4 7.77494
37712.3 7.41360
37716.0 6.95529
37719.8 6.67311
37723.5 6.48072
37730.9 6.23007
37738.4 6.06947
37745.9 5.95480
37760.8 5.79623
37775.8 5.68656
37790.7 5.60287
37820.5 5.47704
37850.4 5.38098
37880.3 5.30079
37940.0 5.16351
37999.7 5.03524
38059.5 4.89175
38089.3 4.79839
38104.3 4.73846
38119.2 4.66122
38134.1 4.55045
38141.6 4.47101
38149.1 4.36138
38156.5 4.19523
38164.0 3.90657
38167.7 3.66139
38171.5 3.27796
38175.2 2.72187
38177.1 2.90686
38178.0 4.31307
38178.5 6.38604
38178.9 10.6768
38179.2 14.8624
38179.5 20.6262
38180.0 32.7218
38180.3 34.8973
38180.5 33.6174
38181.1 26.8889
38181.6 21.4209
38182.0 17.6110
38182.5 15.0038
38183.0 13.1766
38184.0 10.8435
38184.9 9.48396
38185.9 8.59476
38186.9 7.98460
38188.8 7.19886
38190.7 6.71603
38192.6 6.39190
38196.5 5.98559
38200.4 5.73956
38204.2 5.57455
38211.9 5.36410
38219.6 5.23311
38227.3 5.14147
38242.8 5.01646
38258.2 4.92959
38273.6 4.86110
38304.4 4.74946
38366.1 4.55440
38427.8 4.34089
38489.5 4.05740
38520.3 3.86356
38551.1 3.60768
38582.0 3.24906
38597.4 3.01033
38612.8 2.71771
38628.2 2.37120
38636.0 2.19446
38643.7 2.05544
38651.4 2.05575
38659.1 2.50120
38662.9 3.14929
38666.8 4.41449
38670.6 6.85004
38674.5 11.4674
38677.1 16.6108
38679.8 23.6723
38685.0 38.6633
38687.6 41.5280
38690.3 40.1471
38695.5 32.0778
38699.8 25.9477
38704.1 21.4624
38708.4 18.2825
38712.6 15.9939
38721.2 13.0164
38729.8 11.2160
38738.3 10.0309
38746.9 9.19920
38764.0 8.11701
38781.1 7.44697
38798.2 6.99158
38832.5 6.40960
38866.7 6.04869
38901.0 5.79813
38969.4 5.45948
39037.9 5.22134
39106.4 5.01422
39140.6 4.90049
39157.7 4.83287
39174.9 4.74981
39192.0 4.63608
39200.5 4.55711
39209.1 4.45059
39217.7 4.29420
39226.2 4.03520
39230.5 3.83017
39234.8 3.54342
39239.1 3.30145
39240.1 3.41140
39241.2 3.85659
39242.3 5.24781
39242.8 6.76741
39243.3 9.37041
39243.8 12.5769
39244.2 16.9402
39245.0 25.9190
39245.8 26.5452
39246.7 21.4843
39247.4 17.3166
39248.2 14.4478
39248.9 12.4687
39249.7 11.1058
39251.2 9.37215
39252.7 8.35261
39254.2 7.69319
39255.7 7.23592
39258.8 6.64789
39261.8 6.28812
39264.8 6.04588
39270.8 5.74042
39276.9 5.55404
39282.9 5.42746
39295.0 5.26369
39307.1 5.15900
39319.1 5.08385
39343.3 4.97759
39367.4 4.90066
39391.6 4.83843
39439.9 4.73583
39536.4 4.56379
39633.0 4.39722
39729.6 4.20755
39777.9 4.09128
39826.2 3.94641
39874.5 3.74720
39898.7 3.60977
39922.8 3.42662
39934.9 3.30819
39947.0 3.16321
39959.0 2.98077
39971.1 2.74457
39983.2 2.43227
39995.2 2.04172
40001.3 1.87378
40004.3 1.84985
40007.3 1.93631
40010.3 2.26954
40013.4 3.17158
40014.9 4.05413
40016.4 5.45399
40017.9 7.67268
40019.4 11.1265
40020.8 15.9688
40022.2 22.4897
40025.0 36.0721
40026.4 38.4367
40027.8 36.9024
40030.6 29.1382
40032.8 23.7368
40034.9 19.7214
40037.0 16.8250
40039.1 14.7205
40043.4 11.9317
40047.6 10.2303
40051.9 9.10120
40056.2 8.30845
40064.7 7.27507
40073.2 6.63470
40081.7 6.20035
40098.7 5.64769
40115.7 5.30703
40132.7 5.07259
40166.7 4.76109
40200.8 4.55213
40234.8 4.39203
40302.8 4.13530
40370.9 3.89975
40404.9 3.77281
40438.9 3.62741
40473.0 3.44401
40490.0 3.32517
40507.0 3.17280
40524.0 2.95992
40532.5 2.81366
40541.0 2.62287
40549.5 2.36189
40558.0 1.99904
40562.3 1.79141
40566.5 1.68607
40568.7 1.82920
40570.8 2.42986
40571.9 3.14450
40572.9 4.42052
40574.0 6.72726
40575.0 10.8774
40575.8 15.4427
40576.5 21.5609
40578.0 33.9421
40578.7 35.8758
40579.5 34.1986
40581.0 26.6779
40582.1 21.5355
40583.2 17.7851
40584.3 15.0950
40585.5 13.1403
40587.7 10.5748
40589.9 9.01345
40592.2 7.97962
40594.4 7.25759
40598.9 6.31884
40603.4 5.73769
40607.9 5.34443
40616.8 4.84204
40625.8 4.53054
40634.8 4.31396
40652.7 4.02095
40670.7 3.81863
40688.6 3.65896
40724.5 3.39447
40760.4 3.15063
40796.2 2.89334
40832.1 2.59254
40850.1 2.41221
40868.0 2.19912
40868.0 2.19856
40868.1 2.19751
40868.2 2.19646
40868.3 2.19449
40868.6 2.19054
40869.2 2.18260
40870.4 2.16654
40872.8 2.13356
40877.6 2.06460
40887.3 1.91191
40896.9 1.73431
40906.5 1.52395
40916.1 1.27470
40925.7 1.01304
40930.6 0.943231
40933.0 0.971614
40935.4 1.09849
40937.8 1.42532
40940.2 2.16696
40941.4 2.83605
40942.6 3.82790
40943.8 5.30722
40945.0 7.49358
40946.2 10.8137
40947.5 15.2337
40950.0 24.2190
40951.3 25.6163
40952.5 24.3873
40955.0 18.9018
40957.3 14.5400
40959.6 11.5542
40961.9 9.52923
40964.2 8.12752
40968.7 6.35333
40973.3 5.30115
40977.9 4.60935
40982.4 4.11839
40991.6 3.45979
41000.7 3.02670
41009.8 2.71433
41028.1 2.30608
41046.4 2.16790
41064.7 2.54242
41073.8 3.15475
41082.9 4.34633
41092.1 6.58663
41101.2 10.6832
41107.9 15.5114
41114.6 22.1550
41128.0 36.3169
41134.7 39.0213
41141.4 37.7178
41154.8 30.0642
41169.2 22.7108
41183.6 17.9083
41198.1 14.8131
41212.5 12.7289
41226.9 11.2550
41241.3 10.1663
41270.2 8.67270
41299.0 7.69216
41327.8 6.98963
41385.5 6.00933
41443.2 5.28209
41472.0 4.94713
41500.9 4.60488
41529.7 4.23914
41558.5 3.86743
41573.0 3.74346
41587.4 3.84738
41594.6 4.15002
41601.8 4.86940
41609.0 6.48717
41616.2 10.0369
41624.1 17.9713
41632.0 27.4991
41639.9 28.1300
41647.8 22.7042
41655.1 18.2215
41662.3 15.1116
41669.6 13.0019
41676.9 11.5300
41691.4 9.66498
41706.0 8.55586
41720.5 7.82512
41735.0 7.30717
41764.1 6.61356
41793.2 6.15919
41822.2 5.82757
41880.4 5.34507
41996.7 4.58376
42025.7 4.34551
42040.3 4.19417
42054.8 4.00160
42069.4 3.73331
42076.6 3.54933
42083.9 3.31016
42091.2 2.98550
42098.4 2.54216
42102.1 2.29672
42105.7 2.18043
42107.5 2.34293
42109.3 2.97506
42110.2 3.68101
42111.1 4.88674
42112.1 6.93363
42113.0 10.3160
42113.7 14.7832
42114.5 20.8314
42116.0 33.6473
42116.8 36.0880
42117.5 34.8652
42119.1 27.9229
42120.0 23.8802
42120.9 20.6317
42122.7 16.1728
42124.6 13.4305
42126.4 11.6449
42128.2 10.4085
42130.1 9.51993
42133.7 8.33264
42137.4 7.58044
42141.0 7.06581
42148.4 6.40550
42155.7 5.99745
42163.0 5.71823
42177.7 5.35277
42192.3 5.11605
42207.0 4.94326
42236.3 4.69203
42265.6 4.50118
42294.9 4.33731
42353.5 4.03398
42412.1 3.70718
42441.4 3.51235
42470.7 3.27539
42500.0 2.96246
42514.6 2.75676
42529.3 2.49627
42543.9 2.14994
42551.3 1.92988
42558.6 1.67148
42565.9 1.38328
42573.2 1.16238
42576.9 1.22124
42578.7 1.37801
42580.6 1.70517
42582.4 2.33367
42584.2 3.50815
42586.1 5.68896
42587.9 9.69389
42589.2 14.1752
42590.5 20.2582
42593.0 32.8161
42594.3 34.9827
42595.6 33.5150
42598.1 26.2664
42600.8 19.7248
42603.4 15.4431
42606.0 12.6613
42608.6 10.7779
42611.3 9.43725
42613.9 8.44897
42619.2 7.08902
42624.4 6.19177
42629.7 5.54780
42640.2 4.64825
42650.8 4.01380
42656.0 3.76519
42661.3 3.58180
42666.6 3.53016
42671.8 3.81087
42677.1 5.05401
42679.7 6.57324
42682.3 9.33328
42686.2 16.9021
42690.0 26.0199
42693.8 26.6074
42697.7 21.3865
42701.4 16.8474
42705.2 13.7777
42708.9 11.7374
42712.7 10.3329
42720.2 8.57172
42727.7 7.53055
42735.2 6.84386
42742.6 6.35605
42757.6 5.69908
42772.6 5.26586
42787.6 4.94902
42817.6 4.49221
42847.6 4.15150
42877.6 3.86369
42937.5 3.33846
42997.5 2.78506
43027.5 2.47369
43057.5 2.13606
43087.5 1.80058
43102.5 1.67060
43117.4 1.62607
43132.4 1.78886
43147.4 2.45811
43154.9 3.19156
43162.4 4.41368
43169.9 6.42991
43177.4 9.69168
43184.3 14.2843
43191.2 20.6405
43205.0 34.3862
43211.9 37.1711
43218.8 36.1146
43232.6 29.0087
43246.5 22.4098
43260.3 17.9220
43274.2 14.9386
43288.1 12.8858
43315.8 10.3099
43343.6 8.77979
43371.3 7.76144
43399.0 7.02325
43454.5 5.97726
43510.0 5.19149
43565.5 4.48693
43593.2 4.15899
43607.1 4.02462
43620.9 3.94902
43634.8 4.01456
43648.7 4.43167
43662.5 5.77843
43669.5 7.23253
43676.4 9.66456
43688.2 17.2436
43700.0 26.5354
43711.8 27.3749
43723.6 22.2686
43732.8 18.5500
43742.0 15.7808
43751.1 13.7794
43760.3 12.3140
43778.6 10.3654
43797.0 9.15196
43815.3 8.32791
43833.7 7.72934
43870.3 6.89907
43907.0 6.31253
43943.7 5.80295
43962.1 5.51931
43971.2 5.34857
43980.4 5.13776
43989.6 4.85117
43994.2 4.65650
43998.7 4.40408
44003.3 4.05902
44007.9 3.57586
44012.5 3.08343
44013.6 3.16202
44014.8 3.64842
44015.4 4.24671
44015.9 5.28491
44016.5 7.08130
44017.1 10.1332
44017.6 14.2486
44018.0 19.8531
44019.0 32.0521
44019.5 34.6433
44020.0 33.7934
44020.9 27.6830
44021.5 23.8317
44022.2 20.7377
44023.4 16.5276
44024.6 13.9552
44025.8 12.2865
44027.0 11.1380
44028.2 10.3077
44030.6 9.19753
44033.1 8.49201
44035.5 8.00885
44040.3 7.38640
44045.2 6.99945
44050.0 6.73367
44059.7 6.38444
44069.4 6.15761
44079.1 5.99298
44098.4 5.75806
44117.8 5.58795
44137.2 5.45177
44175.9 5.23380
44253.4 4.89828
44330.9 4.61649
44408.3 4.34641
44485.8 4.05032
44524.6 3.86815
44543.9 3.75713
44563.3 3.62126
44582.7 3.43998
44592.4 3.31877
44602.0 3.16239
44611.7 2.94780
44621.4 2.63594
44631.1 2.24712
44633.5 2.24220
44635.9 2.48949
44637.2 2.85612
44638.4 3.58151
44639.6 4.99441
44640.8 7.70653
44641.6 10.6816
44642.4 14.7021
44644.0 23.2529
44645.6 24.0251
44647.2 19.3529
44648.5 15.9691
44649.7 13.4723
44651.0 11.6712
44652.2 10.3569
44654.7 8.62253
44657.2 7.55951
44659.6 6.85111
44662.1 6.35288
44667.1 5.69917
44672.1 5.28936
44677.0 5.00835
44686.9 4.64233
44696.9 4.40862
44706.8 4.24096
44726.7 4.00321
44746.5 3.82811
44766.4 3.68151
44806.1 3.41964
44845.8 3.15339
44865.7 3.00360
44885.5 2.83027
44905.4 2.61358
44915.3 2.47684
44925.2 2.30836
44935.2 2.09061
44945.1 1.80206
44950.1 1.64287
44955.0 1.57112
44957.5 1.69856
44960.0 2.22174
44961.2 2.84886
44962.5 4.00966
44963.7 6.19675
44965.0 10.3376
44966.5 19.8001
44968.0 30.1445
44968.8 31.4195
44969.5 29.5634
44971.1 22.5971
44972.3 17.7908
44973.5 14.4103
44974.7 12.0400
44976.0 10.3719
44978.4 8.22404
44980.9 6.94517
44983.3 6.11212
44985.8 5.53126
44990.6 4.77918
44995.5 4.31066
45000.4 3.98887
45010.2 3.56426
45020.0 3.28427
45029.8 3.07500
45049.4 2.75636
45088.6 2.25815
45127.7 1.78267
45166.9 1.25800
45186.5 0.968262
45206.1 0.667537
45225.7 0.391564
45235.5 0.297846
45245.2 0.283053
45250.1 0.330298
45255.0 0.437167
45259.9 0.632943
45264.8 0.960715
45269.7 1.48952
45274.6 2.32094
45279.5 3.61494
45284.4 5.58595
45289.6 8.67678
45294.7 12.9568
45305.0 22.2217
45310.2 24.1178
45315.3 23.4523
45325.6 18.8591
45333.0 15.7600
45340.4 13.5170
45355.2 11.2473
45370.0 11.3315
45384.8 13.8822
45395.4 17.6413
45405.9 23.2293
45427.0 35.7454
45448.1 37.0859
45469.2 30.0780
45487.3 24.4017
45505.4 20.2622
45523.5 17.3314
45541.6 15.2166
45577.8 12.4395
45613.9 10.7274
45650.1 9.57336
45686.3 8.74150
45758.7 7.61035
45831.0 6.85401
45903.4 6.27540
45939.6 6.00974
45975.7 5.72148
45993.8 5.54187
46002.9 5.42975
46011.9 5.28930
46021.0 5.09636
46030.0 4.79464
46034.5 4.56142
46039.1 4.23473
46043.6 3.90070
46044.7 3.95094
46045.8 4.27600
46047.0 5.36649
46047.5 6.59114
46048.1 8.64400
46048.6 11.4032
46049.1 15.1595
46050.0 23.4475
46051.0 24.6208
46051.9 20.4646
46052.9 16.5171
46053.8 13.8698
46054.8 12.1154
46055.8 10.9135
46057.7 9.41327
46059.6 8.54450
46061.5 7.98055
46063.5 7.59049
46067.3 7.08313
46071.2 6.76754
46075.0 6.55064
46082.7 6.26716
46090.4 6.08474
46098.1 5.95307
46113.5 5.76618
46128.9 5.63053
46144.3 5.52076
46175.1 5.34050
46236.7 5.04405
46298.3 4.76877
46359.9 4.47123
46390.7 4.29635
46421.5 4.08504
46452.3 3.80424
46467.7 3.61631
46483.1 3.37292
46498.5 3.03718
46506.2 2.81542
46513.9 2.54353
46529.3 1.89659
46533.1 1.85078
46537.0 2.14746
46538.9 2.62830
46540.8 3.59030
46542.7 5.46464
46544.6 9.03454
46546.0 13.1241
46547.3 18.7980
46550.0 31.1386
46551.3 33.6849
46552.7 32.7964
46555.4 26.5276
46557.5 21.6444
46559.7 18.0324
46561.9 15.4527
46564.1 13.5856
46568.4 11.1414
46572.8 9.65252
46577.2 8.66631
46581.5 7.97005
46590.2 7.05625
46599.0 6.48324
46607.7 6.08833
46625.1 5.57202
46642.6 5.23995
46660.0 4.99986
46694.9 4.65523
46729.8 4.39609
46764.6 4.17351
46834.4 3.75483
46904.1 3.28721
46939.0 3.00208
46973.9 2.65646
47008.8 2.22108
47026.2 1.96179
47043.7 1.68093
47061.1 1.41922
47078.5 1.35263
47087.3 1.57982
47096.0 2.28308
47100.3 2.98227
47104.7 4.08089
47109.1 5.78673
47113.4 8.38603
47118.1 12.5448
47122.7 18.3566
47132.0 31.1827
47136.7 33.9669
47141.3 33.2195
47150.6 26.9660
47157.7 22.2854
47164.7 18.7065
47171.8 16.0752
47178.8 14.1291
47192.9 11.5147
47207.0 9.88376
47221.1 8.78262
47235.2 7.99368
47263.4 6.93682
47291.5 6.25441
47319.7 5.76912
47376.1 5.10082
47432.5 4.63267
47488.9 4.25957
47601.6 3.63245
47714.4 3.04875
47770.7 2.75968
47827.1 2.48733
47883.5 2.28425
47939.9 2.31568
47968.0 2.55608
47996.2 3.11841
48024.4 4.27174
48052.6 6.48366
48074.0 9.26023
48095.3 13.1829
48138.0 21.8152
48159.4 23.5374
48180.7 22.7544
48202.1 20.5228
48223.4 18.0680
48233.9 17.1469
48244.4 16.7563
48254.9 17.5306
48265.4 20.9432
48276.2 29.7816
48287.0 41.3646
48297.8 42.5069
48308.6 35.7633
48320.1 29.1018
48331.6 24.5276
48343.1 21.4151
48354.6 19.1993
48377.6 16.2556
48400.6 14.3625
48423.6 13.0189
48446.6 12.0019
48492.6 10.5399
48538.6 9.51876
48584.6 8.75165
48676.6 7.64334
48768.6 6.83543
48860.6 6.14958
48906.6 5.79931
48952.6 5.38039
48975.6 5.09651
48987.1 4.91196
48998.6 4.67500
49010.1 4.34495
49015.8 4.11999
49021.6 3.82979
49027.3 3.44209
49033.1 2.92233
49038.8 2.43746
49040.2 2.49650
49041.7 2.84751
49043.1 3.86929
49043.8 4.86265
49044.5 6.35826
49045.4 9.17569
49046.3 13.2651
49048.0 23.1833
49048.9 25.8962
49049.7 26.0073
49051.5 22.2731
49053.2 18.2204
49054.9 15.3264
49056.7 13.3411
49058.4 11.9472
49060.1 10.9333
49061.9 10.1700
49065.3 9.10680
49068.8 8.40433
49072.2 7.90912
49079.2 7.25303
49086.1 6.83301
49093.0 6.53696
49106.9 6.13384
49120.7 5.85781
49134.6 5.64406
49162.3 5.30090
49190.0 4.98923
49203.8 4.82280
49217.7 4.63320
49231.5 4.39721
49238.4 4.24829
49245.4 4.06650
49252.3 3.83800
49259.2 3.56609
49262.7 3.45741
49266.1 3.52560
49267.9 3.78991
49269.6 4.49603
49271.3 6.31166
49272.2 8.13159
49273.0 11.0151
49274.5 19.6560
49276.0 29.5437
49277.5 29.5683
49279.0 23.4004
49279.9 19.8119
49280.9 17.0317
49282.8 13.3699
49284.6 11.2083
49286.5 9.83811
49288.4 8.90635
49290.3 8.24468
49294.1 7.36973
49297.9 6.81894
49301.7 6.44183
49309.2 5.95330
49316.8 5.64398
49324.4 5.42510
49339.5 5.12130
49354.6 4.90575
49369.8 4.73354
49400.0 4.45110
49460.6 3.97551
49521.1 3.52552
49581.6 3.09136
49642.1 2.80110
49672.4 2.87231
49702.7 3.36850
49732.9 4.89561
49748.1 6.45005
49763.2 8.91805
49778.9 12.8597
49794.6 18.4822
49826.0 31.3374
49841.7 34.3951
49857.4 33.9771
49888.8 28.2292
49916.6 23.0990
49944.4 19.3294
49972.2 16.6674
50000.0 14.7543
50030.0 13.2406
50060.0 12.1062
50120.0 10.5274
50180.0 9.47705
50240.0 8.71327
50300.1 8.10723
50360.1 7.56209
50390.1 7.26716
50405.1 7.09509
50420.1 6.88707
50435.1 6.60691
50442.6 6.41458
50450.1 6.15681
50457.6 5.77989
50461.3 5.51222
50465.1 5.15447
50468.8 4.65271
50472.6 3.91998
50476.3 2.99743
50478.2 3.15397
50479.1 4.30855
50479.6 5.62623
50480.1 7.77881
50480.6 11.4643
50481.0 16.8235
50482.0 29.9391
50482.5 33.7261
50483.0 34.0543
50483.9 29.4335
50484.6 25.8387
50485.2 22.8815
50486.5 18.7096
50487.7 16.1038
50489.0 14.3875
50490.3 13.1841
50491.5 12.3132
50494.0 11.1352
50496.6 10.3771
50499.1 9.85294
50504.1 9.17152
50509.2 8.74453
50514.2 8.44997
50524.3 8.06163
50534.4 7.80923
50544.5 7.62586
50564.7 7.36281
50584.9 7.16859
50605.0 7.00779
50645.4 6.72771
50685.8 6.44874
50706.0 6.28941
50726.1 6.09829
50746.3 5.84555
50756.4 5.67799
50766.5 5.46436
50776.6 5.18042
50786.7 4.79889
50791.7 4.58574
50796.8 4.45593
50799.3 4.53137
50801.8 4.88843
50804.3 5.93665
50806.9 8.67933
50808.2 11.3280
50809.4 15.0603
50812.0 23.5778
50814.6 25.2849
50817.1 21.4505
50819.0 18.6036
50820.9 16.3716
50822.7 14.6965
50824.6 13.4426
50828.3 11.7247
50832.0 10.6414
50835.7 9.90440
50839.4 9.37704
50846.9 8.67349
50854.3 8.22694
50861.7 7.91745
50876.6 7.51282
50891.4 7.25463
50906.3 7.07131
50936.0 6.81867
50965.7 6.64299
50995.4 6.50645
51054.9 6.29202
51173.7 5.93687
51203.4 5.83404
51233.2 5.69451
51248.0 5.58788
51262.9 5.41198
51270.3 5.26118
51277.7 5.00410
51281.5 4.79052
51285.2 4.46493
51288.9 4.01104
51290.7 4.08928
51291.7 4.84912
51292.1 5.82498
51292.6 7.64020
51292.9 9.98271
51293.3 13.2184
51294.0 20.6859
51294.7 22.2136
51295.4 18.8824
51296.4 14.7139
51297.3 12.2142
51298.3 10.6885
51299.2 9.71642
51301.1 8.56280
51303.0 7.91843
51306.8 7.23239
51310.5 6.87567
51318.1 6.50668
51325.6 6.31510
51333.2 6.19480
51340.8 6.11050
51355.9 5.99563
51371.0 5.91673
51386.1 5.85586
51416.3 5.76123
51476.7 5.61677
51537.2 5.49213
51597.6 5.36828
51658.1 5.22663
51688.3 5.13503
51718.5 5.00240
51733.6 4.89669
51748.7 4.71695
51756.3 4.55831
51763.8 4.27847
51767.6 4.03464
51771.4 3.63395
51773.3 3.32559
51775.2 2.91939
51777.0 2.63764
51778.0 3.26237
51778.5 4.48577
51778.9 7.39623
51779.2 10.3752
51779.5 14.6681
51780.0 24.5219
51780.3 26.8873
51780.5 26.5945
51781.1 22.2793
51781.7 17.2391
51782.4 14.0321
51783.0 12.0174
51783.7 10.6867
51785.0 9.08392
51786.3 8.17381
51788.9 7.19298
51791.5 6.68252
51796.7 6.15726
51801.9 5.88797
51807.1 5.72228
51812.3 5.60852
51822.7 5.45889
51833.2 5.36066
51843.6 5.28795
51864.4 5.17947
51906.1 5.01695
51947.7 4.86494
51989.4 4.68429
52010.2 4.56761
52031.1 4.41685
52051.9 4.20490
52062.3 4.05947
52072.7 3.87174
52083.1 3.62184
52093.6 3.29627
52098.8 3.13051
52104.0 3.07478
52106.6 3.20142
52109.2 3.61323
52111.8 4.68461
52114.4 7.27590
52115.8 9.84099
52117.2 13.4331
52120.0 21.5246
52122.8 22.9966
52125.6 19.2249
52128.4 15.6663
52131.1 13.1743
52133.8 11.4859
52136.5 10.3110
52139.3 9.46293
52142.0 8.82892
52147.5 7.95386
52152.9 7.38399
52158.4 6.98554
52169.3 6.46625
52180.2 6.14192
52191.1 5.91855
52213.0 5.62624
52234.8 5.43760
52256.6 5.30093
52300.3 5.10426
52344.0 4.95644
52387.7 4.82948
52475.0 4.58329
52475.0 4.58317
52475.1 4.58296
52475.1 4.58277
52475.3 4.58240
52475.5 4.58166
52476.0 4.58019
52477.0 4.57719
52478.9 4.57117
52482.8 4.55899
52490.5 4.53388
52506.0 4.47977
52537.0 4.34236
52552.5 4.24061
52568.0 4.07685
52575.7 3.93761
52583.4 3.69804
52587.3 3.49353
52591.2 3.16293
52595.1 2.60627
52597.0 2.48846
52598.0 3.23878
52598.4 4.52552
52598.9 7.47553
52599.2 10.3657
52599.5 14.4426
52600.0 23.4283
52600.3 25.3461
52600.5 24.7766
52601.1 20.3708
52601.6 16.5149
52602.1 13.7444
52603.1 10.5450
52604.1 8.86653
52605.0 7.87097
52607.0 6.76661
52609.0 6.18301
52613.0 5.57854
52616.9 5.26950
52624.9 4.95013
52632.8 4.78158
52648.7 4.59384
52664.5 4.47992
52696.3 4.32262
52728.0 4.19639
52791.5 3.95600
52855.0 3.68418
52918.4 3.33396
52950.2 3.10645
52981.9 2.82116
53013.6 2.44488
53029.5 2.20544
53045.4 1.91855
53061.2 1.57529
53077.1 1.20238
53085.0 1.06814
53093.0 1.12792
53096.9 1.35390
53100.9 1.87128
53104.9 2.94966
53108.8 5.07295
53111.6 7.59134
53114.4 11.1328
53120.0 19.0591
53122.8 20.8121
53125.6 20.3739
53131.2 16.5171
53136.4 13.0236
53141.6 10.5240
53146.8 8.78796
53152.1 7.55042
53162.5 5.94309
53172.9 4.99448
53183.4 4.49782
53193.8 4.54686
53204.3 5.67840
53209.5 7.07397
53214.7 9.46517
53219.5 12.9663
53224.4 17.9244
53234.0 29.0441
53243.7 30.8782
53253.3 25.4463
53263.2 20.1190
53273.2 16.4730
53283.1 14.0408
53293.0 12.3623
53312.9 10.2440
53332.7 8.98225
53352.6 8.14682
53372.4 7.55126
53412.1 6.74890
53451.9 6.22095
53491.6 5.83507
53571.0 5.27536
53650.4 4.84236
53729.8 4.43909
53769.5 4.22155
53809.2 3.96340
53829.1 3.79683
53849.0 3.56348
53858.9 3.38637
53868.8 3.10397
53873.8 2.87327
53878.7 2.50800
53881.2 2.23450
53883.7 1.88250
53886.2 1.67643
53887.4 2.34756
53888.0 3.62392
53888.7 6.71479
53889.0 9.71119
53889.3 13.8554
53890.0 23.1987
53890.3 25.2526
53890.7 24.7121
53891.3 20.2454
53891.9 16.8260
53892.4 14.2135
53893.4 10.9156
53894.5 9.06181
53895.5 7.91833
53897.6 6.61458
53899.6 5.90591
53901.7 5.45950
53903.8 5.15466
53907.9 4.75940
53912.1 4.51077
53916.2 4.33602
53924.5 4.09717
53932.9 3.93109
53941.2 3.80071
53957.8 3.58992
54024.2 2.88232
54057.4 2.50631
54074.0 2.31684
54090.6 2.15004
54107.2 2.06233
54123.8 2.20796
54132.1 2.48398
54140.4 3.02872
54148.7 4.03317
54157.0 5.80577
54164.3 8.30453
54171.5 11.8883
54186.0 20.1377
54193.3 22.1230
54200.5 21.8730
54215.0 18.1723
54228.8 14.6089
54242.6 12.0314
54256.4 10.2229
54270.3 8.91341
54297.9 7.13757
54325.5 5.94014
54353.1 5.02906
54380.8 4.37070
54394.6 4.24683
54408.4 4.50129
54422.2 5.71310
54429.1 7.09800
54436.0 9.42752
54442.5 12.8905
54449.0 17.8346
54462.0 29.0991
54475.0 31.2780
54488.0 26.0829
54498.3 21.9080
54508.6 18.7263
54518.9 16.3957
54529.3 14.6722
54549.9 12.3533
54570.5 10.8923
54591.1 9.89160
54611.8 9.16122
54653.0 8.14948
54694.2 7.44971
54735.5 6.87870
54756.1 6.58962
54766.4 6.42735
54776.7 6.23743
54787.1 5.99229
54797.4 5.62271
54802.5 5.33512
54807.7 4.90496
54812.8 4.26143
54815.4 4.15594
54816.7 4.76767
54817.3 5.64842
54818.0 7.35203
54818.5 9.65561
54819.0 12.9566
54820.0 20.9313
54821.0 23.1200
54822.0 20.0456
54822.9 17.1671
54823.8 15.0046
54824.6 13.4400
54825.5 12.2975
54827.2 10.7792
54828.9 9.84878
54830.7 9.22193
54832.4 8.77746
54835.8 8.18432
54839.3 7.80601
54842.7 7.54124
54849.6 7.18811
54856.5 6.95539
54863.4 6.78374
54877.2 6.53245
54891.0 6.34090
54904.8 6.17672
54932.4 5.87299
54960.0 5.54031
54973.8 5.33503
54987.6 5.07615
55001.4 4.71863
55008.3 4.47627
55015.2 4.16612
55022.1 3.75694
55029.0 3.22874
55032.4 2.95916
55035.9 2.84523
55037.6 2.99825
55039.3 3.51793
55041.0 4.83378
55041.9 6.04635
55042.8 7.85008
55043.8 11.2379
55044.9 16.0943
55047.0 27.4912
55048.1 30.4292
55049.1 30.3139
55051.3 25.6515
55053.2 21.2730
55055.0 18.0443
55056.9 15.7567
55058.8 14.1124
55062.6 11.9673
55066.4 10.6681
55070.2 9.80474
55074.0 9.19568
55081.5 8.39243
55089.1 7.88672
55096.7 7.53741
55111.8 7.08130
55126.9 6.79021
55142.1 6.58356
55172.3 6.29886
55202.6 6.10191
55232.9 5.95021
55293.4 5.71732
55414.5 5.37449
55535.6 5.08848
55656.7 4.80123
55717.2 4.64030
55777.7 4.45333
55838.3 4.21860
55868.6 4.07039
55898.8 3.88799
55929.1 3.65024
55944.2 3.49780
55959.4 3.30926
55974.5 3.06163
55982.1 2.90113
55989.6 2.69992
55997.2 2.43022
56004.8 2.03147
56008.6 1.74380
56012.3 1.37126
56016.1 1.04983
56018.0 1.41671
56019.0 2.27780
56019.9 4.39570
56020.4 6.60802
56021.0 9.71903
56022.0 16.9772
56022.5 18.7785
56023.1 18.6232
56024.1 15.5121
56025.1 12.3847
56026.2 10.1699
56027.2 8.65968
56028.3 7.61062
56030.3 6.25772
56032.4 5.44678
56034.5 4.90291
56036.6 4.51347
56040.7 3.97957
56049.0 3.35482
56057.3 2.98915
56065.6 2.81890
56073.9 3.00164
56078.0 3.37686
56082.2 4.12809
56086.3 5.53531
56090.5 8.05913
56093.9 11.3996
56097.2 16.1178
56104.0 26.7592
56110.8 28.7401
56117.5 23.8003
56123.4 19.5200
56129.4 16.3831
56135.3 14.1709
56141.2 12.5846
56153.0 10.5231
56164.8 9.27152
56176.6 8.44134
56188.5 7.85294
56212.1 7.07468
56235.7 6.58040
56259.4 6.23500
56306.7 5.77375
56353.9 5.46732
56401.2 5.23751
56495.8 4.88501
56590.3 4.58425
56684.9 4.26854
56732.2 4.07925
56779.4 3.83608
56803.1 3.67105
56814.9 3.56671
56826.7 3.43694
56838.5 3.26298
56850.4 2.99977
56856.3 2.80153
56862.2 2.52520
56868.1 2.24242
56869.6 2.29745
56871.0 2.63313
56872.5 3.85452
56873.3 5.33282
56874.0 8.01245
56874.5 11.0006
56875.0 14.9541
56876.0 23.1496
56877.0 23.5086
56878.0 18.6955
56878.6 15.9439
56879.3 13.7669
56880.5 10.8331
56881.7 9.05458
56883.0 7.90711
56885.4 6.54983
56887.9 5.79522
56890.4 5.31530
56892.8 4.98505
56897.7 4.55293
56902.7 4.27634
56907.6 4.07718
56917.5 3.79157
56937.2 3.38734
56956.9 3.02793
56976.6 2.63737
56996.3 2.20600
57006.2 2.03192
57016.1 2.06467
57021.0 2.31443
57025.9 2.94557
57030.9 4.36920
57033.3 5.61979
57035.8 7.42150
57038.8 10.7097
57041.9 15.3228
57048.0 25.6435
57051.1 27.9511
57054.1 27.4275
57060.2 22.5248
57067.2 17.2781
57074.2 13.8694
57081.1 11.6897
57088.1 10.2298
57095.0 9.20072
57102.0 8.44203
57115.9 7.40264
57129.8 6.72180
57143.8 6.23648
57171.6 5.56837
57199.5 5.09162
57227.3 4.66958
57241.2 4.43439
57255.1 4.12633
57262.1 3.90468
57269.1 3.57844
57272.5 3.34514
57276.0 3.05258
57279.5 2.87238
57281.2 3.33998
57282.1 4.21603
57283.0 6.23810
57283.5 8.36892
57284.0 11.3324
57285.0 18.1193
57286.0 19.4606
57287.0 16.3866
57287.8 13.9739
57288.6 12.1424
57290.1 9.77460
57291.7 8.42127
57293.2 7.57605
57296.3 6.59827
57299.4 6.05577
57302.5 5.70789
57305.6 5.46421
57311.8 5.13910
57318.0 4.92364
57324.2 4.76417
57336.6 4.52855
57361.4 4.19078
57386.1 3.90553
57410.9 3.61395
57435.7 3.26571
57448.1 3.03702
57460.5 2.71640
57466.7 2.47973
57472.8 2.12931
57475.9 1.87619
57479.0 1.55269
57482.1 1.30648
57483.7 1.71034
57484.5 2.53896
57485.2 4.50700
57485.7 6.60514
57486.1 9.54050
57487.0 16.3766
57487.5 18.0540
57487.9 17.8805
57488.8 14.9156
57489.7 11.7434
57490.7 9.60691
57491.7 8.18159
57492.6 7.21679
57494.5 6.00629
57496.4 5.29648
57500.2 4.49539
57504.0 4.05027
57511.7 3.54133
57519.3 3.22971
57534.5 2.80574
57549.8 2.49903
57565.1 2.31239
57580.3 2.41708
57587.9 2.73076
57595.6 3.40823
57603.2 4.74538
57610.8 7.24577
57616.9 10.5321
57622.9 15.2541
57635.0 26.2025
57641.1 28.9102
57647.1 28.6861
57659.2 23.9967
57666.9 20.8202
57674.6 18.2123
57690.0 14.5712
57705.3 12.3109
57720.7 10.8251
57736.1 9.78985
57751.5 9.03223
57782.2 8.00166
57813.0 7.33190
57843.7 6.85866
57905.3 6.22274
57966.8 5.80067
58028.3 5.48618
58151.3 5.00914
58274.3 4.60416
58397.3 4.16945
58458.9 3.89965
58520.4 3.54562
58551.1 3.30642
58581.9 2.97905
58597.3 2.74810
58612.6 2.41527
58620.3 2.17050
58628.0 1.81945
58635.7 1.31632
58639.5 1.26965
58641.5 1.87321
58642.4 2.76787
58643.4 4.57562
58644.0 6.68976
58644.7 9.63938
58646.0 16.3576
58646.7 17.9184
58647.3 17.6433
58648.6 14.5582
58649.5 12.3661
58650.4 10.6451
58652.2 8.33384
58654.0 6.95073
58655.8 6.06072
58659.4 5.00152
58663.0 4.39394
58666.6 3.99375
58670.2 3.70585
58677.4 3.30261
58691.9 2.79004
58706.3 2.43957
58720.7 2.21896
58735.1 2.27980
58742.3 2.56284
58749.5 3.20357
58756.7 4.50521
58763.9 6.99628
58769.4 10.1938
58775.0 14.7785
58786.0 25.4091
58791.5 28.0317
58797.1 27.8028
58808.1 23.2337
58819.7 18.4397
58831.2 15.1296
58842.8 12.9198
58854.3 11.3960
58865.9 10.3004
58877.5 9.48152
58900.6 8.34646
58923.7 7.59701
58946.8 7.06203
58993.0 6.33200
59039.3 5.82238
59085.5 5.37969
59108.6 5.13130
59120.2 4.98074
59131.8 4.79341
59143.3 4.53512
59149.1 4.35644
59154.9 4.11821
59160.7 3.77707
59166.4 3.24126
59169.3 2.84788
59172.2 2.35460
59175.1 2.04175
59176.5 2.66811
59177.3 3.77268
59178.0 6.12962
59178.5 9.08054
59179.0 13.3251
59180.0 23.6475
59180.5 26.4725
59181.0 26.5778
59182.0 22.6851
59182.9 19.0369
59183.7 16.2761
59184.6 14.2472
59185.4 12.7793
59187.2 10.8200
59188.9 9.60884
59190.6 8.79631
59192.3 8.21596
59195.7 7.44373
59199.1 6.94606
59202.5 6.59291
59209.4 6.10120
59223.0 5.35330
59226.5 5.11893
59229.9 4.80752
59233.3 4.41439
59235.0 4.48707
59235.9 5.11531
59236.7 7.41959
59237.4 11.9475
59238.0 17.9245
59238.7 19.0368
59239.3 16.2678
59240.1 13.1759
59240.8 11.2139
59242.4 9.13120
59243.9 8.12185
59245.4 7.54176
59248.5 6.90541
59251.5 6.56063
59257.7 6.18497
59263.8 5.97375
59276.0 5.72526
59288.3 5.57044
59312.7 5.36651
59337.2 5.22426
59386.1 5.01602
59435.1 4.85487
59533.0 4.59084
59630.8 4.35562
59728.7 4.11827
59826.6 3.84669
59875.6 3.67724
59900.0 3.57473
59924.5 3.45092
59949.0 3.28872
59961.2 3.18147
59973.4 3.04293
59985.7 2.84864
59997.9 2.54215
60004.0 2.30675
60010.2 1.98196
60016.3 1.68265
60017.8 1.76273
60019.3 2.14227
60020.9 3.33287
60021.6 4.60779
60022.4 6.74045
60023.0 9.61649
60023.7 13.5360
60025.0 22.0774
60025.7 23.8132
60026.3 23.1565
60027.6 18.7586
60028.7 15.4262
60029.7 12.9460
60030.7 11.1632
60031.8 9.87704
60033.9 8.16637
60035.9 7.12429
60038.0 6.42861
60040.1 5.93897
60044.2 5.29349
60048.4 4.88799
60052.5 4.60794
60060.8 4.24006
60069.1 4.00067
60077.4 3.82414
60094.0 3.55761
60110.6 3.32982
60127.2 3.07810
60135.5 2.91169
60143.8 2.67142
60148.0 2.49316
60152.1 2.24232
60156.3 1.94641
60158.3 2.11901
60159.4 2.83209
60160.4 5.20654
60161.2 9.75154
60162.0 15.5569
60162.8 16.4051
60163.6 13.5144
60164.3 11.0940
60165.0 9.36604
60166.4 7.27479
60167.8 6.14999
60169.2 5.47157
60171.9 4.70734
60174.7 4.28992
60180.3 3.83882
60185.8 3.58799
60197.0 3.28873
60208.1 3.08740
60252.6 2.45533
60274.8 2.11170
60297.0 1.74207
60308.1 1.60705
60319.3 1.67907
60324.8 1.94148
60330.4 2.56964
60335.9 3.95507
60338.7 5.15925
60341.5 6.88732
60344.9 9.95439
60348.3 14.2186
60355.0 23.4909
60358.4 25.4032
60361.8 24.7234
60368.5 19.9876
60374.6 15.9486
60380.7 13.0713
60386.8 11.0817
60392.9 9.67339
60405.1 7.86016
60417.3 6.76088
60429.5 6.02440
60441.7 5.49210
60466.1 4.75577
60490.5 4.24398
60514.9 3.84025
60563.7 3.16319
60612.5 2.50732
60636.9 2.15518
60661.3 1.78355
60685.7 1.42083
60710.1 1.20172
60722.3 1.28476
60734.5 1.70512
60740.6 2.15008
60746.7 2.85183
60752.8 3.92690
60758.9 5.52980
60766.7 8.64434
60774.5 13.2033
60790.0 24.1395
60797.8 27.0662
60805.6 27.1160
60821.1 22.8403
60834.4 18.8563
60847.7 15.8063
60861.0 13.5735
60874.2 11.9122
60887.5 10.6226
60900.8 9.55924
60914.1 8.60113
60920.7 8.27358
60922.4 8.33310
60924.1 8.62454
60925.7 9.52376
60926.6 10.4890
60927.4 12.1066
60928.7 16.6218
60930.0 21.6836
60931.3 21.4800
60932.6 18.0984
60933.9 15.3818
60935.1 13.5747
60936.4 12.3622
60937.6 11.5300
60940.1 10.4682
60942.6 9.82323
60947.6 9.05722
60952.5 8.58834
60957.5 8.24897
60962.5 7.97831
60972.5 7.54788
60992.4 6.89275
61012.3 6.35532
61032.2 5.86322
61052.1 5.40063
61062.1 5.21735
61072.0 5.18467
61077.0 5.32743
61082.0 5.72522
61086.9 6.65007
61091.9 8.65114
61098.0 13.7040
61104.0 20.1204
61110.1 20.9667
61116.1 17.6602
61121.7 14.7662
61127.3 12.7216
61132.9 11.3111
61138.5 10.3152
61149.7 9.02703
61160.9 8.23953
61172.1 7.70589
61183.3 7.31727
61205.7 6.77753
61228.2 6.40867
61250.6 6.13137
61295.4 5.72360
61340.2 5.42101
61385.0 5.17512
61474.7 4.77211
61654.0 4.07410
61698.8 3.88000
61743.6 3.64169
61766.0 3.48056
61777.2 3.37620
61788.4 3.24197
61799.6 3.05161
61810.8 2.73728
61816.4 2.47494
61822.0 2.05633
61824.8 1.74306
61827.6 1.34084
61830.4 1.07189
61831.8 1.63107
61832.5 2.67673
61833.2 5.06114
61833.7 7.74441
61834.1 11.5964
61835.0 20.6263
61835.4 22.9368
61835.9 22.8553
61836.8 19.1437
61837.5 15.9096
61838.2 13.4652
61839.7 10.3770
61841.1 8.63064
61842.5 7.56000
61845.4 6.33048
61848.3 5.65665
61851.2 5.23304
61854.1 4.94171
61859.9 4.56491
61865.7 4.32742
61871.4 4.16094
61883.0 3.93524
61894.5 3.78071
61906.1 3.66170
61929.2 3.47570
61975.4 3.18714
62021.6 2.94301
62067.9 2.74978
62114.1 2.72380
62137.2 2.89907
62160.3 3.40367
62183.4 4.66775
62195.0 5.86841
62206.5 7.70531
62226.8 12.8777
62247.0 17.6669
62267.3 15.7150
62287.5 10.7156
62303.7 7.57409
62319.9 5.53362
62336.0 4.81308
62344.1 5.29409
62352.2 6.79966
62359.2 9.35745
62366.1 13.4276
62380.0 23.9406
62387.0 27.0177
62393.9 27.3140
62407.8 23.3592
62422.2 18.6598
62436.6 15.1491
62451.0 12.6190
62465.4 10.7169
62479.7 9.20991
62494.1 8.02701
62501.3 7.63157
62508.5 7.56052
62515.7 8.30621
62522.9 11.2492
62529.5 18.1572
62536.0 27.6382
62542.6 29.5848
62549.1 25.2147
62553.4 22.1803
62557.8 19.7062
62566.4 16.2618
62575.1 14.1041
62583.7 12.6562
62592.4 11.6189
62601.1 10.8357
62618.4 9.71733
62635.7 8.94094
62653.0 8.35751
62687.7 7.51293
62722.3 6.90586
62756.9 6.42963
62826.2 5.68313
62964.7 4.43207
62999.4 4.06819
63016.7 3.85454
63034.0 3.60223
63051.3 3.28107
63060.0 3.07570
63068.6 2.81999
63077.3 2.48425
63086.0 2.02097
63094.6 1.47587
63096.8 1.45212
63099.0 1.69184
63101.1 2.68507
63102.2 3.84322
63103.3 5.85667
63104.2 8.65975
63105.1 12.6013
63107.0 21.5518
63107.9 23.6762
63108.9 23.3520
63110.7 19.3155
63112.1 16.2852
63113.4 13.9256
63114.8 12.1517
63116.1 10.8146
63118.9 8.98169
63121.6 7.82058
63124.3 7.02381
63127.0 6.44873
63132.4 5.66852
63137.8 5.15650
63143.2 4.78829
63154.0 4.27232
63164.8 3.90507
63175.6 3.61120
63197.2 3.13298
63218.8 2.75133
63240.5 2.53651
63262.1 2.86004
63272.9 3.57568
63283.7 5.11342
63292.0 7.22235
63300.4 10.3850
63317.0 18.2361
63333.7 20.6917
63350.3 17.8630
63368.5 14.4016
63386.8 11.9364
63405.0 10.2461
63423.2 9.03899
63459.7 7.40870
63496.2 6.28715
63532.6 5.37824
63550.9 4.96471
63569.1 4.58286
63587.3 4.27781
63605.5 4.20692
63623.8 4.90434
63632.9 6.01398
63642.0 8.21358
63649.0 11.0911
63656.0 15.2772
63670.0 25.1586
63684.0 27.6126
63698.0 23.5314
63706.5 20.8220
63715.0 18.5501
63731.9 15.2889
63748.9 13.2014
63765.8 11.7966
63782.8 10.7986
63799.8 10.0559
63833.7 9.02382
63867.6 8.33580
63901.5 7.83879
63969.4 7.15474
64037.2 6.69099
64105.0 6.34376
64240.7 5.82887
64376.4 5.42479
64512.0 5.03640
64579.9 4.80749
64613.8 4.66749
64647.7 4.49394
64681.6 4.25803
64698.6 4.09834
64715.6 3.89109
64732.5 3.60787
64741.0 3.42403
64749.5 3.20364
64766.4 2.70875
64770.7 2.66710
64774.9 2.81477
64779.2 3.46866
64781.3 4.20845
64783.4 5.44019
64785.5 7.46019
64787.7 10.4263
64792.0 17.6523
64796.3 19.7830
64800.6 17.1265
64803.9 14.8508
64807.2 13.0364
64810.4 11.6678
64813.7 10.6390
64820.2 9.23107
64826.8 8.33693
64833.3 7.72737
64839.8 7.28780
64852.9 6.69793
64865.9 6.31961
64879.0 6.05464
64905.1 5.70250
64931.2 5.47247
64957.4 5.30488
65009.6 5.06391
65061.9 4.88522
65114.1 4.73636
65218.6 4.47570
65323.1 4.22106
65427.6 3.92794
65479.8 3.74138
65505.9 3.62704
65532.0 3.48791
65558.2 3.30531
65571.2 3.18539
65584.3 3.03224
65597.3 2.82278
65610.4 2.50800
65616.9 2.28335
65623.5 2.00994
65626.7 1.89149
65630.0 1.91154
65631.6 2.09432
65633.3 2.58037
65634.9 3.75167
65635.7 4.84428
65636.5 6.47189
65637.4 9.05734
65638.3 12.6318
65640.0 20.3415
65641.7 21.2565
65643.5 17.2326
65645.0 14.0337
65646.4 11.7101
65647.9 10.0751
65649.4 8.91089
65652.3 7.39261
65655.2 6.47151
65658.1 5.86018
65661.1 5.42570
65666.9 4.84545
65672.8 4.46737
65678.7 4.19151
65690.4 3.78284
65702.1 3.43838
65713.8 3.05768
65719.7 2.81333
65725.5 2.50075
65731.4 2.18634
65734.3 2.41305
65735.8 3.12251
65736.5 3.88318
65737.3 5.14059
65738.0 6.99799
65738.6 9.58983
65740.0 15.4844
65741.4 16.6007
65742.7 13.8827
65743.9 11.5677
65745.1 9.86677
65746.2 8.64406
65747.4 7.76745
65749.7 6.61134
65752.1 5.90115
65756.7 5.08229
65761.4 4.61965
65766.0 4.31470
65770.7 4.09187
65780.0 3.77063
65798.7 3.32382
65817.3 2.94043
65835.9 2.52552
65854.6 2.02178
65863.9 1.73991
65873.2 1.51178
65877.9 1.49984
65882.5 1.69010
65887.2 2.35144
65889.5 3.02696
65891.9 4.08458
65894.7 6.06786
65897.4 9.00926
65903.0 16.2574
65905.8 18.3102
65908.6 18.4829
65914.1 15.8719
65919.3 13.1516
65924.4 11.1024
65929.6 9.63618
65934.7 8.56830
65945.0 7.13459
65955.3 6.19753
65965.6 5.48816
65975.9 4.86516
65986.2 4.31938
65988.8 4.29525
65991.4 4.51317
65992.7 4.84552
65994.0 5.49155
65995.2 6.73973
65996.5 9.07033
65998.3 15.0948
66000.0 22.2726
66001.7 22.6290
66003.5 18.4318
66004.6 15.9753
66005.7 14.0522
66007.8 11.4423
66010.0 9.85341
66012.1 8.82874
66014.3 8.11766
66016.5 7.60221
66020.8 6.90032
66025.1 6.44280
66029.5 6.11703
66038.1 5.67400
66046.8 5.37660
66055.4 5.15571
66072.8 4.83546
66090.1 4.60213
66107.4 4.41610
66142.0 4.12120
66211.3 3.66850
66280.6 3.27626
66349.9 2.89312
66384.5 2.70728
66419.2 2.54528
66453.8 2.46187
66488.4 2.62294
66505.8 2.93426
66523.1 3.58046
66540.4 4.85764
66557.7 7.30269
66569.5 10.0324
66581.4 13.7691
66605.0 21.6305
66628.7 22.1812
66652.3 17.6724
66671.8 14.2433
66691.2 11.7210
66710.7 9.90424
66730.2 8.55970
66769.1 6.68884
66808.1 5.36921
66847.0 4.26257
66885.9 3.19777
66905.4 2.68631
66924.9 2.31767
66934.6 2.31479
66944.3 2.62302
66954.1 3.58858
66958.9 4.51921
66963.8 5.91452
66970.4 8.81951
66976.9 13.1770
66990.0 23.9916
66996.6 27.0887
67003.1 27.3883
67016.2 23.5384
67028.8 19.3487
67041.4 16.2276
67054.0 14.0196
67066.6 12.4267
67091.7 10.3176
67116.9 8.97782
67142.1 8.01539
67167.3 7.22136
67179.9 6.82411
67192.5 6.35648
67198.8 6.05063
67205.0 5.63648
67211.3 5.04691
67214.5 4.89529
67216.1 5.32481
67216.8 6.00687
67217.6 7.35791
67218.8 11.7179
67220.0 17.9369
67221.2 19.6454
67222.4 17.2397
67223.6 14.5964
67224.8 12.7369
67226.1 11.4625
67227.3 10.5792
67229.7 9.44799
67232.2 8.76867
67237.1 7.98444
67242.0 7.53666
67246.9 7.23520
67251.8 7.01146
67261.5 6.68363
67271.3 6.43876
67281.1 6.23688
67300.7 5.89942
67379.0 4.74792
67379.0 4.74746
67379.1 4.74650
67379.1 4.74555
67379.2 4.74380
67379.5 4.74014
67379.9 4.73280
67380.8 4.71823
67382.7 4.68885
67386.3 4.62907
67393.6 4.50476
67408.2 4.23275
67422.8 3.91756
67437.3 3.54002
67451.9 3.07749
67466.5 2.53388
67473.8 2.28728
67481.1 2.21668
67484.7 2.37363
67488.4 2.82170
67492.0 3.82396
67495.6 5.85495
67498.5 8.60787
67501.3 12.7004
67507.0 22.7651
67509.8 25.6194
67512.7 25.8757
67518.4 22.2889
67522.4 19.3229
67526.5 16.9053
67530.5 15.0388
67534.6 13.6042
67542.7 11.6034
67550.8 10.3045
67558.9 9.40373
67567.0 8.74459
67583.2 7.84283
67599.4 7.24873
67615.6 6.82155
67648.0 6.22999
67680.4 5.81887
67712.8 5.49815
67777.6 4.97940
67842.4 4.50127
67874.8 4.24056
67907.2 3.93798
67939.6 3.55395
67955.8 3.30929
67972.0 3.00927
67988.2 2.63296
68004.4 2.17841
68012.5 1.96738
68020.6 1.91207
68024.7 2.06621
68028.7 2.51381
68032.8 3.55365
68036.8 5.76498
68039.6 8.44861
68042.4 12.3419
68048.0 21.5800
68050.8 24.0061
68053.6 23.9843
68059.2 20.2995
68062.9 17.5846
68066.7 15.3666
68074.2 12.3093
68081.7 10.4370
68089.2 9.21535
68096.7 8.36687
68104.2 7.74618
68119.2 6.89943
68134.2 6.34384
68149.2 5.94576
68179.2 5.39682
68209.2 5.01533
68239.1 4.71582
68299.1 4.22240
68359.1 3.75431
68389.1 3.49580
68419.1 3.19620
68449.1 2.82154
68464.1 2.58810
68479.1 2.30942
68494.1 1.97456
68509.1 1.60783
68516.6 1.47663
68524.1 1.54377
68527.8 1.77818
68531.6 2.31160
68535.3 3.41290
68539.1 5.56397
68541.8 8.21593
68544.5 11.9916
68550.0 20.6759
68552.7 22.7711
68555.5 22.5221
68560.9 18.6900
68566.7 14.7250
68572.4 11.9975
68578.1 10.1752
68583.8 8.91584
68589.5 8.00734
68595.2 7.32540
68606.6 6.37195
68618.0 5.73303
68629.4 5.26945
68652.2 4.62075
68675.0 4.16188
68697.8 3.79528
68743.4 3.17801
68789.0 2.59359
68834.6 1.97656
68857.4 1.67254
68880.2 1.46322
68891.6 1.47849
68903.0 1.69669
68914.4 2.33918
68920.1 2.94648
68925.8 3.85065
68933.4 5.67531
68940.9 8.36187
68956.0 14.7957
68963.6 16.4851
68971.1 16.4586
68986.2 13.8070
68998.4 11.4857
69010.5 9.66418
69022.7 8.29937
69034.8 7.26813
69059.1 5.84496
69083.4 4.94908
69107.7 4.43272
69132.0 4.34629
69156.3 4.98547
69180.6 7.08392
69195.5 9.63324
69210.3 13.4736
69240.0 22.9039
69269.7 25.5821
69299.4 21.8844
69330.2 17.7044
69361.0 14.6266
69376.4 13.3984
69391.8 12.2523
69399.5 11.6468
69407.2 10.9332
69411.1 10.4860
69414.9 9.93350
69418.8 9.34578
69420.7 9.41623
69421.7 9.94136
69422.6 11.3759
69423.8 15.7353
69425.0 22.3945
69426.2 24.6864
69427.4 22.4959
69428.5 20.0510
69429.6 18.1927
69430.7 16.8608
69431.9 15.8924
69434.1 14.6049
69436.3 13.7961
69440.8 12.8142
69445.3 12.2194
69449.8 11.7987
69454.2 11.4737
69463.2 10.9774
69481.1 10.2750
69499.0 9.75320
69534.8 8.96668
69570.5 8.37255
69642.1 7.49309
69713.7 6.83762
69785.3 6.28976
69856.8 5.77161
69892.6 5.49648
69928.4 5.18707
69964.2 4.80838
69982.1 4.57270
70000.0 4.28579
70000.0 10.8234
80000.0 10.3256
90000.0 9.90236
94718.0 9.72418
94718.3 9.72417
94718.3 9.72417
100000 9.53845
105000 9.37120
105000 9.37120
110000 9.21446
120000 8.92831
130000 8.67292
140000 8.43559
150000 8.22048
160000 8.02422
170000 7.84414
180000 7.67806
187361 7.56371
188017 7.55382
188676 7.54393
190000 7.52420
200000 7.38108
225000 7.05048
250000 6.76732
275000 6.52098
300000 6.30393
399462 5.62579
400000 5.62278
500000 5.14389
600000 4.78527
613600 4.74347
613600 4.74347
700000 4.50509
800000 4.27882
800000 4.27882
800000 4.27882
827049 4.22584
827050 4.22584
827050 4.22584
884036 4.12165
900000 4.09410
901080 4.09237
908200 4.08100
963623 3.99642
994607 3.95195
994607 3.95195
1.00000E+06 3.94440
1.00492E+06 3.93795
1.00492E+06 3.93795
1.07598E+06 3.84925
1.10000E+06 3.82101
1.16003E+06 3.75389
1.16003E+06 3.75389
1.20000E+06 3.71173
1.30000E+06 3.62821
1.40000E+06 3.55256
1.44071E+06 3.52372
1.48131E+06 3.49599
1.50000E+06 3.48355
1.60000E+06 3.44970
1.70000E+06 3.41820
1.74228E+06 3.40552
1.80000E+06 3.38877
1.90000E+06 3.36116
2.00000E+06 3.33517
2.08223E+06 3.34350
2.15126E+06 3.35027
2.25000E+06 3.35963
2.32382E+06 3.36635
2.50000E+06 3.38166
2.75000E+06 3.45618
3.00000E+06 3.52564
3.29606E+06 3.62397
3.50000E+06 3.68818
4.00000E+06 3.82558
4.50000E+06 3.92485
4.74342E+06 3.95576
4.86503E+06 3.97070
4.86503E+06 3.97070
5.00000E+06 3.98692
5.24404E+06 4.00179
5.50000E+06 4.01672
5.62095E+06 4.01757
5.74456E+06 4.01842
5.87089E+06 4.01927
6.00000E+06 4.02012
6.24500E+06 4.01170
6.50000E+06 4.00330
6.74537E+06 3.98751
6.78734E+06 3.98487
6.78735E+06 3.98487
6.97610E+06 3.97323
7.00000E+06 3.97178
7.02875E+06 3.96929
7.06652E+06 3.96605
7.15862E+06 3.95821
7.17894E+06 3.95650
7.25952E+06 3.94976
7.38700E+06 3.93928
7.47658E+06 3.93205
7.50000E+06 3.93017
7.52817E+06 3.92734
7.60823E+06 3.91936
7.60823E+06 3.91936
7.62243E+06 3.91796
7.68467E+06 3.91184
7.71715E+06 3.90867
7.79841E+06 3.90082
7.81103E+06 3.89961
7.81981E+06 3.89876
7.85528E+06 3.89538
7.95894E+06 3.88559
7.96289E+06 3.88522
8.00000E+06 3.88175
8.01814E+06 3.87974
8.05329E+06 3.87587
8.15161E+06 3.86515
8.24113E+06 3.85552
8.24845E+06 3.85474
8.30792E+06 3.84843
8.35806E+06 3.84315
8.37101E+06 3.84179
8.38846E+06 3.83996
8.39049E+06 3.83975
8.44191E+06 3.83440
8.49063E+06 3.82937
8.50000E+06 3.82841
8.50695E+06 3.82758
8.50709E+06 3.82756
8.74060E+06 3.80019
9.00000E+06 3.77085
9.04544E+06 3.76505
9.04544E+06 3.76505
9.11239E+06 3.75657
9.25613E+06 3.73864
9.35923E+06 3.72601
9.50000E+06 3.70905
9.73413E+06 3.67759
9.74743E+06 3.67583
9.75918E+06 3.67428
9.75919E+06 3.67428
9.82351E+06 3.66584
9.85442E+06 3.66182
9.92107E+06 3.65319
9.97238E+06 3.64661
1.00000E+07 3.64308
1.00511E+07 3.63536
1.00739E+07 3.63193
1.01720E+07 3.61731
1.01794E+07 3.61622
1.01803E+07 3.61608
1.02407E+07 3.60719
1.02677E+07 3.60324
1.02916E+07 3.59976
1.02978E+07 3.59885
1.03031E+07 3.59808
1.03175E+07 3.59599
1.04025E+07 3.58373
1.04629E+07 3.57511
1.04900E+07 3.57127
1.05000E+07 3.56985
1.05141E+07 3.56786
1.05183E+07 3.56726
1.05260E+07 3.56618
1.05463E+07 3.56332
1.05544E+07 3.56218
1.06003E+07 3.55575
1.06301E+07 3.55160
1.06433E+07 3.54976
1.06503E+07 3.54879
1.06900E+07 3.54330
1.07336E+07 3.53730
1.07343E+07 3.53721
1.07407E+07 3.53633
1.07712E+07 3.53216
1.07755E+07 3.53157
1.07824E+07 3.53063
1.07874E+07 3.52995
1.07915E+07 3.52939
1.07986E+07 3.52843
1.09181E+07 3.51230
1.10000E+07 3.50140
1.10525E+07 3.49330
1.11982E+07 3.47112
1.13386E+07 3.45015
1.13772E+07 3.44445
1.15000E+07 3.42652
1.15579E+07 3.41816
1.18059E+07 3.38304
1.20000E+07 3.35632
1.25000E+07 3.28627
1.30000E+07 3.22034
1.35000E+07 3.15858
1.39598E+07 3.10476
1.40000E+07 3.10019
1.45000E+07 3.04665
1.50000E+07 2.99580
1.55000E+07 2.94859
1.60000E+07 2.90358
1.62179E+07 2.88487
1.65000E+07 2.86122
1.70000E+07 2.82072
1.75000E+07 2.78292
1.80000E+07 2.74667
1.83844E+07 2.72113
1.83845E+07 2.72113
1.85000E+07 2.71361
1.90000E+07 2.68182
1.95000E+07 2.65396
2.00000E+07 2.62708