Zn-66(n,tot) ENDF/B-VII.1
Energy(eV) XS(b)
1.00000E-05 35.9743
1.25000E-05 32.6938
1.50000E-05 30.2722
2.00000E-05 26.8730
2.75000E-05 23.6388
3.50000E-05 21.5102
4.25000E-05 19.9736
5.00000E-05 18.7972
6.25000E-05 17.3301
7.50000E-05 16.2471
0.000100000 14.7270
0.000125000 13.6896
0.000150000 12.9238
0.000200000 11.8489
0.000275000 10.8261
0.000350000 10.1530
0.000425000 9.66709
0.000500000 9.29509
0.000625000 8.83115
0.000750000 8.48868
0.00100000 8.00797
0.00125000 7.67992
0.00150000 7.43776
0.00200000 7.09784
0.00275000 6.77441
0.00350000 6.56156
0.00425000 6.40789
0.00500000 6.29025
0.00625000 6.14354
0.00750000 6.03524
0.0100000 5.88323
0.0125000 5.77948
0.0150000 5.70290
0.0200000 5.59541
0.0253000 5.51835
0.0314750 5.45444
0.0376500 5.40698
0.0500000 5.33999
0.0625000 5.29358
0.0750000 5.25932
0.100000 5.21122
0.125000 5.17839
0.150000 5.15414
0.200000 5.12009
0.275000 5.08767
0.350000 5.06630
0.500000 5.03900
0.750000 5.01321
1.00000 4.99773
1.50000 4.97913
2.00000 4.96782
2.75000 4.95675
3.50000 4.94918
5.00000 4.93891
7.50000 4.92805
10.0000 4.92044
15.0000 4.90915
20.0000 4.90018
27.5000 4.88860
35.0000 4.87815
50.0000 4.85885
75.0000 4.82879
100.000 4.79990
150.000 4.74341
200.000 4.68664
261.701 4.60810
277.126 4.58227
292.551 4.54679
300.264 4.51999
304.120 4.50159
307.976 4.47715
309.904 4.46144
311.833 4.44232
313.761 4.41860
315.689 4.38893
316.653 4.37174
317.617 4.35375
318.581 4.33766
319.545 4.33269
320.027 4.34273
320.509 4.37318
320.991 4.44743
321.473 4.62481
321.714 4.79763
321.955 5.08427
322.196 5.58672
322.437 6.54137
322.678 8.59191
322.799 10.5728
322.919 13.9818
323.040 20.4660
323.100 26.0807
323.160 34.7571
323.221 49.0522
323.251 59.7892
323.281 74.3711
323.311 94.7101
323.341 123.513
323.371 165.054
323.401 224.725
323.426 289.859
323.451 365.200
323.500 466.243
323.500 466.266
323.500 466.287
323.501 466.363
323.501 466.424
323.502 466.501
323.503 466.481
323.506 465.768
323.513 461.679
323.525 443.983
323.550 382.219
323.599 246.122
323.636 173.936
323.674 126.847
323.711 95.9748
323.748 75.1530
323.823 50.1659
323.897 36.5077
323.972 28.2869
324.047 22.9639
324.196 16.7089
324.345 13.2948
324.494 11.2183
324.643 9.85280
324.793 8.90198
325.091 7.68867
325.390 6.96445
325.688 6.49192
325.986 6.16366
326.583 5.74338
327.180 5.48980
327.777 5.32216
328.374 5.20398
329.568 5.04949
330.762 4.95361
331.955 4.88854
333.149 4.84153
335.537 4.77805
337.924 4.73696
342.699 4.68613
347.474 4.65503
352.249 4.63329
361.799 4.60331
380.900 4.56501
400.000 4.53723
411.799 4.52233
455.900 4.47338
500.000 4.42938
600.000 4.33704
700.000 4.25029
750.000 4.20841
875.000 4.10727
1000.00 4.01055
1500.00 3.65791
2000.00 3.34368
2778.96 2.88388
3168.43 2.63310
3363.17 2.48192
3460.54 2.39158
3509.23 2.34041
3533.57 2.31303
3545.74 2.29961
3551.83 2.29612
3554.87 2.30743
3555.63 2.32158
3556.39 2.36183
3556.77 2.41598
3557.15 2.55798
3557.34 2.73552
3557.53 3.16141
3557.63 3.63886
3557.72 4.62475
3557.77 5.56628
3557.82 7.11202
3557.87 9.95073
3557.91 15.1404
3557.96 22.8565
3558.00 28.0020
3558.04 22.8599
3558.09 15.1447
3558.12 11.7833
3558.14 9.42156
3558.20 6.59938
3558.25 5.11974
3558.30 4.27262
3558.41 3.40589
3558.52 2.99951
3558.74 2.64548
3558.95 2.50050
3559.38 2.38551
3559.82 2.34167
3561.54 2.29497
3564.99 2.27879
3571.90 2.26695
3585.71 2.24814
3613.33 2.20972
3668.57 2.12249
3723.81 2.01527
3779.04 1.87677
3834.28 1.68559
3861.90 1.55775
3889.52 1.39629
3917.14 1.18530
3944.76 0.899622
3958.57 0.718329
3972.38 0.507917
3986.19 0.279512
3993.10 0.175284
3996.55 0.133864
4000.00 0.106265
4002.71 0.0996880
4005.41 0.112893
4008.12 0.154774
4010.83 0.238492
4012.18 0.301941
4013.53 0.383978
4016.24 0.621865
4018.94 1.00116
4021.65 1.60268
4024.36 2.56617
4027.06 4.14415
4029.77 6.82870
4032.48 11.6605
4033.83 15.5483
4035.18 21.1084
4036.54 29.3259
4037.89 41.9593
4039.24 62.3370
4040.59 97.1318
4041.95 160.249
4043.30 278.727
4044.65 475.791
4046.00 633.114
4047.35 538.022
4048.70 356.619
4050.01 234.927
4051.33 162.751
4052.64 119.124
4053.95 91.3649
4055.27 72.7518
4056.58 59.7149
4059.21 43.0859
4061.83 33.2253
4064.46 26.8604
4069.71 19.3208
4074.97 15.1206
4080.22 12.4968
4085.47 10.7239
4090.72 9.45575
4101.23 7.77711
4111.74 6.72546
4122.24 6.00924
4132.75 5.49183
4153.76 4.79601
4174.77 4.35029
4195.78 4.04009
4216.79 3.81126
4258.82 3.49452
4300.84 3.28358
4321.85 3.20191
4342.86 3.13177
4353.37 3.10077
4363.88 3.07369
4369.13 3.06355
4374.38 3.06170
4377.01 3.07171
4379.63 3.11247
4380.95 3.17436
4381.60 3.23716
4382.26 3.35151
4382.92 3.59233
4383.25 3.82586
4383.57 4.23782
4383.90 5.07125
4384.07 5.84571
4384.23 7.15245
4384.39 9.61036
4384.48 11.7372
4384.56 15.0557
4384.64 20.6127
4384.72 30.8168
4384.76 39.3086
4384.80 51.8470
4384.85 70.8380
4384.89 99.6302
4384.94 157.631
4385.00 196.318
4385.06 157.671
4385.11 99.6815
4385.15 72.6188
4385.19 54.1974
4385.27 33.2137
4385.34 22.5604
4385.42 16.5864
4385.49 12.9477
4385.57 10.5824
4385.72 7.81093
4385.87 6.31741
4386.02 5.42411
4386.32 4.45605
4386.62 3.96982
4386.92 3.69323
4387.52 3.40518
4388.12 3.26546
4388.72 3.18713
4389.92 3.10598
4392.32 3.04288
4394.72 3.01668
4399.53 2.99062
4404.33 2.97441
4423.55 2.92792
4442.76 2.88905
4461.98 2.85372
4538.84 2.73557
4692.56 2.56378
5000.00 2.32903
5101.96 2.26579
5152.94 2.23577
5178.43 2.22116
5191.17 2.21413
5197.54 2.21138
5200.73 2.21285
5202.32 2.22416
5203.12 2.26669
5203.52 2.40019
5203.72 2.73334
5203.82 3.32724
5203.87 4.02627
5203.91 5.35679
5203.96 7.24398
5204.00 8.50044
5204.04 7.24169
5204.09 5.35023
5204.15 3.70281
5204.22 3.02761
5204.36 2.55133
5204.63 2.32184
5205.17 2.23958
5206.25 2.21437
5208.42 2.20643
5212.76 2.20226
5221.43 2.19699
5238.77 2.18732
5273.45 2.16879
5308.14 2.15370
5316.81 2.15305
5325.48 2.16000
5329.82 2.17394
5334.15 2.21775
5336.32 2.28022
5337.40 2.34265
5338.49 2.45591
5339.57 2.69366
5340.11 2.92475
5340.66 3.33345
5341.20 4.16043
5341.47 4.93408
5341.74 6.24620
5342.01 8.73378
5342.15 10.9141
5342.28 14.3197
5342.42 20.1373
5342.55 30.9367
5342.62 40.1576
5342.69 53.7894
5342.76 75.1832
5342.82 107.886
5342.91 171.409
5343.00 213.806
5343.09 171.512
5343.18 108.017
5343.25 74.1482
5343.32 52.6746
5343.39 38.9755
5343.46 30.0508
5343.60 19.4965
5343.74 13.8842
5343.87 10.5839
5344.01 8.49075
5344.29 6.09554
5344.57 4.83343
5344.85 4.08940
5345.40 3.29363
5345.96 2.89970
5346.52 2.67640
5347.63 2.44561
5348.74 2.33467
5349.85 2.27278
5352.08 2.20936
5356.52 2.16140
5360.97 2.14270
5369.87 2.12608
5378.76 2.11712
5414.35 2.09422
5485.52 2.05639
5627.86 1.98465
5912.55 1.84690
6197.23 1.71282
6339.57 1.64627
6410.74 1.61303
6446.33 1.59642
6464.12 1.58821
6473.02 1.58452
6477.47 1.58433
6479.69 1.59060
6480.80 1.61700
6481.36 1.70683
6481.64 1.96032
6481.77 2.49525
6481.84 3.26575
6481.91 5.16707
6482.00 8.76064
6482.09 5.17327
6482.14 3.50606
6482.20 2.71348
6482.31 2.09070
6482.54 1.76074
6482.99 1.63398
6483.90 1.59401
6485.71 1.58203
6489.33 1.57736
6496.57 1.57319
6511.06 1.56621
6540.03 1.55261
6597.96 1.52559
6655.90 1.49953
6684.87 1.49109
6692.11 1.49322
6699.36 1.50575
6702.98 1.52638
6706.60 1.58790
6708.41 1.67412
6709.31 1.75974
6710.22 1.91444
6711.12 2.23829
6711.58 2.55207
6712.03 3.10360
6712.48 4.21557
6712.71 5.24711
6712.93 6.98351
6713.16 10.2579
6713.27 13.0734
6713.39 17.4514
6713.50 24.7467
6713.61 38.0433
6713.67 49.1414
6713.73 65.1220
6713.78 89.5440
6713.84 125.538
6713.92 200.547
6714.00 249.788
6714.08 199.691
6714.16 125.703
6714.23 82.7275
6714.30 56.7736
6714.37 40.8798
6714.44 30.7249
6714.58 19.2196
6714.72 13.3296
6714.86 9.90772
6715.00 7.78203
6715.28 5.36976
6715.56 4.11047
6715.84 3.37705
6716.40 2.59776
6716.95 2.21378
6717.51 1.99742
6718.63 1.77447
6719.75 1.66753
6720.86 1.60804
6723.09 1.54717
6727.56 1.50128
6732.03 1.48348
6740.96 1.46780
6749.89 1.45947
6785.62 1.43842
6857.08 1.40332
7000.00 1.33450
7487.48 1.09357
7974.96 0.837336
8462.44 0.561665
8706.18 0.417197
8828.05 0.344332
8888.98 0.308080
8919.45 0.290093
8934.68 0.281245
8942.30 0.277257
8946.11 0.276914
8948.01 0.282975
8948.96 0.308244
8949.44 0.391731
8949.68 0.615583
8949.80 1.05322
8949.91 2.89635
8950.00 5.51834
8950.09 2.89327
8950.20 1.12189
8950.31 0.656131
8950.52 0.408586
8950.96 0.312793
8951.84 0.282372
8953.60 0.272967
8957.11 0.268697
8964.13 0.264026
8978.18 0.255704
9006.26 0.239432
9062.44 0.207588
9118.62 0.177548
9146.71 0.166909
9160.75 0.177908
9164.27 0.195215
9167.78 0.247474
9169.53 0.320727
9171.29 0.523483
9172.17 0.793385
9172.60 1.05193
9173.04 1.50174
9173.48 2.38852
9173.70 3.19724
9173.92 4.52080
9174.14 6.92526
9174.25 8.92407
9174.36 11.8836
9174.47 16.5931
9174.58 24.4355
9174.69 38.7041
9174.80 65.3964
9174.90 104.512
9175.00 130.817
9175.10 104.639
9175.20 65.5564
9175.28 44.8012
9175.36 31.6485
9175.44 23.2025
9175.51 17.6055
9175.67 10.9983
9175.83 7.50506
9175.98 5.43613
9176.14 4.13199
9176.45 2.63321
9176.77 1.84308
9177.08 1.37707
9177.70 0.878834
9178.96 0.490993
9180.21 0.345662
9182.71 0.236175
9185.21 0.195539
9190.22 0.164016
9195.22 0.151037
9215.24 0.130647
9255.29 0.108904
9335.37 0.0749213
9415.45 0.0503439
9455.49 0.0427475
9495.54 0.0392646
9535.58 0.0408920
9575.62 0.0489039
9615.66 0.0649413
9655.70 0.0911391
9695.74 0.130319
9735.79 0.186315
9775.83 0.265286
9795.85 0.321197
9805.86 0.378165
9808.36 0.416209
9810.86 0.510894
9812.12 0.634800
9813.37 0.969916
9813.99 1.41411
9814.31 1.84043
9814.62 2.58188
9814.93 4.05720
9815.09 5.41500
9815.24 7.65288
9815.40 11.7819
9815.48 15.2381
9815.56 20.4744
9815.63 28.8861
9815.71 43.4106
9815.79 70.6357
9815.87 124.514
9815.93 199.124
9816.00 248.962
9816.07 199.356
9816.13 124.806
9816.18 89.3497
9816.22 65.4259
9816.27 49.3087
9816.31 38.2138
9816.40 24.6502
9816.49 17.1356
9816.58 12.5958
9816.67 9.66192
9816.85 6.25688
9817.03 4.41882
9817.21 3.32863
9817.57 2.14622
9817.93 1.55557
9818.29 1.21918
9819.01 0.870819
9820.44 0.611822
9821.88 0.520276
9824.75 0.458719
9827.62 0.442689
9839.12 0.457475
9850.61 0.496513
9862.10 0.542773
9908.07 0.781921
9954.03 1.12675
10000.0 1.62814
10045.5 2.36357
10091.0 3.48434
10136.5 5.26306
10182.0 8.24496
10227.5 13.6313
10250.3 18.0232
10273.0 24.4135
10295.8 34.0562
10318.5 49.1965
10341.3 73.8544
10364.0 114.445
10392.0 191.682
10420.0 250.050
10448.0 208.945
10476.0 136.449
10501.6 90.7678
10527.2 63.0150
10552.9 45.9285
10578.5 34.9270
10629.7 22.2611
10680.9 15.5640
10732.2 11.5862
10783.4 9.01694
10834.6 7.24923
10860.3 6.56442
10873.1 6.26979
10879.5 6.17282
10881.1 6.18672
10882.7 6.28947
10883.5 6.45855
10884.3 6.94397
10884.7 7.58641
10884.9 8.19197
10885.1 9.22319
10885.3 11.1850
10885.4 12.9006
10885.5 15.6051
10885.6 20.1991
10885.7 28.8163
10885.7 36.1435
10885.8 47.1890
10885.8 64.3617
10885.9 91.1887
10885.9 146.595
10886.0 176.673
10886.1 138.410
10886.1 91.4465
10886.2 69.0783
10886.2 53.3730
10886.3 36.3332
10886.4 25.7358
10886.4 20.3271
10886.5 16.4346
10886.6 14.1772
10886.7 11.3879
10886.9 9.71611
10887.0 8.76176
10887.3 7.65653
10887.9 6.74966
10888.5 6.40093
10889.6 6.11777
10890.8 5.99890
10893.1 5.87952
10895.5 5.80627
10904.8 5.59549
10923.5 5.24474
10960.8 4.64479
11035.4 3.71557
11184.7 2.50135
11334.0 1.74050
11483.3 1.21479
11632.6 0.827929
11781.9 0.533419
11931.2 0.308782
12080.5 0.145393
12155.2 0.0867367
12229.8 0.0446492
12267.2 0.0303151
12304.5 0.0208094
12341.8 0.0164496
12379.1 0.0176134
12416.5 0.0247348
12453.8 0.0383079
12491.1 0.0589104
12528.4 0.0871824
12603.1 0.169837
12677.7 0.293550
12752.4 0.467792
12827.0 0.704933
12901.7 1.02124
12976.3 1.43826
13125.6 2.70026
13200.3 3.63810
13237.6 4.21270
13256.3 4.53145
13265.6 4.69982
13270.3 4.78811
13272.6 4.83946
13273.8 4.89013
13274.3 4.99647
13274.6 5.27147
13274.8 5.88607
13274.8 6.72457
13274.9 8.93966
13275.0 13.0326
13275.1 8.94307
13275.2 6.92186
13275.2 5.97642
13275.4 5.32916
13275.6 5.03844
13276.2 4.94155
13277.3 4.92968
13279.4 4.96240
13283.8 5.04447
13292.4 5.21693
13309.8 5.58033
13344.5 6.38433
13379.2 7.30487
13396.5 7.81546
13405.2 8.08789
13409.6 8.24165
13411.7 8.37346
13412.8 8.63114
13413.4 9.35833
13413.5 9.97454
13413.6 11.1947
13413.8 14.7999
13413.8 19.4234
13413.9 28.1452
13414.0 40.7620
13414.0 48.0075
13414.1 40.8225
13414.1 28.2263
13414.2 19.5011
13414.2 15.3451
13414.4 11.7270
13414.5 10.3144
13414.6 9.63612
13414.8 9.02240
13415.1 8.78511
13416.1 8.54032
13418.0 8.52585
13421.9 8.63494
13429.7 8.89637
13445.4 9.45542
13476.6 10.6905
13539.1 13.7074
13664.1 22.9139
13789.0 39.4435
13914.0 69.6444
14057.0 128.771
14200.0 182.408
14343.0 163.434
14486.0 113.936
14629.2 77.6986
14772.4 55.5672
14915.7 41.8679
15058.9 32.9450
15202.1 26.8218
15345.3 22.4223
15488.5 19.1354
15560.2 17.7900
15596.0 17.1814
15604.9 17.0397
15613.9 16.9121
15618.3 16.8658
15622.8 16.8684
15625.1 16.9356
15627.3 17.1858
15628.4 17.5510
15629.0 17.9113
15629.5 18.5492
15630.1 19.8287
15630.4 21.0085
15630.7 22.9729
15630.9 26.5871
15631.1 29.6396
15631.2 34.2820
15631.4 41.7751
15631.5 54.7914
15631.6 79.3686
15631.8 125.935
15631.9 190.251
15632.0 235.799
15632.1 190.664
15632.2 126.444
15632.4 82.3165
15632.5 59.1689
15632.6 45.9110
15632.7 37.8362
15632.8 32.6239
15633.0 29.0893
15633.2 24.7674
15633.5 22.2621
15633.7 20.7951
15634.2 19.1554
15634.7 18.2944
15635.1 17.8034
15636.1 17.2764
15638.0 16.8502
15640.0 16.6745
15643.8 16.5057
15647.7 16.4064
15655.5 16.2591
15663.2 16.1319
15694.2 15.6690
15756.1 14.8231
15818.0 14.0521
15848.9 13.6909
15864.4 13.5165
15872.2 13.4334
15876.0 13.4035
15878.0 13.4310
15878.9 13.5956
15879.4 14.1318
15879.7 15.4665
15879.8 17.8079
15879.8 20.5462
15879.9 27.1284
15880.0 35.4377
15880.0 40.8207
15880.1 35.4720
15880.1 27.0355
15880.2 19.9893
15880.3 17.2442
15880.4 15.0927
15880.7 13.9587
15881.2 13.5159
15882.4 13.3693
15884.6 13.3065
15889.2 13.2471
15898.2 13.1469
15916.3 12.9546
15952.5 12.5841
16024.8 11.8906
16169.5 10.6621
16458.9 8.65262
16748.3 6.92150
16820.7 6.44696
16893.0 5.85358
16929.2 5.43493
16947.3 5.15479
16965.4 4.78537
16983.5 4.25058
16992.5 3.87126
17001.6 3.36296
17010.6 2.64304
17015.1 2.16464
17019.7 1.58563
17024.2 0.933554
17026.4 0.645603
17028.7 0.523519
17029.8 0.618808
17031.0 0.929204
17032.1 1.62609
17032.7 2.21863
17033.2 3.03916
17033.8 4.21354
17034.4 5.83860
17034.9 8.18240
17035.5 11.4718
17036.1 16.3052
17036.6 23.2256
17037.2 33.5574
17037.7 48.3609
17038.9 96.8810
17040.0 148.539
17040.6 153.684
17041.1 143.054
17042.3 106.014
17043.1 82.6036
17044.0 65.7854
17044.8 53.9314
17045.7 45.5201
17047.4 34.5065
17049.0 27.9574
17050.7 23.6726
17052.4 20.7198
17055.8 16.9294
17059.2 14.6350
17062.6 13.1084
17069.4 11.2153
17076.2 10.0866
17082.9 9.33764
17096.5 8.39630
17110.0 7.82024
17123.6 7.42361
17150.7 6.89607
17177.8 6.54603
17204.9 6.29440
17218.4 6.20503
17225.2 6.17697
17232.0 6.17242
17238.8 6.22283
17242.2 6.29719
17245.5 6.44919
17247.2 6.58317
17248.9 6.78793
17250.6 7.12189
17252.3 7.70276
17254.0 8.84954
17254.9 9.88241
17255.7 11.5325
17256.6 14.4728
17257.4 20.2231
17257.8 25.5290
17258.2 33.8146
17258.7 47.6422
17259.1 71.1511
17259.5 110.461
17260.0 136.781
17260.5 110.752
17260.9 71.5149
17261.3 51.0986
17261.6 37.9442
17262.0 29.4354
17262.3 23.7646
17263.0 17.0603
17263.7 13.5030
17264.4 11.3601
17265.1 10.0112
17266.5 8.44056
17267.9 7.60364
17269.3 7.10443
17272.1 6.55988
17274.8 6.28024
17277.6 6.11378
17283.2 5.92499
17288.7 5.81687
17294.3 5.74254
17305.4 5.63637
17316.6 5.55450
17327.7 5.48359
17338.8 5.41902
17344.4 5.38990
17347.1 5.38203
17348.5 5.40173
17349.2 5.49334
17349.6 5.78282
17349.7 6.44190
17349.8 7.58622
17349.9 10.6305
17350.0 15.9049
17350.1 10.6297
17350.2 6.93083
17350.3 6.05502
17350.6 5.59082
17351.1 5.42173
17352.1 5.36479
17354.0 5.34005
17358.0 5.31555
17365.9 5.27379
17381.7 5.19455
17413.4 5.04431
17476.6 4.76439
17603.2 4.25021
17856.3 3.29883
18109.4 2.37113
18362.5 1.43203
18615.7 0.527411
18678.9 0.334793
18742.2 0.176316
18773.9 0.116217
18805.5 0.0736680
18821.3 0.0604421
18837.1 0.0535226
18853.0 0.0537352
18868.8 0.0620106
18884.6 0.0794281
18900.4 0.107206
18916.2 0.146738
18932.1 0.199626
18963.7 0.353082
18995.3 0.585875
19027.0 0.922476
19058.6 1.39596
19090.3 2.05148
19121.9 2.95148
19153.5 4.18323
19185.2 5.87018
19216.8 8.18887
19248.5 11.3937
19280.1 15.8522
19311.7 22.0902
19343.4 30.8356
19375.0 43.0066
19447.5 87.4913
19520.0 134.766
19556.3 139.432
19592.5 129.642
19665.0 95.7950
19748.8 65.4719
19832.5 47.4440
19916.3 36.5501
20000.0 29.5430
20090.7 24.4248
20181.5 20.8319
20362.9 16.1587
20544.4 13.2551
20635.1 12.1743
20680.5 11.6986
20703.2 11.4753
20714.5 11.3697
20720.2 11.3286
20723.0 11.3496
20724.5 11.5086
20725.2 12.0679
20725.5 13.5656
20725.7 16.6536
20725.8 20.8660
20725.9 30.5275
20725.9 42.1877
20726.0 49.7891
20726.1 42.1812
20726.1 30.5185
20726.2 20.8562
20726.3 16.6433
20726.5 13.6464
20726.8 12.0698
20727.5 11.4886
20728.9 11.2976
20731.7 11.2222
20737.2 11.1582
20748.3 11.0544
20770.4 10.8584
20792.6 10.6753
20803.7 10.6125
20806.4 10.6210
20809.2 10.6872
20810.6 10.7976
20812.0 11.1124
20812.7 11.5259
20813.4 12.5632
20813.7 13.8051
20814.1 16.4382
20814.2 19.2525
20814.4 24.0650
20814.6 33.5481
20814.7 42.3217
20814.7 53.6848
20814.9 79.7628
20815.0 97.2790
20815.1 80.0742
20815.3 54.0731
20815.4 39.3545
20815.5 30.3316
20815.6 24.7367
20815.7 21.3979
20815.9 17.2657
20816.1 15.0753
20816.5 12.9714
20817.0 12.0346
20817.8 11.2384
20818.6 10.9219
20820.3 10.6649
20822.0 10.5596
20828.8 10.4104
20842.3 10.2771
20869.3 10.0622
20923.3 9.66768
21031.4 8.95901
21247.6 7.77159
21463.7 6.79142
21517.8 6.57106
21571.8 6.36314
21598.8 6.26800
21625.9 6.18838
21639.4 6.16295
21652.9 6.16208
21659.6 6.18109
21666.4 6.22661
21673.1 6.32590
21676.5 6.42473
21678.2 6.54105
21679.1 6.78460
21679.5 7.43610
21679.7 8.91691
21679.8 11.4670
21679.9 18.7459
21680.0 26.5593
21680.0 31.0631
21680.1 26.6383
21680.1 18.8521
21680.2 11.9631
21680.3 9.47047
21680.5 7.76526
21680.8 6.97245
21681.6 6.73258
21683.1 6.74248
21686.0 6.98036
21689.0 7.40153
21691.9 8.14944
21694.8 9.64971
21696.3 11.0319
21697.8 13.3034
21699.3 17.4701
21700.0 20.9582
21700.7 26.1267
21701.5 34.4445
21702.2 48.3549
21703.0 74.0906
21703.7 122.439
21704.3 192.560
21705.0 239.526
21705.7 193.313
21706.3 123.389
21707.0 77.8780
21707.7 52.5404
21708.3 38.0044
21709.0 29.1484
21709.7 23.4324
21710.3 19.5567
21711.7 14.8444
21713.0 12.1715
21714.4 10.5271
21717.0 8.69917
21719.7 7.75128
21722.4 7.19868
21725.1 6.84441
21727.7 6.60386
21733.1 6.30186
21738.4 6.12267
21749.1 5.91862
21759.8 5.80014
21770.5 5.71679
21791.9 5.59381
21813.3 5.49517
21834.7 5.40675
21877.5 5.24339
22048.7 4.64351
22391.1 3.50096
22733.5 2.34399
22904.7 1.74795
22990.3 1.44796
23033.1 1.29870
23054.5 1.22472
23065.2 1.18893
23070.6 1.17544
23073.2 1.18564
23074.6 1.25316
23075.2 1.49471
23075.6 2.16733
23075.7 3.64273
23075.8 5.61509
23075.9 11.1137
23076.0 21.0096
23076.1 11.0462
23076.2 6.45769
23076.2 4.45124
23076.4 2.72583
23076.6 1.73509
23077.1 1.32662
23078.1 1.19368
23080.0 1.15017
23083.9 1.12677
23091.7 1.09733
23107.3 1.04334
23138.6 0.937762
23201.1 0.733434
23326.0 0.371763
23388.5 0.232866
23451.0 0.141698
23482.2 0.121073
23513.5 0.122144
23544.7 0.149795
23575.9 0.210019
23607.2 0.310307
23638.4 0.459909
23669.7 0.670402
23700.9 0.956312
23763.4 1.83259
23825.8 3.30315
23888.3 5.72078
23950.8 9.67341
24013.3 16.1770
24028.9 18.4187
24044.5 21.0888
24052.3 22.7340
24056.2 23.7309
24060.1 24.9629
24064.1 26.7048
24066.0 27.9726
24068.0 29.7846
24069.9 32.6620
24071.9 37.9036
24072.8 42.4145
24073.8 49.2943
24074.8 60.5226
24075.8 78.7852
24076.9 110.739
24078.0 132.038
24079.1 111.392
24080.3 80.3410
24081.0 65.9339
24081.7 56.2140
24083.2 44.9496
24084.7 39.3650
24086.1 36.3690
24087.6 34.6708
24089.1 33.6838
24092.0 32.8130
24095.4 32.6820
24098.8 32.9839
24105.6 34.1611
24119.3 37.4416
24146.5 45.6233
24201.0 66.3234
24310.0 108.694
24364.5 115.572
24419.0 110.224
24528.0 85.2107
24572.5 75.4078
24594.7 70.9899
24605.8 68.9096
24611.4 67.9020
24614.1 67.4134
24615.5 67.1984
24616.2 67.1844
24616.6 67.4536
24616.7 68.1706
24616.8 69.4415
24616.9 72.6663
24617.0 78.4379
24617.1 72.6347
24617.2 69.1624
24617.3 68.0792
24617.4 67.3024
24617.8 66.9156
24618.4 66.6882
24619.8 66.4199
24622.5 65.9452
24627.9 65.0255
24638.6 63.2467
24660.2 59.9066
24703.2 54.0281
24789.3 44.8917
24875.4 38.2901
24961.6 33.3934
25133.8 26.7435
25306.0 22.5142
25478.2 19.6193
25650.5 17.5241
25822.7 15.9404
25908.8 15.2855
25951.9 14.9855
25973.4 14.8419
25984.1 14.7723
25989.5 14.7405
25992.2 14.7349
25993.6 14.7694
25994.2 14.9103
25994.6 15.3393
25994.7 16.3192
25994.8 17.7142
25994.9 22.0764
25995.0 29.3718
25995.1 21.9954
25995.2 17.2388
25995.3 15.8748
25995.5 15.1384
25996.0 14.8300
25996.8 14.7270
25998.5 14.6886
26001.9 14.6595
26008.8 14.6143
26022.5 14.5284
26049.8 14.3617
26104.5 14.0446
26214.0 13.4679
26323.4 12.9567
26378.2 12.7221
26405.5 12.6095
26419.2 12.5551
26426.0 12.5327
26429.5 12.5422
26431.2 12.6276
26432.0 12.9508
26432.5 13.9174
26432.7 15.9919
26432.8 19.2648
26432.9 27.9796
26432.9 37.4706
26433.0 43.5853
26433.1 37.6708
26433.1 28.1057
26433.3 18.6178
26433.4 15.4989
26433.6 13.6775
26434.1 12.8838
26435.1 12.6086
26437.1 12.5186
26441.1 12.4788
26449.2 12.4404
26465.2 12.3762
26497.3 12.2544
26561.4 12.0228
26625.6 11.8048
26657.7 11.7048
26673.7 11.6790
26677.7 11.6949
26681.7 11.7662
26683.7 11.8778
26685.7 12.1972
26686.7 12.6262
26687.7 13.7444
26688.2 15.1211
26688.5 16.3515
26688.7 18.3349
26689.0 21.8128
26689.2 28.6645
26689.4 35.1036
26689.5 44.5326
26689.6 61.5935
26689.7 90.0361
26689.9 136.233
26690.0 169.136
26690.1 136.997
26690.3 90.6931
26690.4 69.9700
26690.5 54.7385
26690.6 37.7653
26690.8 28.8601
26691.0 23.7523
26691.1 20.5904
26691.3 18.5101
26691.6 16.0410
26692.0 14.6923
26692.3 13.8771
26693.0 12.9835
26694.4 12.2668
26695.7 11.9885
26698.4 11.7700
26701.2 11.6829
26706.6 11.6063
26712.0 11.5671
26733.8 11.4768
26777.4 11.3405
26864.4 11.0937
27038.6 10.6511
27212.7 10.2616
27299.8 10.0834
27343.3 9.99794
27365.1 9.95676
27376.0 9.94116
27381.4 9.95579
27384.1 10.0534
27385.5 10.4235
27386.2 11.5704
27386.5 14.3058
27386.7 18.8222
27386.8 24.1567
27386.8 33.4819
27386.9 48.2384
27387.0 57.4344
27387.1 48.5410
27387.2 33.8673
27387.3 21.1138
27387.4 15.9000
27387.7 12.3692
27388.3 10.7512
27389.4 10.1650
27391.6 9.98178
27396.0 9.92146
27404.9 9.88966
27422.7 9.85209
27458.2 9.78597
27529.1 9.66049
27671.1 9.42566
27955.0 9.00837
28239.0 8.64743
28381.0 8.48427
28451.9 8.40648
28487.4 8.36848
28505.2 8.34972
28514.0 8.34054
28518.5 8.33646
28520.7 8.33640
28521.8 8.34356
28522.4 8.37043
28522.6 8.44948
28522.9 9.42531
28523.0 10.5195
28523.1 9.42506
28523.4 8.41854
28523.8 8.35854
28524.4 8.33744
28525.8 8.33019
28528.4 8.32583
28533.7 8.31985
28544.4 8.30868
28565.7 8.28665
28608.3 8.24322
28693.5 8.15859
28778.7 8.07680
28821.3 8.03694
28842.6 8.01737
28853.3 8.00810
28858.6 8.00525
28861.3 8.01059
28862.6 8.03810
28863.3 8.13733
28863.6 8.42798
28863.8 9.12181
28863.9 12.9224
28864.0 17.8410
28864.1 12.9157
28864.2 9.29769
28864.4 8.51703
28864.7 8.16534
28865.3 8.04449
28866.5 8.00826
28868.9 7.99647
28873.6 7.98962
28883.2 7.98031
28902.3 7.96289
28940.5 7.92869
28978.7 7.89508
28997.8 7.87881
29007.4 7.87211
29012.1 7.87424
29014.5 7.89620
29015.7 7.98226
29016.3 8.27455
29016.6 9.10262
29016.8 10.8565
29016.8 13.1090
29016.9 18.6995
29017.0 29.4860
29017.1 18.7016
29017.2 13.1106
29017.3 10.6531
29017.4 8.99099
29017.7 8.23070
29018.4 7.96836
29019.6 7.88859
29022.1 7.86481
29027.2 7.85480
29037.3 7.84468
29057.4 7.82706
29097.8 7.79283
29178.4 7.72589
29259.1 7.66059
29299.5 7.62909
29319.6 7.61823
29329.7 7.63677
29334.8 7.74715
29336.0 7.86384
29337.3 8.18503
29337.9 8.60565
29338.5 9.67491
29338.9 10.9840
29339.2 13.8326
29339.3 16.8742
29339.5 22.6150
29339.6 34.9290
29339.7 46.4527
29339.8 61.6852
29339.9 96.0910
29340.0 116.507
29340.1 93.3592
29340.2 62.4182
29340.3 43.7575
29340.4 33.3874
29340.5 22.1524
29340.7 16.7920
29340.9 13.8951
29341.2 11.0675
29341.5 9.79155
29342.2 8.69695
29342.8 8.26472
29344.1 7.92071
29345.4 7.78924
29350.5 7.64834
29360.8 7.60086
29381.5 7.57313
29422.7 7.53795
29505.2 7.47522
29670.1 7.35653
30000.0 7.13550
30509.8 6.82041
30764.7 6.65181
30828.4 6.59724
30892.1 6.52148
30924.0 6.46228
30939.9 6.41994
30955.9 6.36072
30971.8 6.26816
30979.8 6.19717
30987.7 6.09399
30995.7 5.92760
30999.7 5.79864
31003.6 5.61084
31007.6 5.31030
31009.6 5.08145
31011.6 4.75562
31013.6 4.25626
31015.6 3.40605
31016.6 2.72537
31017.6 1.79698
31018.6 1.10039
31018.8 1.52888
31019.1 3.06026
31019.3 7.52468
31019.5 11.9881
31019.6 19.5451
31019.7 29.4410
31019.8 43.5500
31020.0 71.9940
31020.1 77.4837
31020.2 74.9129
31020.4 59.0380
31020.6 47.8236
31020.8 39.1411
31020.9 32.9477
31021.1 28.7003
31021.4 22.9022
31021.8 19.3586
31022.1 17.0137
31022.4 15.3644
31023.1 13.2194
31023.7 11.8817
31024.4 10.9959
31025.7 9.88227
31027.1 9.20947
31028.4 8.76569
31031.0 8.21246
31033.7 7.88059
31036.3 7.66074
31041.6 7.38564
31046.9 7.22007
31052.2 7.10942
31062.8 6.96959
31073.4 6.88380
31083.9 6.82507
31105.1 6.74795
31147.4 6.66084
31189.8 6.60737
31359.1 6.47846
31697.8 6.30231
32375.1 6.00676
33052.5 5.72593
33391.2 5.57305
33560.5 5.48533
33645.2 5.43587
33687.5 5.40907
33708.7 5.39584
33719.3 5.39450
33724.6 5.41938
33727.2 5.53619
33728.5 5.97060
33729.2 7.34426
33729.5 10.7569
33729.7 17.0204
33729.8 23.8965
33729.9 38.0709
33729.9 58.6033
33730.0 71.2370
33730.1 58.9763
33730.1 38.5473
33730.2 25.5442
33730.3 18.0392
33730.5 11.4700
33730.8 7.66648
33731.4 6.11828
33732.7 5.59921
33735.2 5.44266
33740.2 5.39445
33750.3 5.37409
33770.5 5.35522
33810.9 5.32268
33891.6 5.25098
33972.3 5.16181
34053.0 5.04178
34133.7 4.86118
34174.0 4.72673
34214.4 4.53554
34234.6 4.40473
34254.7 4.23639
34274.9 4.01076
34295.1 3.69175
34305.2 3.47662
34315.3 3.20517
34325.4 2.85279
34335.4 2.38059
34345.5 1.72589
34350.6 1.30672
34355.6 0.827859
34360.7 0.347914
34363.2 0.184159
34365.7 0.196836
34367.0 0.340413
34368.2 0.648114
34369.5 1.21706
34370.8 2.20773
34372.0 3.89052
34373.3 6.72657
34374.5 11.4953
34375.8 19.4287
34376.9 29.6835
34377.9 43.5215
34380.0 72.4738
34381.1 77.7319
34382.1 74.6800
34384.2 58.5197
34386.3 44.1540
34388.4 34.5713
34390.5 28.2624
34392.6 23.9637
34394.7 20.8980
34396.8 18.6487
34401.0 15.5917
34405.1 13.6326
34409.3 12.2878
34417.7 10.5704
34426.1 9.52662
34434.4 8.82942
34442.8 8.33072
34451.1 7.95741
34467.9 7.43499
34484.6 7.08689
34501.3 6.83795
34518.1 6.65072
34551.5 6.38673
34585.0 6.20833
34651.9 5.97897
34718.8 5.83401
34785.8 5.73100
34852.7 5.65245
34886.2 5.62511
34902.9 5.64361
34907.1 5.67804
34911.3 5.78507
34913.3 5.93625
34915.4 6.35117
34916.5 6.89433
34917.5 8.24422
34918.1 9.87048
34918.6 13.3906
34918.8 16.9344
34919.1 23.3312
34919.2 28.5618
34919.4 36.1591
34919.5 47.4427
34919.6 65.4686
34919.8 101.988
34920.0 126.318
34920.2 102.758
34920.4 66.4345
34920.5 49.4407
34920.6 38.4710
34920.9 25.4575
34921.1 18.4645
34921.4 14.6684
34921.9 10.7166
34922.3 8.90234
34923.3 7.29386
34924.3 6.63062
34926.2 6.09895
34928.2 5.89280
34932.0 5.73168
34935.9 5.66902
34943.7 5.61689
34951.5 5.59315
34982.5 5.54980
35044.6 5.49932
35106.8 5.45804
35137.8 5.43918
35153.4 5.43037
35161.1 5.42714
35165.0 5.42988
35167.0 5.44746
35167.9 5.51329
35168.4 5.72812
35168.7 6.27382
35168.8 7.27994
35168.9 11.6087
35169.0 17.7976
35169.1 11.6092
35169.2 7.79229
35169.3 6.56377
35169.5 5.86391
35169.9 5.55884
35170.6 5.45929
35172.2 5.42961
35175.3 5.42008
35181.4 5.41459
35193.8 5.40721
35218.5 5.39364
35267.8 5.36777
35366.5 5.31940
35564.0 5.23120
35761.4 5.14884
35860.1 5.11126
35884.8 5.10546
35909.5 5.10955
35921.8 5.12585
35934.2 5.18352
35940.4 5.26828
35943.4 5.35310
35946.5 5.50465
35949.6 5.81491
35951.2 6.10470
35952.7 6.59432
35954.2 7.52190
35955.0 8.31806
35955.8 9.55373
35956.6 11.6047
35957.3 15.3158
35957.7 18.4034
35958.1 22.7779
35958.5 29.4547
35958.9 39.3918
35959.4 60.0537
35960.0 74.3318
35960.6 60.5659
35961.1 39.9999
35961.6 29.0454
35962.0 22.1331
35962.4 17.6519
35962.9 14.6586
35963.7 11.1094
35964.6 9.19908
35965.4 8.06542
35966.3 7.34110
35968.0 6.50499
35969.8 6.05772
35971.5 5.79335
35974.9 5.50673
35978.4 5.36173
35981.8 5.27812
35988.7 5.18872
36002.5 5.11621
36016.2 5.08501
36043.8 5.05342
36071.3 5.03368
36181.6 4.97426
36291.8 4.91544
36402.0 4.84691
36512.2 4.75647
36567.3 4.69457
36622.4 4.61057
36677.5 4.48304
36705.0 4.38735
36732.6 4.25029
36746.4 4.15584
36760.1 4.03362
36773.9 3.86828
36787.7 3.63166
36794.6 3.46999
36801.5 3.26339
36808.4 2.99035
36815.2 2.61456
36818.7 2.36822
36822.1 2.06826
36825.6 1.69633
36829.0 1.23669
36835.9 0.200738
36837.6 0.238411
36838.5 0.491225
36839.3 1.07371
36840.2 2.26366
36841.1 4.60399
36841.5 6.51019
36841.9 9.17254
36842.4 12.8814
36842.8 18.0035
36843.3 27.4269
36843.9 39.9938
36845.0 66.4098
36845.6 71.1222
36846.1 68.2806
36847.2 53.3960
36848.5 38.9695
36849.7 29.8247
36850.9 24.0732
36852.2 20.3020
36853.4 17.6571
36854.6 15.7500
36857.1 13.1835
36859.6 11.5630
36862.1 10.4564
36867.0 9.05286
36871.9 8.20394
36876.9 7.63924
36881.8 7.23653
36886.8 6.93509
36896.7 6.51380
36906.5 6.23390
36916.4 6.03390
36926.3 5.88393
36946.1 5.67307
36965.8 5.53127
37005.4 5.35060
37044.9 5.23815
37084.5 5.15965
37163.5 5.05335
37242.6 4.98069
37321.7 4.92474
37400.8 4.87813
37440.3 4.85703
37460.1 4.84782
37470.0 4.84979
37474.9 4.88145
37477.4 5.02095
37478.6 5.53452
37479.2 7.12854
37479.5 10.9546
37479.7 16.9766
37479.8 23.9485
37479.8 36.3694
37479.9 54.3296
37480.0 68.2331
37480.1 54.7743
37480.2 36.7021
37480.2 23.3169
37480.3 16.2001
37480.5 10.1897
37480.9 6.86369
37481.6 5.49021
37483.0 5.03148
37485.8 4.89409
37491.4 4.85163
37502.6 4.83426
37525.1 4.81988
37570.1 4.79833
37660.0 4.75982
37749.9 4.72391
37794.9 4.70648
37817.4 4.69792
37828.6 4.69491
37834.2 4.70049
37837.1 4.73405
37838.5 4.86805
37839.2 5.31050
37839.5 6.47607
37839.7 8.78144
37839.9 17.6935
37840.0 30.9609
37840.1 17.9574
37840.3 10.0498
37840.4 7.45636
37840.7 5.79670
37841.2 5.05305
37842.2 4.80021
37844.4 4.72196
37848.6 4.69760
37857.0 4.68755
37873.9 4.67906
37907.6 4.66589
37975.1 4.64123
38110.1 4.59347
38380.1 4.50006
38920.1 4.30992
39460.0 4.09996
39730.0 3.98151
40000.0 3.85010
40184.0 3.75458
40230.0 3.73345
40275.9 3.72239
40298.9 3.73129
40310.4 3.74700
40321.9 3.78103
40333.4 3.85996
40339.2 3.93972
40344.9 4.08289
40350.7 4.37425
40353.6 4.64695
40356.4 5.10531
40359.3 5.96815
40360.8 6.71248
40362.2 7.85926
40363.6 9.77754
40365.1 13.2301
40365.8 16.0842
40366.5 20.2504
40367.2 26.4688
40367.9 35.5800
40369.0 54.6946
40370.0 67.4189
40371.1 54.5228
40372.1 35.4588
40372.9 25.7777
40373.6 19.4644
40374.4 15.3363
40375.2 12.5615
40376.7 9.25257
40378.2 7.47214
40379.8 6.40497
40381.3 5.72665
40384.4 4.94028
40387.5 4.52084
40390.5 4.27254
40396.7 4.00383
40402.8 3.86800
40409.0 3.78915
40421.2 3.70337
40445.8 3.62817
40470.4 3.58951
40495.0 3.56262
40519.5 3.54633
40531.8 3.55062
40544.1 3.59384
40550.2 3.67139
40556.4 3.90574
40559.5 4.22312
40561.0 4.52414
40562.5 5.02948
40564.1 5.97680
40564.8 6.78303
40565.6 7.99368
40566.4 9.96908
40567.1 13.3896
40567.9 19.7950
40568.7 32.1810
40569.3 50.1234
40570.0 62.7137
40570.7 51.6625
40571.3 34.1068
40571.9 23.9733
40572.5 17.8040
40573.0 13.9268
40573.6 11.3964
40574.7 8.46032
40575.8 6.90787
40577.0 5.99412
40578.1 5.41191
40580.3 4.73871
40582.6 4.37602
40584.8 4.15870
40589.3 3.91816
40593.8 3.79233
40598.3 3.71694
40607.2 3.63156
40625.2 3.55314
40643.1 3.51245
40679.0 3.46135
40696.9 3.44227
40705.9 3.43990
40710.4 3.46859
40712.6 3.60088
40713.7 4.08008
40714.3 5.52734
40714.6 8.86875
40714.7 14.1694
40714.9 30.4946
40714.9 47.5058
40715.0 57.9790
40715.1 47.8293
40715.1 30.9076
40715.3 15.1285
40715.4 9.61781
40715.7 5.87972
40716.2 4.24336
40717.3 3.66911
40719.4 3.49179
40723.7 3.43700
40732.2 3.41386
40749.2 3.39293
40783.2 3.35948
40851.3 3.29561
40987.5 3.16269
41123.7 3.01493
41191.8 2.93332
41225.8 2.88971
41242.8 2.86684
41251.3 2.85763
41255.6 2.87034
41257.7 2.95535
41258.8 3.28224
41259.3 4.26347
41259.6 6.49941
41259.7 9.69284
41259.8 17.7738
41260.0 33.3406
41260.2 18.4143
41260.3 9.52269
41260.5 6.47161
41260.7 4.37843
41261.3 3.37866
41262.4 3.01810
41264.7 2.89875
41269.2 2.85577
41278.3 2.83126
41296.4 2.80208
41332.6 2.74944
41405.0 2.64048
41549.7 2.39264
41622.1 2.24996
41694.5 2.09225
41766.9 1.91995
41803.1 1.84502
41812.2 1.84390
41821.2 1.88865
41825.8 1.97425
41830.3 2.23396
41832.5 2.58834
41833.7 2.92770
41834.8 3.51306
41835.9 4.64444
41836.5 5.65917
41837.1 7.25204
41837.6 10.0599
41838.2 15.3744
41838.5 20.1996
41838.8 27.4408
41839.0 39.0506
41839.3 58.2035
41839.7 92.1997
41840.0 115.510
41840.3 92.9234
41840.7 59.0210
41841.0 36.8951
41841.4 24.3815
41841.7 17.2679
41842.1 13.0597
41842.4 10.2603
41842.8 8.37082
41843.5 6.09498
41844.2 4.79807
41844.8 4.01146
41846.2 3.12615
41847.6 2.66848
41849.0 2.40032
41851.8 2.11191
41857.4 1.87838
41862.9 1.77991
41874.0 1.68366
41885.1 1.62590
41929.6 1.45834
41974.0 1.30051
42018.5 1.13553
42107.4 0.777508
42196.2 0.396367
42240.7 0.217023
42262.9 0.138745
42285.1 0.0742734
42307.4 0.0308055
42329.6 0.0187692
42351.8 0.0532401
42362.9 0.0944869
42374.0 0.156423
42385.1 0.243642
42396.3 0.361520
42418.5 0.718350
42440.7 1.30364
42462.9 2.23660
42485.1 3.70538
42507.4 6.00357
42529.6 9.58666
42551.8 15.1095
42573.9 23.2636
42595.9 34.4310
42640.0 58.0701
42662.1 62.5054
42684.1 60.2518
42728.2 47.4074
42756.9 39.4254
42785.7 33.1509
42843.2 24.7586
42900.6 19.7650
42958.1 16.5826
43015.6 14.4187
43073.1 12.8683
43188.0 10.8141
43303.0 9.52385
43417.9 8.64169
43475.4 8.29999
43532.9 8.01517
43561.6 7.90291
43576.0 7.86274
43590.4 7.84612
43604.7 7.88583
43611.9 7.95668
43619.1 8.10895
43626.3 8.45688
43629.9 8.80135
43633.5 9.40510
43637.1 10.5851
43638.9 11.6414
43640.7 13.3247
43642.5 16.2606
43644.3 21.8930
43645.2 26.8416
43646.1 34.5091
43647.0 46.8486
43647.8 66.6261
43648.9 102.506
43650.0 126.807
43651.1 103.530
43652.2 67.9053
43652.8 52.5333
43653.5 41.6180
43654.8 28.4062
43656.1 21.3809
43657.4 17.3158
43658.7 14.7833
43660.0 13.1083
43662.6 11.1075
43665.2 10.0050
43667.8 9.33245
43673.0 8.58478
43678.2 8.19328
43683.3 7.95895
43688.5 7.80369
43693.7 7.69337
43704.1 7.54405
43714.5 7.44416
43735.3 7.30772
43756.1 7.20803
43776.9 7.12498
43818.4 6.98317
43901.6 6.74566
43984.7 6.54110
44151.0 6.18777
44317.2 5.87160
44483.5 5.54976
44566.6 5.36548
44649.8 5.14167
44732.9 4.83470
44774.5 4.61953
44816.0 4.32584
44836.8 4.13101
44857.6 3.88642
44878.4 3.56801
44899.2 3.13451
44919.9 2.51053
44930.3 2.08791
44940.7 1.56260
44951.1 0.925993
44961.5 0.294569
44966.7 0.196535
44969.3 0.336880
44971.9 0.739353
44974.5 1.61804
44975.8 2.34764
44977.1 3.36509
44978.4 4.77390
44979.7 6.71358
44981.0 9.36680
44982.3 12.9274
44984.2 20.4963
44986.1 31.1236
44990.0 54.7766
44991.9 60.0091
44993.9 58.7507
44997.7 47.4477
45001.2 37.6194
45004.6 30.5625
45008.1 25.6430
45011.5 22.1666
45018.5 17.7012
45025.4 15.0353
45032.3 13.2883
45039.2 12.0665
45053.0 10.4826
45066.8 9.50454
45080.6 8.84309
45094.4 8.36547
45108.2 8.00460
45135.9 7.49375
45163.5 7.14794
45191.1 6.89672
45218.8 6.70477
45274.0 6.42755
45329.3 6.23372
45439.8 5.97211
45550.3 5.79593
45660.8 5.66372
45771.3 5.55739
45826.6 5.51056
45854.2 5.48840
45868.0 5.48047
45874.9 5.49395
45878.4 5.57758
45880.1 5.91229
45881.0 7.01101
45881.4 9.85753
45881.6 15.2893
45881.7 22.0522
45881.8 35.1990
45881.9 52.7637
45882.0 65.6366
45882.1 53.3392
45882.2 35.9066
45882.3 19.6187
45882.5 13.3113
45882.8 8.73211
45883.3 6.59992
45884.5 5.82065
45886.8 5.57350
45891.3 5.49702
45900.5 5.46795
45918.8 5.44744
45955.4 5.41932
46028.5 5.37042
46101.7 5.32569
46138.3 5.30447
46156.6 5.29435
46165.8 5.29047
46170.3 5.29305
46172.6 5.31147
46173.8 5.38193
46174.3 5.61377
46174.6 6.26586
46174.8 7.53360
46174.9 13.1263
46175.0 20.9626
46175.1 13.1191
46175.2 8.59152
46175.3 6.89784
46175.5 5.91384
46175.9 5.48054
46176.7 5.33802
46178.2 5.29649
46181.3 5.28377
46187.5 5.27749
46200.0 5.27029
46212.4 5.26858
46218.6 5.29420
46221.7 5.41772
46223.2 5.87446
46224.0 7.28465
46224.4 10.5873
46224.6 15.6541
46224.8 30.3129
46224.9 46.0102
46225.0 55.8692
46225.1 46.5000
46225.2 30.8147
46225.3 20.4223
46225.4 14.6338
46225.7 9.70507
46226.2 6.94753
46227.1 5.80790
46229.0 5.42470
46232.8 5.30708
46240.3 5.26829
46255.4 5.24947
46285.5 5.23039
46345.9 5.19954
46466.5 5.14384
46587.2 5.09262
46647.5 5.06817
46677.7 5.05599
46692.8 5.05019
46700.3 5.05066
46704.1 5.06841
46706.0 5.15081
46706.9 5.45333
46707.4 6.37072
46707.6 8.56759
46707.8 12.1456
46707.9 22.4245
46708.0 40.2257
46708.1 22.8467
46708.2 12.9949
46708.3 9.22213
46708.6 6.74000
46709.0 5.62712
46709.9 5.22443
46711.6 5.09945
46715.1 5.06074
46722.0 5.04659
46735.9 5.03751
46763.6 5.02575
46819.2 5.00493
46930.2 4.96581
47152.3 4.89343
47596.4 4.76557
48040.6 4.65336
48262.7 4.60123
48373.7 4.57569
48429.2 4.56312
48457.0 4.55945
48470.9 4.57243
48477.8 4.64447
48481.3 4.93477
48482.1 5.21824
48483.0 5.93566
48483.4 6.82561
48483.9 8.81079
48484.1 10.9497
48484.3 14.7982
48484.5 23.5108
48484.6 31.8712
48484.7 44.6161
48484.9 68.3565
48485.0 85.3622
48485.1 68.9083
48485.3 45.2972
48485.4 29.8150
48485.6 20.8918
48485.8 12.8732
48486.1 9.43277
48486.4 7.79101
48486.9 6.26000
48487.5 5.61690
48488.6 5.07947
48489.7 4.87084
48494.0 4.64543
48502.8 4.57808
48520.3 4.55469
48555.2 4.54079
48625.2 4.52343
48765.1 4.49274
48905.0 4.46313
48974.9 4.44849
49009.9 4.44128
49027.4 4.43860
49036.1 4.44208
49040.5 4.46479
49042.7 4.55850
49043.8 4.89260
49044.3 5.92845
49044.6 8.33231
49044.7 12.4513
49044.9 24.5896
49045.0 44.9705
49045.1 24.8152
49045.2 14.9197
49045.3 10.6396
49045.5 7.24530
49045.9 5.44357
49046.6 4.74693
49048.0 4.52404
49050.9 4.45924
49056.7 4.43989
49068.3 4.43221
49091.5 4.42580
49137.8 4.41576
49230.6 4.39679
49416.0 4.36033
49508.7 4.34408
49601.4 4.33475
49647.7 4.34085
49670.9 4.35285
49694.1 4.38020
49717.3 4.44682
49728.9 4.51677
49740.4 4.64632
49746.2 4.75564
49752.0 4.92074
49757.8 5.18632
49763.6 5.64819
49769.4 6.55502
49772.3 7.37084
49775.2 8.68659
49778.1 11.0118
49781.0 15.5948
49782.5 19.7209
49783.9 26.2857
49785.4 37.2317
49786.8 55.6505
49788.4 87.1707
49790.0 108.484
49791.6 88.0562
49793.2 57.0217
49794.8 36.8020
49796.5 25.4901
49798.1 18.9721
49799.7 15.0054
49801.3 12.4174
49802.9 10.6670
49806.1 8.50903
49809.4 7.28961
49812.6 6.53535
49819.1 5.68968
49825.5 5.24986
49832.0 4.99207
49838.5 4.82723
49844.9 4.71502
49857.8 4.57537
49870.8 4.49417
49896.6 4.40599
49922.5 4.35965
49948.3 4.33079
50000.0 4.29523
50088.4 4.25908
50176.9 4.23298
50353.7 4.18900
50530.5 4.14713
50707.4 4.10323
50884.2 4.05340
51061.1 3.98947
51149.5 3.94564
51237.9 3.88392
51282.1 3.84010
51326.3 3.77975
51370.6 3.68847
51392.7 3.62237
51403.7 3.58597
51409.2 3.58648
51412.0 3.66391
51413.4 3.95307
51414.1 4.75151
51414.4 6.38927
51414.6 8.52243
51414.8 13.3138
51415.0 23.1017
51415.2 13.3096
51415.4 8.00947
51415.6 6.00096
51416.0 4.56469
51416.8 3.86412
51418.3 3.60816
51421.4 3.51651
51427.6 3.45793
51439.9 3.35905
51452.2 3.23146
51464.5 3.04985
51476.8 2.76810
51483.0 2.55997
51489.1 2.27481
51495.3 1.86320
51501.4 1.24645
51504.5 0.846881
51507.6 0.499578
51509.1 0.525335
51510.7 1.08034
51511.4 1.84368
51512.2 3.29121
51513.0 5.98875
51513.7 10.8427
51514.3 16.7003
51514.9 24.6547
51516.0 41.9711
51516.6 45.4625
51517.1 44.0951
51518.3 35.1337
51519.6 25.8499
51520.9 20.0171
51522.2 16.3541
51523.5 13.9367
51524.8 12.2449
51526.1 11.0255
51528.7 9.38911
51531.3 8.34999
51533.9 7.64162
51539.1 6.74002
51544.3 6.19249
51549.5 5.82648
51554.7 5.56496
51559.9 5.36922
51570.3 5.09479
51580.8 4.91205
51591.2 4.78127
51601.6 4.68309
51622.4 4.54489
51643.2 4.45188
51664.1 4.38484
51674.5 4.35890
51679.7 4.35168
51682.3 4.36562
51683.6 4.43494
51684.2 4.67162
51684.6 5.34885
51684.7 6.70955
51684.9 13.6120
51685.0 22.8986
51685.1 13.6185
51685.3 6.71298
51685.4 5.30677
51685.8 4.66156
51686.4 4.42702
51687.8 4.35349
51690.4 4.32842
51695.7 4.31272
51706.3 4.29193
51727.4 4.25800
51769.8 4.20589
51812.1 4.16671
51854.5 4.13551
51939.1 4.08710
51981.5 4.06693
52002.6 4.05760
52013.2 4.05656
52018.5 4.07604
52021.2 4.17081
52022.5 4.51643
52023.1 5.52479
52023.5 7.68400
52023.6 10.9252
52023.8 18.8919
52024.0 34.2484
52024.2 19.4074
52024.4 11.6670
52024.5 8.28878
52024.8 5.86703
52025.5 4.69720
52026.7 4.25792
52029.3 4.11519
52034.3 4.06942
52044.4 4.05158
52064.5 4.03925
52104.9 4.02324
52185.5 3.99659
52346.9 3.95067
52508.2 3.90912
52588.9 3.88889
52629.2 3.88145
52649.4 3.89614
52659.5 3.98904
52662.0 4.08955
52664.5 4.36862
52665.8 4.73449
52667.0 5.65859
52667.6 6.75127
52668.3 9.15706
52668.6 11.6355
52668.9 15.9738
52669.2 24.9815
52669.4 32.9720
52669.5 44.3513
52669.8 69.4003
52670.0 85.8822
52670.2 70.2342
52670.5 45.4023
52670.7 29.5410
52670.9 20.7519
52671.2 15.6321
52671.4 12.4756
52671.9 9.01478
52672.3 7.28342
52673.2 5.69332
52674.2 5.01010
52676.0 4.44659
52677.8 4.22331
52681.5 4.04708
52685.2 3.97901
52699.9 3.90264
52729.4 3.87293
52788.3 3.85160
52906.2 3.82189
53024.0 3.79442
53083.0 3.78088
53112.4 3.77422
53127.2 3.77125
53134.5 3.77118
53138.2 3.77662
53140.1 3.79974
53141.0 3.88237
53141.4 4.14032
53141.7 4.78477
53141.8 6.01520
53141.9 10.1341
53142.0 16.4922
53142.1 10.1250
53142.3 5.13615
53142.5 4.28907
53142.8 3.93509
53143.6 3.81478
53145.1 3.77933
53148.0 3.76916
53154.0 3.76534
53165.8 3.76200
53189.5 3.75638
53237.0 3.74540
53284.4 3.73449
53308.2 3.72938
53320.0 3.72828
53326.0 3.73347
53328.9 3.75807
53330.4 3.84983
53331.1 4.15549
53331.5 5.00922
53331.7 6.88622
53331.8 9.43489
53331.9 16.3579
53332.0 28.9991
53332.1 16.3626
53332.2 8.67435
53332.3 6.25857
53332.6 4.72125
53333.0 4.03872
53333.9 3.81296
53335.7 3.74656
53339.3 3.72783
53346.4 3.72150
53360.7 3.71695
53389.2 3.70993
53446.3 3.69631
53560.5 3.66880
53674.7 3.64062
53731.8 3.62628
53760.4 3.61923
53774.6 3.61652
53781.8 3.61844
53785.3 3.63217
53787.1 3.68636
53788.0 3.87564
53788.5 4.46169
53788.7 5.82420
53788.8 8.04216
53788.9 14.7729
53789.0 25.9423
53789.1 14.7796
53789.2 7.46123
53789.4 5.32516
53789.7 4.21063
53790.2 3.79029
53791.3 3.66007
53793.6 3.62331
53798.1 3.61258
53807.0 3.60778
53824.9 3.60249
53860.7 3.59295
53932.2 3.57383
54075.3 3.53429
54361.5 3.44861
54647.7 3.35413
54790.8 3.31052
54862.4 3.29956
54898.1 3.30340
54916.0 3.31064
54925.0 3.31820
54929.4 3.33080
54931.7 3.36857
54932.8 3.49935
54933.3 3.92052
54933.6 5.03697
54933.8 7.17476
54933.9 14.4233
54934.0 25.5319
54934.1 14.4292
54934.2 7.76590
54934.3 5.67070
54934.5 4.24052
54934.9 3.62329
54935.8 3.40917
54937.4 3.34803
54940.7 3.33421
54947.3 3.33728
54960.5 3.35609
54987.0 3.42738
55000.2 3.49214
55013.4 3.59719
55026.6 3.80229
55033.2 4.06433
55036.5 4.50835
55038.2 5.46057
55039.0 7.64520
55039.4 11.9757
55039.6 18.6758
55039.8 36.9137
55039.9 52.6725
55040.0 60.4316
55040.2 27.3878
55040.3 15.2817
55040.4 9.85589
55040.7 5.68356
55041.2 3.90824
55042.2 3.53576
55044.1 3.64899
55048.1 3.88497
55056.0 4.28013
55063.9 4.79594
55071.8 5.62587
55079.7 7.14879
55083.6 8.43833
55087.6 10.3984
55091.5 13.5757
55095.4 19.0866
55099.4 29.5255
55103.3 50.3240
55106.7 79.5099
55110.0 99.5541
55113.3 80.9928
55116.7 52.3017
55120.0 33.7095
55123.3 23.2362
55126.6 17.1483
55130.0 13.3997
55133.3 10.9589
55136.6 9.29131
55143.2 7.23359
55149.9 6.06247
55156.5 5.33526
55169.8 4.51303
55183.1 4.07994
55196.4 3.82183
55209.7 3.65365
55222.9 3.53657
55249.5 3.38494
55276.1 3.29026
55329.2 3.17305
55382.3 3.09563
55435.5 3.03369
55541.7 2.92483
55648.0 2.81653
55754.3 2.69781
55860.5 2.56019
55913.7 2.47991
55940.2 2.43358
55953.5 2.40790
55960.1 2.41019
55963.5 2.50824
55965.1 2.95437
55966.0 4.42081
55966.4 8.02484
55966.6 13.9635
55966.7 19.9608
55966.8 30.7111
55966.9 48.1470
55967.0 60.8321
55967.1 49.7144
55967.2 32.5225
55967.4 16.5513
55967.6 10.2444
55967.9 5.79692
55968.7 3.62280
55970.1 2.81187
55973.0 2.53722
55978.9 2.43685
55990.5 2.38434
56013.8 2.32971
56060.4 2.23394
56153.6 2.01957
56246.9 1.75101
56340.1 1.40261
56433.3 0.941476
56479.9 0.661600
56526.5 0.361392
56549.8 0.218642
56573.1 0.102503
56596.4 0.0501972
56608.0 0.0694499
56619.7 0.138592
56631.4 0.281344
56643.0 0.532687
56654.7 0.945969
56666.3 1.60271
56678.0 2.62864
56689.6 4.21742
56701.3 6.66105
56712.9 10.3712
56725.2 16.1827
56737.5 24.2199
56762.0 41.6274
56774.3 45.1708
56786.6 43.8594
56811.1 34.9357
56836.1 26.5746
56861.0 20.9362
56886.0 17.2193
56911.0 14.6838
56935.9 12.8796
56960.9 11.5467
57010.8 9.73002
57060.7 8.56269
57110.7 7.75549
57210.5 6.71728
57310.4 6.07994
57410.2 5.64841
57510.1 5.33573
57560.0 5.20920
57584.9 5.15183
57597.4 5.12506
57603.7 5.11456
57606.8 5.11932
57608.3 5.15815
57609.1 5.29994
57609.5 5.71797
57609.7 6.70594
57609.9 12.8608
57610.0 20.6280
57610.1 12.8637
57610.2 7.47376
57610.4 6.19406
57610.6 5.49300
57611.2 5.21411
57612.2 5.12562
57614.3 5.09683
57618.5 5.08159
57626.9 5.06264
57643.7 5.02862
57677.4 4.96468
57711.0 4.90479
57727.8 4.88020
57736.2 4.89444
57740.4 5.01627
57742.5 5.48029
57743.6 6.81671
57744.1 9.62477
57744.4 13.4091
57744.6 22.4024
57744.8 33.1213
57745.0 40.7540
57745.2 33.7681
57745.4 23.2053
57745.5 16.0985
57745.7 12.2247
57746.1 8.54989
57746.8 6.31087
57748.3 5.34754
57751.3 5.00596
57757.1 4.88952
57768.9 4.83712
57792.5 4.79062
57839.7 4.72116
57934.0 4.60405
58028.3 4.50395
58122.6 4.41636
58311.2 4.26842
58405.5 4.20417
58452.7 4.17320
58476.3 4.15712
58488.1 4.14966
58494.0 4.15651
58496.9 4.21599
58498.4 4.46934
58499.1 5.33436
58499.5 7.60917
58499.7 11.5913
58499.8 25.1921
58500.0 47.1538
58500.2 26.1086
58500.3 14.0515
58500.4 9.67668
58500.7 6.54286
58501.2 4.99173
58502.3 4.42262
58504.4 4.23522
58508.6 4.17395
58517.0 4.14941
58533.9 4.13244
58567.6 4.11022
58635.0 4.07160
58769.8 4.00066
59039.5 3.86936
59174.3 3.80243
59309.2 3.72392
59376.6 3.67114
59410.3 3.63636
59444.0 3.59038
59477.7 3.52217
59494.6 3.47163
59511.4 3.39967
59528.3 3.28596
59536.7 3.19893
59545.1 3.07360
59553.6 2.87585
59562.0 2.51746
59566.2 2.20147
59570.4 1.68304
59572.5 1.29014
59574.6 0.797765
59576.7 0.609115
59577.8 1.81418
59578.3 3.94631
59578.8 8.77353
59579.1 13.4962
59579.4 20.1215
59580.0 34.6787
59580.3 37.7684
59580.6 36.8270
59581.2 29.6257
59581.6 24.7122
59582.0 20.7928
59582.8 15.6628
59583.6 12.6812
59584.4 10.8085
59586.1 8.64934
59587.7 7.47346
59589.3 6.73575
59591.0 6.23794
59594.2 5.60609
59597.5 5.22358
59600.8 4.96897
59607.3 4.65031
59613.9 4.45857
59620.4 4.33061
59633.5 4.16946
59646.6 4.07143
59659.7 4.00484
59685.9 3.91869
59712.1 3.86381
59738.2 3.82455
59790.6 3.76948
59842.9 3.73005
59895.3 3.69850
60000.0 3.64732
60131.9 3.59369
60263.8 3.54577
60395.7 3.50388
60428.7 3.49828
60461.7 3.50610
60478.2 3.52949
60494.6 3.60920
60502.9 3.72390
60507.0 3.83623
60511.1 4.03317
60515.3 4.42038
60517.3 4.76843
60519.4 5.33059
60521.4 6.31567
60523.5 8.24550
60524.5 9.95753
60525.6 12.6456
60526.6 17.0478
60527.6 24.3622
60528.8 37.3407
60530.0 46.1979
60531.2 37.9134
60532.4 25.2213
60533.4 18.0780
60534.4 13.6357
60535.4 10.8472
60536.3 9.04511
60538.3 6.94235
60540.3 5.83285
60542.3 5.17917
60544.2 4.76662
60548.2 4.29192
60552.1 4.03841
60556.1 3.88728
60564.0 3.72156
60579.7 3.58561
60595.5 3.52916
60627.1 3.47810
60658.6 3.45178
60721.7 3.41850
60784.8 3.39348
60847.9 3.37265
60911.0 3.36066
60942.6 3.36762
60974.1 3.41512
60989.9 3.49646
60997.8 3.58200
61005.7 3.73994
61013.6 4.07191
61017.5 4.38964
61021.5 4.93360
61025.4 5.97608
61027.4 6.88557
61029.3 8.31361
61031.3 10.7181
61033.3 15.1516
61034.3 18.8705
61035.3 24.3079
61036.2 32.6276
61037.2 45.1110
61038.6 70.9494
61040.0 88.7918
61041.4 72.3884
61042.8 46.9112
61044.3 29.6340
61045.7 20.2372
61047.2 14.9374
61048.7 11.7430
61050.2 9.69446
61051.7 8.31050
61054.6 6.62605
61057.6 5.67501
61060.5 5.08805
61066.4 4.43063
61072.4 4.08720
61078.3 3.88465
61090.1 3.66442
61101.9 3.55140
61113.8 3.48419
61137.4 3.40866
61161.1 3.36668
61184.7 3.33895
61232.1 3.30186
61326.7 3.25329
61421.3 3.21503
61610.6 3.14584
61705.3 3.11196
61752.6 3.09499
61776.2 3.08666
61788.1 3.08324
61794.0 3.08454
61796.9 3.09678
61798.4 3.14552
61799.2 3.31355
61799.5 3.80666
61799.7 4.85809
61799.9 10.9292
61800.0 18.7767
61800.1 10.9247
61800.2 5.55047
61800.4 4.16740
61800.7 3.46799
61801.2 3.19601
61802.3 3.10950
61804.5 3.08469
61808.8 3.07676
61817.5 3.07194
61834.9 3.06516
61869.7 3.05226
61939.4 3.02633
62078.7 2.97301
62357.2 2.85806
62496.5 2.79502
62635.7 2.72690
62775.0 2.65158
62844.6 2.60998
62879.5 2.59526
62896.9 2.63770
62901.2 2.69860
62905.6 2.88251
62907.8 3.13659
62909.9 3.80065
62911.0 4.61575
62912.1 6.47874
62912.7 8.45510
62913.2 12.1094
62913.5 15.2072
62913.7 19.8576
62914.0 27.0476
62914.3 38.6838
62914.6 61.0751
62915.0 76.5256
62915.4 62.4618
62915.7 40.4189
62916.0 29.7246
62916.2 22.7170
62916.7 14.5910
62917.2 10.3864
62917.7 8.07686
62918.6 5.71530
62919.6 4.62327
62921.5 3.65536
62923.5 3.25431
62927.3 2.92504
62931.2 2.79309
62938.9 2.68422
62946.7 2.63805
62977.6 2.57100
63039.5 2.51439
63163.2 2.42279
63286.9 2.32617
63348.8 2.27329
63379.7 2.24554
63395.2 2.23663
63402.9 2.26304
63406.8 2.40535
63408.7 2.90769
63409.7 4.27151
63410.1 6.82346
63410.4 9.98095
63410.6 16.7605
63410.8 25.8553
63411.0 31.9761
63411.2 26.3928
63411.4 17.4364
63411.6 11.1738
63411.8 7.83181
63412.3 4.93744
63413.1 3.27401
63414.9 2.57423
63418.4 2.33042
63425.3 2.24741
63439.3 2.20957
63467.2 2.17418
63523.0 2.11447
63578.9 2.05190
63606.8 2.01817
63620.7 2.00946
63627.7 2.06220
63631.2 2.33688
63632.9 3.32631
63633.4 4.19114
63633.8 6.06067
63634.2 11.5103
63634.5 18.6142
63634.7 33.3408
63634.8 53.2946
63635.0 66.2780
63635.2 54.5488
63635.3 34.9322
63635.5 24.4144
63635.6 17.8476
63635.9 10.8607
63636.4 5.83946
63636.9 4.12061
63637.4 3.36432
63639.5 2.44203
63643.7 2.13606
63652.1 2.02964
63668.9 1.97678
63702.5 1.92303
63769.6 1.82931
63903.9 1.62273
64038.3 1.37100
64172.6 1.05613
64306.9 0.661533
64374.0 0.437879
64441.2 0.219914
64474.8 0.131920
64508.3 0.0816603
64525.1 0.0813683
64541.9 0.106727
64558.7 0.167967
64575.5 0.279416
64592.3 0.461709
64609.1 0.744278
64625.9 1.16990
64642.7 1.80111
64659.4 2.72953
64676.2 4.08847
64693.0 6.06692
64709.8 8.91341
64729.9 13.8418
64749.9 20.6449
64790.0 35.2755
64810.1 38.1732
64830.1 36.9673
64870.2 29.3058
64912.9 21.9232
64955.7 17.0653
64998.4 13.9227
65041.1 11.8049
65083.9 10.3094
65126.6 9.20859
65212.0 7.71009
65297.5 6.74346
65383.0 6.06828
65468.4 5.56781
65511.2 5.36239
65532.5 5.26909
65543.2 5.22704
65548.5 5.21680
65551.2 5.25074
65552.5 5.40707
65553.2 5.92836
65553.5 7.27561
65553.7 9.92084
65553.9 19.3497
65554.0 33.5261
65554.1 19.3531
65554.2 11.6093
65554.4 8.61490
65554.6 6.62666
65555.0 5.66535
65555.8 5.31383
65557.5 5.20317
65560.9 5.16102
65567.7 5.12679
65581.2 5.07274
65608.2 4.97287
65662.3 4.79112
65770.5 4.48160
65878.7 4.22351
65932.8 4.10837
65959.9 4.05364
65973.4 4.02723
65980.1 4.01546
65983.5 4.01462
65985.2 4.03288
65986.1 4.10760
65986.5 4.33885
65986.7 4.89708
65986.9 9.03048
65987.0 14.0648
65987.1 9.03425
65987.3 5.15144
65987.5 4.44701
65987.8 4.14493
65988.5 4.03944
65989.9 4.00594
65992.7 3.99211
65998.3 3.97911
66009.6 3.95715
66032.0 3.91489
66077.0 3.83317
66166.8 3.67808
66346.6 3.38910
66706.0 2.82023
66885.7 2.49900
67065.5 2.11790
67155.3 1.89299
67245.2 1.63902
67290.1 1.50339
67335.0 1.37740
67357.5 1.34097
67368.7 1.34654
67380.0 1.39270
67391.2 1.53993
67396.8 1.70426
67402.4 2.00872
67408.1 2.63292
67410.9 3.20681
67413.7 4.14321
67416.5 5.81418
67419.3 9.15124
67420.7 12.1788
67422.1 16.9808
67423.5 25.0081
67424.9 38.6777
67426.5 61.9763
67428.0 78.0725
67429.6 63.2886
67431.1 40.3103
67432.3 28.1682
67433.5 20.3372
67434.7 15.2663
67435.9 11.9046
67438.2 7.87753
67440.6 5.71174
67443.0 4.41382
67445.4 3.58217
67450.1 2.60839
67454.8 2.07541
67459.6 1.74782
67469.1 1.37109
67478.6 1.15790
67488.1 1.01577
67507.1 0.822671
67545.0 0.562076
67583.0 0.356718
67621.0 0.187907
67640.0 0.123268
67659.0 0.0794015
67677.9 0.0657190
67696.9 0.0962710
67715.9 0.192114
67725.4 0.274764
67730.2 0.331466
67732.5 0.380885
67733.7 0.471801
67734.3 0.723116
67734.6 1.39668
67734.8 2.74373
67734.9 8.16567
67735.0 15.9358
67735.1 8.15402
67735.3 2.10485
67735.5 1.08154
67735.9 0.616794
67736.7 0.469496
67738.2 0.446005
67741.3 0.481410
67747.6 0.586887
67760.0 0.865602
67772.5 1.24882
67778.7 1.49095
67781.8 1.63557
67783.3 1.74745
67784.1 1.92572
67784.5 2.36714
67784.7 3.30300
67784.9 8.99128
67785.0 16.2391
67785.1 9.01765
67785.3 3.09803
67785.6 2.28268
67786.0 1.97290
67786.9 1.90797
67788.7 1.97000
67792.4 2.16103
67799.7 2.61136
67814.2 3.77615
67828.8 5.38700
67843.3 7.58760
67865.0 12.3002
67886.7 18.9913
67930.0 34.2064
67951.7 37.7876
67973.4 37.2525
68016.7 30.4071
68054.3 24.4479
68091.8 20.0509
68129.4 16.9355
68166.9 14.6953
68204.5 13.0373
68242.1 11.7746
68260.8 11.2527
68279.6 10.7931
68289.0 10.5909
68298.4 10.4304
68303.1 10.3990
68307.8 10.5000
68310.1 10.7224
68312.5 11.3764
68313.7 12.2111
68314.8 14.1077
68315.4 16.0931
68316.0 19.6953
68316.3 22.8074
68316.6 27.2582
68316.9 33.9593
68317.2 44.2676
68317.6 65.4952
68318.0 80.5601
68318.4 67.1299
68318.8 46.2926
68319.2 33.4454
68319.6 25.7680
68320.0 21.1689
68320.4 18.3332
68321.2 15.0854
68321.9 13.4111
68323.5 11.8148
68325.0 11.1020
68328.1 10.4660
68331.2 10.1757
68337.4 9.87755
68343.5 9.69778
68355.9 9.43873
68368.2 9.22842
68392.9 8.86872
68417.6 8.55758
68466.9 8.03338
68516.3 7.60502
68615.0 6.94378
68713.7 6.45577
68911.2 5.77943
69009.9 5.53323
69059.3 5.42536
69083.9 5.37576
69096.3 5.36102
69102.4 5.39803
69105.5 5.58498
69107.1 6.19433
69107.8 7.66649
69108.2 10.1468
69108.6 17.8188
69109.0 30.7715
69109.2 25.9127
69109.4 18.2809
69109.8 10.5392
69110.2 7.99716
69110.9 6.38612
69112.5 5.68351
69115.5 5.43182
69121.7 5.34250
69133.9 5.29519
69158.5 5.24263
69207.6 5.15569
69305.9 5.00325
69502.3 4.75149
69698.8 4.54796
69797.0 4.45920
69846.2 4.42055
69870.7 4.41754
69883.0 4.47947
69889.1 4.73651
69890.7 4.97579
69892.2 5.55013
69893.0 6.20003
69893.7 7.52041
69894.5 10.8733
69894.9 14.5625
69895.3 21.4975
69895.6 31.9121
69896.0 38.8243
69896.4 32.0929
69896.7 21.7005
69897.1 14.5129
69897.5 10.7712
69898.3 7.45060
69899.2 6.15267
69900.0 5.53308
69901.6 4.97236
69903.2 4.73872
69909.6 4.47251
69922.5 4.38459
69948.4 4.34153
70000.0 4.30604
70009.7 4.31588
70019.3 4.36599
70024.2 4.44659
70029.0 4.67659
70031.4 4.97498
70033.8 5.69115
70035.0 6.48523
70036.2 8.07396
70036.9 9.52580
70037.5 11.8088
70038.1 15.6187
70038.7 22.2227
70039.3 33.4994
70040.0 41.4178
70040.7 34.4957
70041.3 23.4684
70041.8 18.4187
70042.2 14.9574
70043.0 10.8179
70043.9 8.62063
70044.7 7.37370
70046.4 6.07782
70048.1 5.46097
70051.5 4.91027
70054.9 4.67565
70061.6 4.47827
70068.4 4.39530
70081.9 4.32150
70095.4 4.28552
70122.5 4.24826
70136.0 4.26764
70142.7 4.42615
70144.4 4.59519
70146.1 5.04761
70147.0 5.61663
70147.8 6.93386
70148.2 8.39425
70148.7 11.1910
70149.1 17.5137
70149.3 23.7890
70149.5 34.6605
70149.8 53.0929
70150.0 66.3563
70150.3 54.1597
70150.5 35.9190
70150.7 24.6442
70151.0 17.9248
70151.4 11.3906
70151.9 8.57830
70152.3 7.14691
70153.3 5.81194
70154.2 5.23367
70156.0 4.74406
70157.8 4.54569
70165.2 4.31956
70179.8 4.23795
70209.1 4.19235
70267.7 4.14308
70385.0 4.06565
70502.2 3.99550
70560.8 3.96126
70590.2 3.94815
70604.8 3.96999
70612.1 4.11046
70615.8 4.65288
70616.7 5.14725
70617.6 6.28865
70618.1 7.52811
70618.5 9.94588
70619.0 15.4149
70619.2 20.8356
70619.5 29.6071
70619.7 45.5362
70620.0 56.3679
70620.3 46.4421
70620.5 30.6957
70620.8 21.0215
70621.1 15.4788
70621.6 10.0307
70622.1 7.65967
70622.6 6.44453
70623.6 5.29769
70624.6 4.80132
70626.6 4.38200
70628.6 4.21243
70636.6 4.02006
70652.7 3.95190
70684.8 3.91513
70749.1 3.87510
70877.7 3.80920
71006.3 3.74776
71070.5 3.71752
71102.7 3.70199
71118.7 3.69476
71126.8 3.69874
71130.8 3.74025
71132.8 3.92140
71133.8 4.54682
71134.3 6.25040
71134.6 9.56663
71134.7 14.0919
71134.8 23.7308
71135.0 44.4712
71135.2 24.4304
71135.4 11.7791
71135.6 7.65836
71136.0 5.22055
71136.8 4.19713
71138.4 3.84949
71141.6 3.73936
71147.9 3.70273
71160.7 3.68587
71186.2 3.67049
71237.3 3.64644
71339.3 3.60162
71543.5 3.51566
71645.6 3.47466
71747.6 3.43775
71798.7 3.42391
71849.7 3.41938
71900.7 3.44467
71926.3 3.49949
71939.0 3.58324
71945.4 3.73439
71948.6 4.07916
71950.2 4.94899
71951.0 7.06917
71951.4 11.2552
71951.6 17.0787
71951.8 30.1832
71951.9 44.2833
71952.0 52.1028
71952.2 25.4432
71952.4 13.4408
71952.6 8.59180
71953.0 5.26988
71953.7 3.84661
71955.1 3.46255
71958.0 3.44069
71963.7 3.51029
71975.1 3.64194
71986.5 3.82004
71998.0 4.12313
72009.4 4.72401
72015.1 5.27170
72020.8 6.16541
72026.5 7.75801
72032.2 10.9348
72035.1 13.8106
72038.0 18.3872
72040.8 26.0742
72043.7 39.1325
72046.8 61.5583
72050.0 77.2930
72053.2 63.4607
72056.3 41.5153
72058.4 31.3700
72060.4 24.3502
72064.5 16.0478
72068.6 11.7445
72072.7 9.29124
72076.8 7.77549
72080.9 6.77735
72089.1 5.58749
72097.2 4.93115
72105.4 4.52950
72121.8 4.08010
72138.1 3.84363
72154.5 3.70152
72187.2 3.54123
72219.9 3.45289
72252.6 3.39553
72318.0 3.32092
72383.5 3.26920
72448.9 3.22667
72514.3 3.18614
72547.0 3.16122
72563.4 3.14148
72571.6 3.13219
72575.7 3.18392
72577.7 3.49424
72578.7 4.61407
72579.2 7.44454
72579.5 12.3443
72579.7 26.8175
72580.0 53.0369
72580.1 44.0966
72580.3 29.3818
72580.5 16.3413
72580.7 10.7462
72581.1 6.65280
72581.8 4.50235
72583.4 3.64721
72586.6 3.34165
72592.9 3.23002
72605.5 3.18240
72630.8 3.15299
72681.4 3.12141
72782.5 3.07097
72883.6 3.02223
72934.1 2.99524
72959.4 2.97811
72972.0 2.97069
72978.3 2.99995
72981.5 3.17923
72983.1 3.84434
72983.9 5.62126
72984.3 8.77368
72984.5 12.5716
72984.6 19.9979
72985.0 38.5946
72985.2 31.8207
72985.4 21.5781
72985.7 11.4882
72986.0 7.69024
72986.6 5.01265
72987.8 3.73553
72990.2 3.24611
72995.1 3.07525
73004.8 3.01186
73024.2 2.98089
73063.1 2.95419
73140.8 2.91490
73296.3 2.84139
73607.2 2.68968
74229.1 2.33498
74540.0 2.11539
74851.0 1.85163
75161.9 1.52493
75317.4 1.33012
75395.1 1.22334
75434.0 1.16779
75453.4 1.14108
75463.1 1.13434
75468.0 1.15710
75470.4 1.26496
75471.6 1.64164
75472.2 2.76107
75472.5 5.22087
75472.7 8.93283
75472.8 18.8858
75473.0 36.6741
75473.2 18.8942
75473.4 6.11727
75473.7 3.32266
75474.1 1.88223
75475.1 1.33816
75477.0 1.16655
75480.9 1.11389
75488.6 1.08972
75504.0 1.06279
75534.8 1.01361
75596.5 0.913011
75658.1 0.806889
75689.0 0.750051
75704.4 0.719342
75712.1 0.709631
75715.9 0.750919
75717.9 0.977206
75718.8 1.78031
75719.3 3.89391
75719.6 7.71594
75719.8 21.1010
75720.0 42.8839
75720.2 22.4853
75720.4 10.0300
75720.6 5.59723
75721.0 2.76099
75721.8 1.43236
75723.4 0.945705
75726.5 0.779216
75732.8 0.713594
75745.5 0.671221
75770.7 0.617638
75821.2 0.521725
75922.1 0.335983
76023.0 0.169513
76073.5 0.105187
76124.0 0.0651450
76174.4 0.0641643
76199.7 0.0850922
76224.9 0.125302
76250.1 0.189818
76275.4 0.284892
76300.6 0.418526
76325.8 0.600853
76376.3 1.16681
76426.8 2.13388
76477.2 3.74252
76527.7 6.35244
76577.8 10.3800
76627.9 16.1317
76728.0 29.3356
76778.1 32.5247
76828.2 32.1663
76928.3 26.3974
77045.1 19.8508
77103.5 17.4656
77132.7 16.4643
77147.3 16.0053
77154.6 15.7863
77158.3 15.6825
77160.1 15.6441
77161.0 15.6703
77161.5 15.8253
77161.7 16.2514
77161.9 19.6378
77162.0 23.7000
77162.1 19.6303
77162.4 16.1008
77162.6 15.7357
77163.2 15.5892
77164.2 15.5188
77166.4 15.4466
77170.7 15.3231
77179.2 15.0869
77196.4 14.6378
77230.6 13.8206
77247.7 13.4491
77264.9 13.1045
77282.0 12.8327
77286.3 12.8245
77290.6 12.9557
77292.7 13.2003
77294.8 13.8879
77295.9 14.7286
77297.0 16.5843
77297.5 18.4573
77298.1 21.7098
77298.6 28.1207
77298.9 33.5679
77299.1 41.3802
77299.6 59.2822
77300.0 72.1993
77300.4 60.8477
77300.9 43.2805
77301.4 30.5376
77301.9 23.9387
77302.4 20.2847
77302.8 18.1055
77303.8 15.7620
77304.8 14.6227
77306.8 13.5649
77308.7 13.0941
77312.7 12.6613
77316.6 12.4470
77324.5 12.1966
77332.3 12.0219
77348.1 11.7391
77363.8 11.4920
77395.2 11.0491
77426.7 10.6532
77552.5 9.38725
77678.3 8.47221
77709.8 8.28759
77741.2 8.13228
77757.0 8.08296
77772.7 8.10421
77780.5 8.20361
77788.4 8.52326
77792.3 8.93426
77794.3 9.29994
77796.3 9.87353
77798.2 10.8434
77800.2 12.6097
77801.2 14.0838
77802.2 16.2190
77803.1 19.4057
77804.1 24.1565
77805.6 34.2721
77807.0 41.2611
77808.4 34.8629
77809.9 24.8858
77811.1 19.1749
77812.3 15.6750
77813.5 13.4847
77814.7 12.0598
77817.2 10.4105
77819.6 9.53879
77822.0 9.02229
77824.4 8.69243
77829.3 8.30410
77839.0 7.94887
77848.6 7.77887
77868.0 7.59174
77887.4 7.46910
77926.1 7.28000
77964.9 7.12019
78119.9 6.59876
78274.9 6.18622
78352.4 6.00723
78391.1 5.92330
78410.5 5.88374
78420.2 5.86916
78425.0 5.88099
78427.4 5.95721
78428.6 6.23374
78429.2 7.07538
78429.5 8.99106
78429.7 12.0202
78429.8 21.2922
78430.0 36.7534
78430.2 21.3002
78430.4 10.9117
78430.5 8.19514
78430.9 6.67610
78431.7 6.09039
78433.3 5.90467
78436.4 5.84666
78442.6 5.82025
78455.0 5.79148
78479.8 5.74088
78529.5 5.64385
78628.9 5.45805
78728.3 5.28018
78778.0 5.21653
78790.4 5.22769
78802.8 5.30636
78809.0 5.43408
78815.2 5.78454
78818.3 6.21502
78821.4 7.17548
78823.0 8.15835
78824.5 9.92701
78826.1 13.4589
78826.9 16.5643
78827.6 21.1277
78828.8 31.1854
78830.0 38.2260
78831.2 32.0416
78832.4 22.1960
78833.5 16.1306
78834.6 12.5433
78835.7 10.3888
78836.8 9.03945
78838.9 7.51230
78841.1 6.72641
78845.5 5.98116
78849.9 5.64854
78858.7 5.35628
78867.4 5.22639
78885.0 5.09886
78902.5 5.02507
78972.6 4.81861
79042.8 4.59668
79077.8 4.45250
79095.4 4.36533
79104.1 4.31674
79108.5 4.29205
79110.7 4.28358
79111.8 4.29482
79112.4 4.35120
79112.6 4.50865
79112.9 6.41365
79113.0 8.56200
79113.1 6.41082
79113.4 4.49222
79113.7 4.33578
79114.2 4.27753
79115.4 4.25347
79117.7 4.23375
79122.2 4.20126
79131.4 4.13321
79149.7 3.97176
79168.0 3.76059
79186.3 3.46831
79204.6 3.03131
79213.7 2.71917
79222.9 2.30471
79232.0 1.73383
79241.1 0.942279
79245.7 0.478052
79250.3 0.121812
79252.6 0.148305
79254.9 0.575069
79257.2 1.93216
79258.3 3.27889
79259.4 5.36185
79260.8 9.35372
79262.2 15.2644
79265.0 29.8709
79266.4 34.0902
79267.8 34.5240
79270.6 29.4573
79273.3 23.7640
79276.1 19.6080
79278.9 16.7332
79281.7 14.7054
79284.4 13.2266
79287.2 12.1122
79292.7 10.5631
79298.3 9.54372
79303.8 8.82837
79309.3 8.30580
79312.1 8.11707
79313.5 8.11703
79314.2 8.38636
79314.5 9.22777
79314.7 10.8585
79314.9 18.2440
79315.0 28.6014
79315.1 18.2384
79315.3 10.5127
79315.5 8.94007
79315.9 8.19411
79316.7 7.88528
79318.3 7.71492
79321.4 7.52653
79327.6 7.23936
79340.1 6.81903
79352.6 6.52154
79365.1 6.29902
79390.1 5.98569
79415.0 5.77345
79465.0 5.49781
79489.9 5.40094
79502.4 5.35911
79508.7 5.34025
79511.8 5.33399
79513.3 5.34160
79514.1 5.38191
79514.5 5.50892
79514.9 8.05491
79515.0 10.7941
79515.1 8.05911
79515.3 5.76788
79515.5 5.48101
79516.0 5.36794
79516.8 5.32876
79518.6 5.31329
79522.1 5.30051
79529.0 5.28046
79542.9 5.24387
79570.7 5.17864
79626.3 5.07064
79737.5 4.90823
79848.7 4.78465
79904.3 4.73143
79932.1 4.70636
79946.0 4.69429
79953.0 4.68893
79956.4 4.68868
79958.2 4.69768
79959.0 4.73428
79959.5 4.84847
79959.7 5.14215
79959.9 7.48674
79960.0 10.2919
79960.1 7.48697
79960.4 4.95539
79960.7 4.77328
79961.3 4.70772
79962.6 4.68697
79965.1 4.67945
79970.1 4.67374
79980.1 4.66485
80000.0 4.64782
80039.8 4.61348
80059.7 4.59609
80069.7 4.59974
80074.7 4.67433
80077.2 5.00354
80078.4 6.05742
80079.0 8.51272
80079.3 12.3480
80079.7 23.5978
80080.0 43.8880
80080.2 36.5782
80080.3 24.8816
80080.5 16.3738
80080.7 11.9621
80081.1 8.17070
80081.9 5.98695
80083.5 5.07533
80086.7 4.75312
80093.1 4.64242
80105.8 4.59695
80131.3 4.56558
80182.2 4.52563
80284.0 4.45879
80487.6 4.34269
80894.9 4.14938
81302.1 3.98727
81505.8 3.91255
81607.6 3.87400
81658.5 3.85207
81683.9 3.84470
81696.7 3.88285
81703.0 4.10083
81704.6 4.32683
81706.2 4.91556
81707.0 5.63021
81707.8 7.19811
81708.2 8.80534
81708.6 11.7216
81709.0 17.5787
81709.4 30.1233
81709.7 46.7288
81710.0 58.2044
81710.3 48.1674
81710.6 31.9290
81710.9 21.5630
81711.2 15.7118
81711.8 10.0101
81712.4 7.59530
81713.0 6.38971
81714.1 5.25032
81715.3 4.75015
81717.6 4.32691
81720.0 4.15334
81729.3 3.95181
81748.1 3.87870
81785.6 3.84218
81860.5 3.80846
82010.4 3.75738
82310.2 3.66516
82610.0 3.57712
82759.9 3.53363
82834.9 3.51196
82872.4 3.50151
82891.1 3.49796
82900.5 3.50282
82905.2 3.53072
82907.5 3.63784
82908.7 4.00192
82909.3 5.07005
82909.5 7.37702
82909.8 19.6718
82910.0 35.8647
82910.2 19.6804
82910.3 9.96750
82910.5 6.72943
82910.9 4.73634
82911.5 3.88517
82912.9 3.60118
82915.6 3.51832
82921.0 3.49448
82931.9 3.48550
82953.6 3.47763
82997.0 3.46444
83083.8 3.43849
83257.5 3.38527
83431.2 3.32875
83518.0 3.29853
83561.4 3.28295
83583.1 3.27591
83594.0 3.27618
83599.4 3.29134
83602.1 3.35482
83603.5 3.58017
83604.2 4.26933
83604.5 5.92292
83604.7 8.68695
83604.8 16.9601
83605.0 30.6735
83605.2 16.9779
83605.3 8.97401
83605.5 6.13613
83605.8 4.40163
83606.4 3.63346
83607.7 3.37079
83610.1 3.29261
83615.1 3.26974
83625.1 3.26032
83645.0 3.25098
83684.8 3.23427
83764.3 3.19890
83843.9 3.15834
83883.7 3.13457
83903.6 3.12443
83913.6 3.14326
83918.5 3.26412
83921.0 3.71497
83922.3 4.94856
83922.9 7.29230
83923.2 10.2049
83923.5 16.2751
83924.0 30.3142
83924.5 17.1573
83924.9 9.48317
83925.4 6.60139
83926.2 4.59857
83928.0 3.65011
83931.5 3.29586
83938.4 3.17359
83952.3 3.12516
83980.2 3.09232
84035.9 3.04495
84091.5 2.99339
84147.2 2.93060
84202.9 2.84911
84258.5 2.73537
84286.4 2.65835
84314.2 2.55977
84342.0 2.42824
84356.0 2.34515
84362.9 2.30204
84366.4 2.29689
84368.1 2.36112
84369.0 2.61939
84369.4 3.36716
84369.7 5.04625
84369.9 13.2448
84370.0 24.2659
84370.1 13.2608
84370.3 5.05283
84370.6 3.40534
84371.0 2.62351
84371.8 2.33988
84373.5 2.24257
84376.9 2.19014
84383.6 2.12017
84397.0 1.96638
84410.4 1.77003
84423.9 1.50945
84437.3 1.15294
84450.7 0.669335
84457.4 0.404899
84464.1 0.262980
84467.5 0.381002
84470.9 0.860286
84472.5 1.36732
84474.2 2.18345
84475.9 3.47086
84477.6 5.44565
84479.4 8.79763
84481.3 13.6055
84485.0 24.6995
84486.9 27.4431
84488.7 27.2074
84492.4 22.4664
84495.7 18.2115
84498.9 15.0567
84502.2 12.8183
84505.4 11.2123
84511.9 9.11717
84518.3 7.84658
84524.8 7.00733
84531.3 6.41645
84544.2 5.64499
84557.2 5.16603
84570.1 4.84114
84583.0 4.60634
84596.0 4.42871
84621.9 4.17740
84647.7 4.00774
84673.6 3.88487
84699.5 3.79140
84751.3 3.65733
84803.1 3.56441
84854.8 3.49501
84906.6 3.44030
85010.1 3.35723
85113.7 3.29449
85217.2 3.24262
85269.0 3.21793
85294.9 3.20400
85307.8 3.19745
85314.3 3.21181
85317.5 3.31306
85319.1 3.72275
85319.9 4.97330
85320.3 7.64773
85320.5 11.4472
85320.7 20.8011
85321.0 39.6178
85321.3 22.0187
85321.4 13.4345
85321.6 9.36474
85322.0 6.03023
85322.7 4.26373
85324.0 3.56637
85326.8 3.32558
85332.4 3.24408
85343.6 3.21218
85365.9 3.19325
85410.5 3.17259
85499.8 3.13996
85678.3 3.08320
86035.3 2.98367
86392.4 2.89222
86570.9 2.84705
86660.2 2.82327
86704.8 2.81011
86727.1 2.80661
86738.3 2.83141
86743.8 2.96323
86746.6 3.43641
86748.0 4.69167
86748.7 7.01875
86749.1 9.82952
86749.4 15.4526
86749.7 23.2459
86750.0 28.9429
86750.3 23.9443
86750.6 16.2961
86750.9 10.6097
86751.3 7.73458
86752.0 5.20539
86753.3 3.74863
86756.1 3.13299
86761.6 2.91560
86772.5 2.84124
86794.5 2.81132
86838.3 2.79149
86926.0 2.76642
87101.4 2.72207
87452.3 2.63497
87803.1 2.54613
87978.5 2.50314
88066.2 2.49727
88088.2 2.51139
88110.1 2.56352
88121.0 2.63987
88132.0 2.84674
88137.5 3.10639
88143.0 3.71904
88145.7 4.38557
88148.4 5.70104
88149.8 6.87777
88151.2 8.74160
88152.6 11.8304
88153.9 17.0361
88155.5 25.9826
88157.0 32.1083
88158.5 26.3620
88160.1 17.5104
88161.9 11.0348
88163.7 7.76395
88165.6 6.00737
88167.4 4.98367
88171.0 3.91686
88174.7 3.40635
88181.9 2.95123
88189.2 2.75966
88203.8 2.60134
88218.4 2.53664
88247.5 2.48075
88276.6 2.45405
88334.9 2.42284
88393.1 2.40009
88509.7 2.35899
88567.9 2.33754
88597.0 2.33659
88611.6 2.40409
88615.3 2.48752
88618.9 2.72836
88620.7 3.04783
88622.5 3.84783
88623.4 4.77205
88624.4 6.72646
88624.8 8.62908
88625.3 11.7981
88625.7 17.7328
88626.2 28.8558
88626.6 45.6501
88627.0 57.0934
88627.4 47.0120
88627.8 30.5697
88628.1 23.2260
88628.4 18.0919
88628.9 11.9620
88629.4 8.74404
88629.9 6.89459
88631.0 4.97495
88632.0 4.07344
88634.1 3.26743
88636.2 2.92702
88640.4 2.64526
88644.5 2.53090
88661.3 2.39656
88694.7 2.34229
88761.5 2.30575
88895.2 2.25851
89162.6 2.17141
89430.0 2.07972
89563.7 2.03241
89597.1 2.02459
89630.5 2.03243
89647.2 2.06151
89664.0 2.16778
89672.3 2.32642
89676.5 2.48446
89680.7 2.76326
89684.8 3.31551
89686.9 3.81220
89689.0 4.61203
89691.1 6.00286
89693.2 8.68415
89694.3 11.0310
89695.3 14.6048
89696.3 20.2805
89697.4 29.4244
89698.7 46.7598
89700.0 58.9657
89701.3 48.4568
89702.6 31.5487
89703.8 21.4681
89705.0 15.3901
89706.1 11.6545
89707.3 9.25698
89709.6 6.51157
89711.9 5.08887
89714.3 4.25547
89716.6 3.72979
89721.2 3.12403
89725.9 2.79892
89730.5 2.60332
89739.8 2.38719
89758.4 2.20671
89777.0 2.13099
89814.1 2.06489
89851.3 2.03668
89888.5 2.02560
89925.7 2.02963
89962.8 2.05599
90000.0 2.12776
90031.7 2.27650
90047.5 2.42152
90063.3 2.66947
90079.1 3.13447
90087.0 3.53045
90094.9 4.13500
90102.9 5.11264
90110.8 6.81057
90118.7 10.0097
90126.6 16.3735
90133.3 25.2743
90140.0 31.3517
90146.7 25.6106
90153.4 16.7917
90157.6 12.8910
90161.7 10.1561
90170.0 6.88132
90178.4 5.16033
90186.7 4.17085
90195.0 3.55603
90203.3 3.14934
90219.9 2.66143
90236.5 2.38894
90253.1 2.21888
90286.4 2.01894
90319.6 1.89958
90352.9 1.81005
90386.1 1.74819
90394.4 1.76711
90402.7 1.88721
90406.9 2.08391
90411.0 2.60916
90413.1 3.21650
90415.2 4.43403
90416.2 5.52782
90417.3 7.24130
90418.3 10.0178
90419.3 14.5443
90420.7 23.6572
90422.0 30.9363
90423.3 26.5881
90424.7 18.2089
90425.6 13.8287
90426.6 10.8169
90427.5 8.76436
90428.5 7.34733
90430.3 5.56800
90432.2 4.55139
90436.0 3.49385
90439.8 2.97719
90447.4 2.49352
90454.9 2.27229
90470.1 2.06705
90485.2 1.96892
90515.4 1.86788
90545.7 1.81055
90606.2 1.73649
90666.7 1.68170
90908.7 1.49649
91029.8 1.39179
91090.3 1.32844
91150.8 1.25083
91211.3 1.14663
91241.5 1.07637
91271.8 0.984723
91302.0 0.856987
91332.3 0.665927
91362.5 0.416530
91370.1 0.419756
91377.7 0.634613
91381.5 0.974126
91385.2 1.71054
91387.1 2.36403
91389.0 3.34527
91390.9 4.82708
91392.8 7.05208
91396.4 14.1348
91400.0 21.8859
91401.8 22.8321
91403.6 21.4403
91407.2 16.2069
91410.9 11.8060
91414.6 9.00910
91418.3 7.22775
91422.0 6.04828
91425.7 5.22443
91429.4 4.62735
91436.9 3.82773
91444.3 3.32444
91451.7 2.98158
91466.5 2.54754
91481.3 2.28456
91496.1 2.10785
91525.8 1.88324
91555.4 1.74337
91585.0 1.64524
91644.3 1.51032
91703.6 1.41532
91762.8 1.33962
91881.4 1.21558
92118.5 1.00642
92355.5 0.807655
92829.7 0.406707
93066.8 0.234072
93185.3 0.179582
93244.6 0.168248
93274.2 0.168760
93289.0 0.173220
93296.4 0.185970
93300.1 0.230606
93302.0 0.388456
93302.9 0.899499
93303.4 2.22572
93303.6 4.72520
93303.8 14.9574
93304.0 29.7625
93304.2 14.9755
93304.4 4.73847
93304.7 2.17658
93305.1 0.868202
93306.1 0.382179
93308.0 0.230778
93311.8 0.189452
93319.4 0.180514
93334.7 0.183338
93365.2 0.199128
93426.3 0.256376
93487.4 0.359228
93517.9 0.456435
93533.2 0.627793
93537.0 0.770741
93540.8 1.11959
93542.7 1.52598
93544.6 2.40450
93545.6 3.27729
93546.5 4.79481
93547.5 7.69176
93548.4 13.5860
93549.2 21.8563
93550.0 27.6330
93550.8 22.6458
93551.6 14.5797
93552.3 9.68921
93553.0 6.75057
93554.5 3.85468
93556.0 2.59236
93557.4 1.94526
93560.3 1.34004
93563.3 1.07864
93569.1 0.867819
93574.9 0.794634
93586.6 0.763246
93598.3 0.782034
93621.6 0.868891
93644.9 0.988955
93738.3 1.73180
93831.7 3.03576
93925.0 5.23833
94007.5 8.28500
94090.0 12.5516
94255.0 21.9539
94342.2 23.9875
94385.8 23.8654
94407.6 23.5798
94418.5 23.4415
94423.9 23.5954
94426.7 24.4548
94428.0 26.8039
94428.7 31.0040
94429.0 35.8747
94429.4 45.3035
94429.7 59.2059
94430.0 69.1248
94430.3 60.5663
94430.6 46.9911
94430.9 38.2326
94431.2 33.2191
94431.8 28.4041
94432.4 26.3194
94433.0 25.2761
94434.2 24.2792
94435.4 23.8298
94440.3 23.2115
94449.9 22.8086
94469.2 22.2464
94507.8 21.1054
94585.0 18.7131
94690.6 15.7214
94796.2 13.3130
95007.5 9.99574
95218.7 7.94403
95429.9 6.58071
95641.2 5.60637
95852.4 4.86285
96063.7 4.25961
96169.3 3.99172
96222.1 3.86358
96248.5 3.80079
96261.7 3.77024
96268.3 3.75745
96271.6 3.76044
96273.2 3.79638
96274.1 3.93154
96274.5 4.32493
96274.7 5.23506
96274.9 10.5486
96275.0 17.3685
96275.1 10.5576
96275.3 5.42084
96275.5 4.42141
96275.9 3.96651
96276.6 3.80195
96278.1 3.74926
96281.1 3.72867
96287.0 3.71115
96298.9 3.68247
96322.6 3.62701
96370.1 3.51730
96465.1 3.29873
96655.0 2.83623
96750.0 2.55896
96797.4 2.39099
96844.9 2.18529
96892.4 1.90988
96916.1 1.72543
96939.9 1.48730
96963.6 1.16254
96975.5 0.951417
96987.4 0.697618
97011.1 0.135986
97017.0 0.115132
97023.0 0.380542
97025.9 0.763064
97028.9 1.47730
97031.9 2.76236
97034.8 4.99784
97037.4 8.06688
97039.9 12.4314
97045.0 22.3796
97047.5 24.7359
97050.1 24.4029
97055.2 19.9502
97061.1 14.9693
97067.0 11.7292
97072.9 9.66531
97078.8 8.29034
97084.7 7.32317
97090.6 6.61349
97102.4 5.65002
97114.2 5.02852
97126.1 4.59587
97137.9 4.28608
97143.8 4.21615
97146.7 4.41163
97148.2 5.24248
97148.9 7.44690
97149.3 11.4131
97149.5 15.9016
97149.7 24.6629
97149.8 37.7126
97150.0 46.2406
97150.2 38.4604
97150.3 25.6055
97150.6 13.5973
97150.9 9.04712
97151.5 6.06387
97152.7 4.69358
97155.1 4.17002
97159.9 3.93764
97169.5 3.75081
97188.7 3.51116
97207.9 3.33204
97227.1 3.18766
97265.4 2.96282
97303.8 2.79040
97342.2 2.65126
97380.6 2.54291
97399.7 2.51178
97418.9 2.53923
97428.5 2.63206
97438.1 2.93771
97442.9 3.35227
97445.3 3.73680
97447.7 4.36735
97450.1 5.49849
97452.5 7.76408
97453.7 9.81073
97454.9 13.0748
97456.1 18.5223
97457.3 27.7651
97458.7 43.8778
97460.0 55.3296
97461.4 45.6031
97462.7 29.9189
97464.2 18.6722
97465.8 12.7536
97467.3 9.47366
97468.8 7.51685
97470.3 6.26857
97471.8 5.42694
97474.9 4.39891
97477.9 3.81733
97481.0 3.45462
97487.0 3.03979
97493.1 2.81545
97499.2 2.67737
97511.4 2.51618
97535.7 2.36087
97560.0 2.27912
97608.7 2.19436
97657.3 2.18610
97706.0 2.30258
97730.3 2.45709
97754.6 2.74425
97779.0 3.29498
97803.3 4.43906
97815.5 5.48464
97827.6 7.15206
97839.8 9.92149
97851.9 14.5824
97866.0 22.8724
97880.0 28.7563
97894.0 23.6886
97908.1 15.5643
97923.1 9.95992
97938.1 6.88694
97953.1 5.13336
97968.2 4.05971
97998.2 2.87029
98028.2 2.24835
98088.3 1.60773
98148.4 1.25734
98268.6 0.816848
98388.7 0.505710
98508.9 0.303686
98569.0 0.281921
98599.0 0.308290
98629.1 0.372477
98659.1 0.490044
98689.2 0.684092
98719.2 0.989895
98749.2 1.46199
98779.3 2.18597
98809.3 3.29650
98839.4 5.00045
98869.4 7.58664
98923.2 15.1156
98977.0 22.6233
99003.9 22.9836
99030.8 20.9083
99084.6 14.6025
99124.0 10.8291
99163.3 8.10322
99242.1 4.73291
99320.8 2.84625
99399.5 1.70031
99478.2 1.01845
99517.6 0.827726
99556.9 0.743677
99596.3 0.782526
99635.7 0.970410
99675.0 1.34479
99694.7 1.62480
99704.5 1.84783
99709.5 2.22640
99711.9 3.27084
99713.2 5.78215
99713.8 10.0127
99714.1 14.6651
99714.4 22.8301
99714.7 36.0258
99715.0 45.5104
99715.3 37.4996
99715.6 24.6780
99716.0 14.1744
99716.5 9.21401
99717.3 5.38068
99718.2 3.98653
99719.0 3.35171
99722.4 2.59819
99729.3 2.45913
99742.9 2.68996
99756.6 3.03921
99770.2 3.45055
99798.9 4.50499
99827.7 5.83197
99885.1 9.41138
100000 19.8434
100053 24.7165
100124 28.9957
100195 29.9634
100265 28.5697
100336 26.2130
100353 25.6379
100371 25.1731
100379 25.0748
100388 25.2848
100392 25.7055
100396 26.6929
100399 27.6633
100401 29.1646
100403 31.7976
100405 36.0199
100408 44.0977
100410 49.6909
100413 44.8600
100415 37.2522
100417 32.9661
100419 30.1696
100421 28.3316
100423 27.0794
100427 25.5332
100431 24.6498
100435 24.0500
100439 23.6255
100447 23.0121
100463 22.1865
100479 21.5612
100510 20.5098
100542 19.5898
100669 16.6399
100796 14.4962
100922 12.8938
101176 10.6872
101303 9.89901
101366 9.55547
101398 9.39274
101414 9.32877
101421 9.39156
101425 9.80742
101427 11.1715
101428 14.2511
101429 18.8066
101429 29.6909
101430 43.0094
101430 51.6889
101430 44.3941
101431 31.4601
101431 21.9136
101431 16.9241
101432 12.8630
101434 10.7011
101437 9.74088
101443 9.38013
101455 9.21101
101480 9.06129
101505 8.94499
101517 8.89192
101524 8.87080
101527 8.87820
101528 8.94902
101529 9.21246
101530 9.99430
101530 11.7264
101530 17.9818
101530 27.1393
101530 17.9935
101530 11.7333
101531 9.99632
101531 9.20851
101532 8.93667
101533 8.85147
101536 8.81751
101543 8.78574
101555 8.73349
101580 8.63418
101630 8.44686
101731 8.10583
101931 7.52900
102032 7.28177
102132 7.05977
102182 6.96323
102232 6.89778
102257 6.90592
102270 6.94093
102282 7.02457
102295 7.22183
102301 7.41391
102307 7.73042
102314 8.30860
102320 9.43732
102323 10.4749
102326 12.0505
102329 14.5947
102332 18.7481
102336 26.7876
102340 32.5159
102344 27.8247
102348 20.3009
102350 16.7317
102353 14.2437
102358 11.2976
102363 9.75835
102368 8.88550
102373 8.32599
102378 7.95262
102388 7.50055
102398 7.23785
102407 7.07064
102427 6.86657
102447 6.74228
102467 6.65480
102507 6.53032
102547 6.43633
102586 6.35714
102666 6.22063
102825 5.99031
102984 5.79099
103302 5.44857
103461 5.29630
103540 5.22122
103580 5.18030
103600 5.15721
103610 5.16107
103615 5.26241
103617 5.69154
103618 6.81027
103619 8.76692
103619 10.9934
103619 16.0189
103620 28.2056
103620 23.6657
103621 17.4087
103621 12.2410
103621 9.28892
103622 7.20446
103623 5.99305
103626 5.46765
103632 5.26857
103643 5.18861
103665 5.14273
103710 5.09396
103755 5.05331
103777 5.03414
103789 5.02631
103794 5.02895
103797 5.05453
103798 5.14941
103799 5.43393
103800 6.31197
103800 8.23404
103800 14.5837
103800 24.1690
103800 14.5986
103800 8.24486
103801 6.31874
103801 5.54603
103801 5.19059
103803 5.06392
103805 5.02327
103810 5.00889
103820 4.99755
103840 4.97945
103879 4.94344
103919 4.90792
103939 4.92237
103949 5.09613
103951 5.28046
103954 5.74202
103955 6.29129
103956 7.31324
103957 9.63244
103958 11.9277
103959 16.0333
103959 23.6878
103960 28.7784
103961 24.9289
103961 17.6236
103962 12.9246
103963 10.3604
103964 7.73961
103966 6.64529
103967 6.09316
103970 5.57558
103973 5.35019
103979 5.14685
103985 5.05784
104009 4.93688
104056 4.86360
104151 4.78119
104340 4.64698
104530 4.52236
104624 4.45911
104672 4.42559
104696 4.42176
104707 4.50623
104713 4.89985
104715 5.28098
104716 6.20651
104717 7.33071
104718 9.30101
104718 13.6704
104719 18.7155
104719 25.8592
104720 40.5328
104720 49.2243
104720 41.8840
104721 27.6219
104721 17.4127
104722 12.6493
104723 9.66561
104723 8.25899
104724 6.64076
104725 5.87896
104727 5.20434
104730 4.91892
104734 4.68068
104738 4.58376
104756 4.46084
104791 4.40049
104861 4.34439
105000 4.25796
105275 4.10026
105412 4.01896
105480 3.97426
105515 3.95842
105532 4.01436
105536 4.09378
105540 4.32924
105543 4.65397
105545 5.42250
105546 6.33587
105547 8.00694
105547 9.87205
105548 12.4402
105548 16.7229
105549 25.8518
105549 38.5815
105550 49.8038
105551 40.2337
105551 27.8246
105552 19.7392
105552 14.7535
105553 10.0994
105554 7.89728
105555 6.70569
105557 5.53182
105558 4.99183
105562 4.51825
105566 4.31771
105573 4.14668
105580 4.07527
105609 3.97994
105667 3.93397
105696 3.94281
105725 4.02008
105740 4.14715
105747 4.27482
105754 4.49285
105761 4.91065
105765 5.26212
105769 5.79438
105772 6.64168
105776 8.07317
105779 10.6510
105783 15.4667
105787 23.1251
105790 28.7957
105794 24.4139
105797 17.0712
105801 12.2225
105804 9.45041
105808 7.82297
105811 6.81084
105815 6.14506
105818 5.68548
105825 5.11588
105832 4.77903
105839 4.56496
105853 4.31638
105867 4.17780
105881 4.09130
105909 3.98774
105964 3.88260
106020 3.82126
106131 3.73532
106243 3.66495
106688 3.40600
106911 3.26810
107134 3.11341
107357 2.92852
107468 2.81654
107524 2.75165
107552 2.71527
107566 2.70406
107573 2.75365
107576 3.01701
107578 3.86543
107579 6.04270
107579 9.05152
107580 16.6720
107580 31.9352
107581 17.8678
107581 10.0640
107581 6.83981
107582 4.68144
107584 3.43672
107587 2.94666
107593 2.77086
107605 2.69767
107628 2.64472
107676 2.56801
107772 2.40567
107868 2.20490
107963 1.94106
108059 1.57262
108107 1.32710
108155 1.02484
108203 0.655642
108250 0.258648
108274 0.125339
108286 0.120428
108298 0.199648
108310 0.426361
108322 0.901811
108328 1.28838
108334 1.81391
108346 3.43395
108357 5.98904
108369 9.77980
108391 19.2399
108402 21.9710
108414 22.2538
108436 18.9752
108453 16.1008
108470 13.8019
108487 12.0554
108504 10.7309
108538 8.90808
108554 8.26790
108563 8.03442
108567 8.11985
108569 8.74845
108570 10.3806
108571 12.5691
108571 17.9073
108572 25.4636
108572 29.3985
108572 26.4495
108573 19.2400
108573 13.6876
108574 10.9314
108575 9.13856
108577 8.18296
108582 7.71190
108590 7.37184
108608 6.95626
108643 6.35945
108678 5.92117
108714 5.58251
108784 5.09137
108854 4.75040
108995 4.30176
109136 4.01232
109277 3.80354
109418 3.64071
109558 3.50530
109629 3.44365
109664 3.41858
109682 3.44153
109690 3.61054
109695 4.23707
109696 4.77430
109697 5.95380
109698 9.24674
109699 13.9757
109699 24.1316
109700 37.5140
109700 45.9886
109700 38.4700
109701 25.3554
109701 15.0497
109702 10.1128
109703 7.70638
109703 6.38930
109704 5.08712
109706 4.52634
109708 3.98535
109710 3.76956
109720 3.51140
109738 3.41487
109776 3.35962
109850 3.29716
110000 3.19597
110126 3.11907
110252 3.04961
110314 3.02341
110377 3.02573
110409 3.06989
110424 3.12626
110440 3.23872
110456 3.48511
110464 3.72531
110472 4.13080
110479 4.90203
110483 5.55136
110487 6.53800
110491 8.17207
110495 10.9190
110499 15.9792
110503 25.7230
110507 40.5139
110510 50.7559
110514 41.8947
110517 27.9879
110521 17.6774
110525 12.3759
110529 9.37379
110533 7.63170
110537 6.49341
110541 5.74546
110549 4.82708
110558 4.29963
110566 3.97107
110582 3.59751
110598 3.39476
110614 3.27089
110646 3.12656
110679 3.04386
110711 2.98818
110776 2.91257
110905 2.81139
110969 2.76683
111002 2.74568
111018 2.76222
111026 2.90936
111030 3.44229
111032 4.75505
111033 6.88064
111033 9.12847
111034 13.3850
111035 20.7558
111035 25.2766
111036 21.7395
111036 14.6683
111037 9.72997
111037 6.96701
111039 4.83017
111041 3.58801
111047 3.05207
111057 2.85052
111078 2.76939
111120 2.72172
111203 2.66976
111370 2.58608
111704 2.43216
112373 2.12766
113041 1.80047
113375 1.62036
113542 1.52301
113626 1.46917
113668 1.43715
113689 1.42243
113699 1.45594
113704 1.67137
113707 2.43954
113708 4.35241
113709 7.94010
113709 11.3542
113709 18.6585
113710 30.7399
113710 37.8892
113710 32.1190
113711 20.4644
113711 13.0004
113711 8.52574
113712 5.09391
113714 2.95441
113716 1.99053
113722 1.62892
113733 1.49608
113756 1.43633
113801 1.39074
113890 1.32710
114070 1.20752
114250 1.08334
114340 1.01604
114384 0.976900
114407 0.955860
114418 0.974856
114424 1.14458
114427 1.79082
114428 3.48664
114429 6.47261
114429 10.6222
114429 18.8891
114430 30.6847
114430 38.4683
114430 32.1878
114431 20.8144
114431 12.3517
114431 8.74720
114432 5.19102
114433 2.79774
114436 1.63328
114441 1.19974
114451 1.04338
114470 0.974966
114510 0.925720
114589 0.862026
114669 0.807770
114748 0.763591
114827 0.744328
114867 0.758351
114907 0.810436
114946 0.951976
114966 1.09706
114986 1.34765
115006 1.81398
115026 2.76568
115036 3.63412
115046 5.02486
115055 7.34995
115065 11.3012
115077 18.4127
115088 23.6023
115099 19.5417
115111 12.7842
115118 9.68582
115125 7.51437
115139 4.87277
115153 3.44566
115167 2.61520
115181 2.08530
115195 1.73048
115223 1.29195
115251 1.03592
115279 0.869945
115335 0.666731
115392 0.543901
115448 0.460070
115560 0.354600
115672 0.306928
115785 0.318560
115897 0.408970
115953 0.489342
115981 0.531132
115995 0.549411
116002 0.605440
116006 0.868754
116007 1.68704
116008 3.26601
116009 4.89640
116009 8.74803
116010 19.0416
116010 16.3331
116011 10.8879
116012 5.32744
116012 3.39372
116014 1.91391
116017 1.18500
116023 0.900007
116035 0.815230
116058 0.845663
116106 1.01878
116200 1.57139
116295 2.45378
116390 3.80876
116498 6.13563
116605 9.44244
116820 16.8212
116928 18.4009
117035 17.9262
117250 14.2268
117385 11.8821
117520 9.95957
117655 8.43268
117722 7.79031
117756 7.49690
117773 7.36319
117781 7.32715
117785 7.41327
117788 7.78743
117789 8.94373
117789 11.1267
117789 14.9762
117790 25.4575
117790 43.7297
117790 25.4793
117791 14.9885
117791 12.0336
117791 9.51935
117792 8.06591
117794 7.44068
117797 7.22487
117804 7.11917
117817 6.99980
117844 6.79181
117898 6.40528
118005 5.71310
118219 4.56467
118434 3.61907
118541 3.19029
118595 2.98752
118621 2.94079
118628 2.98586
118635 3.16788
118638 3.43748
118642 4.10470
118643 4.89143
118645 6.53414
118646 8.19614
118647 10.6460
118647 14.8182
118648 23.2352
118649 35.5824
118650 45.7687
118651 37.2903
118652 25.3021
118652 18.2298
118653 14.2118
118654 9.61755
118655 7.29508
118657 5.98609
118659 4.61444
118662 3.99588
118666 3.42374
118671 3.17090
118681 2.93846
118691 2.82176
118711 2.68330
118730 2.58536
118769 2.42257
118808 2.27588
118965 1.73214
119278 0.747215
119435 0.361859
119513 0.238646
119552 0.206217
119591 0.200129
119630 0.227429
119669 0.296712
119708 0.418922
119748 0.607675
119787 0.880627
119826 1.25700
119904 2.42450
120000 4.92222
120060 7.23717
120089 8.62952
120104 9.39704
120112 9.86754
120115 10.3692
120117 11.2555
120118 12.4895
120119 16.0752
120120 23.0264
120121 17.1816
120122 12.9505
120124 11.7698
120126 11.1402
120131 11.0658
120141 11.4836
120160 12.5671
120199 14.8842
120277 19.3275
120370 22.9385
120464 23.9576
120650 21.3126
120725 19.7641
120762 19.0080
120781 18.6416
120791 18.4616
120795 18.3773
120798 18.3534
120799 18.4034
120799 18.6298
120800 19.2645
120800 24.4565
120800 30.5706
120800 24.3925
120801 18.9107
120801 18.4665
120802 18.3136
120803 18.2403
120806 18.1719
120812 18.0597
120823 17.8460
120846 17.4289
120893 16.6386
120985 15.2314
121077 14.0366
121124 13.5105
121147 13.2689
121158 13.1752
121164 13.2156
121167 13.5402
121168 14.5424
121169 16.7919
121169 21.0367
121170 30.0403
121170 47.4525
121170 30.0722
121171 21.0562
121171 16.7946
121172 14.3720
121174 13.4015
121177 13.0721
121183 12.9232
121195 12.7771
121220 12.5348
121270 12.0888
121370 11.3011
121569 10.0438
121769 9.08482
121869 8.68211
121919 8.50053
121943 8.46733
121950 8.51720
121956 8.70409
121959 8.96979
121962 9.64129
121964 10.4390
121965 11.9674
121966 13.4680
121967 15.9591
121968 20.3442
121968 28.1666
121969 40.9627
121970 50.0236
121971 42.5367
121972 30.1359
121972 23.7872
121973 20.1133
121974 15.6739
121975 13.3003
121976 11.9137
121978 10.4560
121980 9.74602
121984 9.09461
121988 8.80557
121996 8.54387
122004 8.42192
122020 8.28936
122036 8.20518
122068 8.07734
122100 7.96916
122164 7.77542
122229 7.59907
122486 6.99679
122742 6.50878
122871 6.29385
122935 6.18903
122967 6.13466
122983 6.11758
122991 6.18558
122995 6.53162
122997 7.61094
122998 9.91518
122999 13.1293
122999 21.5473
123000 32.6324
123000 38.7140
123000 33.8496
123001 23.1751
123001 16.9184
123001 12.7845
123002 9.57016
123004 7.47869
123007 6.59058
123013 6.26785
123024 6.14006
123048 6.06631
123096 5.98446
123190 5.85102
123285 5.72880
123333 5.67050
123356 5.64243
123368 5.63064
123374 5.63277
123377 5.66505
123378 5.79605
123379 6.17714
123380 7.33112
123380 15.4286
123380 25.2635
123380 15.4478
123380 8.18478
123381 6.53506
123381 5.88954
123382 5.69339
123385 5.63085
123389 5.60888
123398 5.59402
123415 5.57226
123451 5.53125
123521 5.45190
123662 5.30112
123945 5.02519
124227 4.77509
124368 4.65517
124439 4.59251
124474 4.55991
124492 4.56640
124500 4.70023
124505 5.25137
124507 6.81314
124508 9.82708
124509 14.1159
124509 22.2211
124510 34.4300
124510 41.5015
124510 35.7629
124511 23.9812
124511 16.8600
124512 12.9850
124513 8.83008
124514 7.13050
124514 6.28694
124516 5.51061
124518 5.17213
124525 4.76372
124540 4.61470
124568 4.54307
124626 4.48046
124740 4.38733
124855 4.30218
124912 4.26194
124941 4.24632
124955 4.25531
124962 4.32279
124966 4.57573
124968 5.36132
124969 7.26597
124969 9.92193
124970 18.5255
124970 32.9854
124970 18.5481
124971 9.03485
124972 6.31507
124973 4.99167
124975 4.44679
124980 4.27739
124989 4.22329
125007 4.19787
125043 4.16917
125115 4.11806
125260 4.01900
125405 3.92180
125477 3.87387
125514 3.85102
125532 3.84411
125541 3.85895
125545 3.93486
125548 4.22215
125549 5.05953
125549 7.30807
125550 11.3278
125550 18.0902
125550 32.4269
125550 18.1605
125551 9.54257
125551 6.19118
125552 4.60370
125553 4.06258
125556 3.88690
125563 3.83499
125575 3.81407
125600 3.79426
125649 3.76076
125748 3.69544
125945 3.56485
126340 3.29609
126734 3.00024
126932 2.83086
127031 2.73644
127080 2.68749
127105 2.67726
127117 2.74637
127123 3.06733
127126 4.10372
127128 6.41772
127128 10.3274
127129 14.5238
127129 21.2338
127130 33.2893
127130 40.9129
127130 33.9951
127131 22.1328
127131 15.3627
127132 11.9235
127132 7.66181
127134 4.85588
127136 3.44136
127141 2.89563
127152 2.70402
127173 2.62312
127215 2.55444
127257 2.50677
127278 2.55581
127283 2.64181
127288 2.89442
127291 3.22512
127293 4.02011
127295 4.88840
127296 6.59120
127297 10.4499
127298 14.6594
127298 21.2306
127299 32.8069
127300 41.8458
127301 34.3182
127302 23.0837
127302 16.4027
127303 11.9868
127304 9.29723
127304 7.58437
127306 5.64369
127307 4.69303
127310 3.72704
127312 3.28824
127318 2.90392
127323 2.73876
127334 2.59180
127345 2.52338
127388 2.39994
127432 2.32236
127453 2.28735
127464 2.27430
127469 2.28444
127472 2.35126
127474 2.61427
127474 3.48367
127475 5.17216
127475 13.8638
127475 25.5231
127475 13.9085
127476 4.38297
127476 3.06745
127477 2.48171
127479 2.31102
127482 2.25605
127489 2.23137
127503 2.20441
127531 2.15548
127587 2.05336
127643 1.93975
127671 1.88919
127685 1.94923
127692 2.34419
127694 2.74390
127695 3.64097
127696 4.66365
127697 6.37364
127698 10.5058
127698 13.9538
127699 20.0148
127699 31.1848
127700 40.2361
127701 32.8020
127701 21.9825
127702 14.7729
127702 10.2797
127703 6.36133
127705 4.54756
127706 3.70979
127708 2.87892
127710 2.52180
127715 2.19396
127719 2.05445
127738 1.85648
127774 1.71141
127846 1.48888
127919 1.24401
127992 0.954483
128064 0.613859
128137 0.261301
128173 0.147811
128191 0.144161
128209 0.209384
128228 0.390049
128246 0.758529
128264 1.43943
128282 2.60836
128301 4.62971
128320 7.70055
128358 15.5157
128377 17.8852
128396 18.2773
128434 15.7988
128460 13.6843
128487 11.9134
128513 10.5211
128539 9.43637
128592 7.90235
128644 6.89505
128697 6.18916
128749 5.67056
128855 4.95627
128960 4.48328
129065 4.14274
129117 4.00786
129170 3.90502
129196 3.88460
129222 3.94662
129236 4.08617
129242 4.23506
129249 4.49825
129255 5.02322
129259 5.48820
129262 6.19305
129265 7.40327
129268 9.60251
129272 14.0056
129273 17.7035
129275 23.0713
129278 35.6811
129280 44.2611
129283 36.6590
129285 24.9253
129288 16.4824
129291 11.9220
129294 9.36096
129296 7.81837
129299 6.82709
129302 6.15470
129308 5.32730
129313 4.85468
129319 4.55703
129330 4.21354
129341 4.02105
129352 3.89874
129375 3.74903
129419 3.58623
129464 3.48327
129553 3.33283
129643 3.21239
129821 3.01081
130000 2.83771
130379 2.51592
130568 2.36318
130663 2.28728
130710 2.27507
130722 2.30318
130734 2.41114
130740 2.57116
130746 2.99960
130749 3.53191
130752 4.67241
130753 5.85736
130755 7.99961
130756 12.2649
130757 15.6729
130758 21.1291
130759 32.7431
130760 41.7123
130761 34.1841
130762 22.8159
130763 16.2390
130764 12.3054
130765 9.74310
130766 8.02180
130768 5.96258
130770 4.83941
130773 3.70668
130777 3.20139
130784 2.74954
130792 2.55679
130806 2.38987
130821 2.31503
130850 2.23892
130879 2.19410
130996 2.07584
131112 1.97292
131170 1.91826
131200 1.90508
131214 2.00556
131218 2.13585
131221 2.48974
131223 2.92955
131225 3.92789
131226 4.95367
131227 6.82852
131228 10.6299
131228 14.4692
131229 20.0434
131229 31.0252
131230 40.1234
131231 32.7351
131231 21.9786
131232 15.5098
131233 11.2428
131234 6.96332
131235 5.06416
131236 4.07594
131239 3.13153
131241 2.71921
131246 2.34153
131250 2.18404
131260 2.04535
131269 1.98299
131307 1.88589
131383 1.79976
131535 1.66656
131687 1.53515
131763 1.46408
131801 1.42501
131820 1.41984
131830 1.51674
131834 1.95203
131837 3.30777
131838 6.19973
131839 10.2081
131839 18.8825
131840 30.4048
131840 37.9088
131840 31.7886
131841 20.4392
131841 14.1506
131842 9.95209
131842 5.90262
131844 3.37259
131846 2.49371
131847 2.12748
131853 1.66160
131865 1.48806
131890 1.40842
131939 1.34217
132038 1.24280
132234 1.04862
132431 0.840666
132530 0.730267
132579 0.690881
132591 0.702948
132603 0.774330
132610 0.892769
132616 1.22274
132619 1.64868
132622 2.60234
132623 3.68292
132625 5.60881
132626 9.65181
132627 13.6640
132628 19.2269
132629 31.4895
132630 39.3833
132631 32.7849
132632 20.7937
132633 15.2526
132634 11.5142
132635 6.96326
132637 4.72987
132638 3.56337
132641 2.30113
132644 1.73375
132650 1.22013
132656 1.00286
132667 0.810884
132679 0.725394
132703 0.638983
132726 0.588412
132773 0.517044
132820 0.460293
132914 0.370542
133007 0.322386
133101 0.360406
133148 0.441842
133195 0.595680
133242 0.862760
133289 1.30965
133312 1.63378
133336 2.05199
133347 2.31261
133359 2.64107
133365 2.87248
133371 3.25098
133374 3.63447
133377 4.42599
133378 5.29352
133380 6.87842
133380 8.52858
133381 10.8747
133382 14.7595
133382 21.5600
133383 32.9614
133384 41.3112
133385 34.2243
133386 23.0481
133387 14.9579
133388 10.4461
133389 8.11177
133389 6.89688
133391 5.51884
133393 4.93148
133397 4.46705
133401 4.35613
133412 4.52926
133423 4.92292
133445 5.95140
133488 8.64627
133575 14.3279
133619 15.3108
133662 14.6451
133749 11.3192
133809 9.18316
133869 7.53098
133989 5.34838
134108 4.04015
134228 3.18182
134348 2.56989
134468 2.10791
134527 1.91883
134587 1.76179
134617 1.70511
134647 1.69264
134662 1.73764
134677 1.90703
134685 2.14098
134692 2.72189
134696 3.39932
134700 4.79455
134701 6.18317
134703 8.44386
134705 12.9165
134707 21.3930
134709 33.2380
134710 40.2361
134712 32.3779
134713 20.2317
134714 15.3444
134715 11.6043
134717 7.44143
134719 5.28254
134721 4.05777
134725 2.81782
134728 2.24321
134736 1.74619
134744 1.54062
134759 1.36623
134774 1.28486
134804 1.19038
134835 1.12352
134896 1.02100
134957 0.960192
135018 0.984046
135048 1.06832
135078 1.26080
135109 1.69226
135124 2.09354
135139 2.74066
135155 3.85354
135170 5.88889
135185 9.98859
135193 13.5711
135200 18.8471
135212 30.9554
135224 39.9494
135236 33.1742
135248 21.6023
135261 13.2666
135274 8.76679
135287 6.20091
135300 4.65449
135314 3.64349
135327 2.95583
135353 2.09152
135379 1.58466
135406 1.25620
135458 0.859218
135511 0.627522
135563 0.477096
135668 0.306803
135774 0.250571
135826 0.260153
135879 0.295988
135984 0.453658
136036 0.571884
136063 0.634043
136076 0.710353
136082 1.03080
136084 1.37002
136086 2.15921
136087 4.66993
136088 8.26699
136089 11.6633
136089 17.3507
136090 29.4858
136090 37.1571
136091 32.0960
136091 20.6203
136092 14.9314
136092 10.5227
136093 6.12625
136094 4.18680
136095 3.25573
136097 2.27679
136099 1.82633
136103 1.42519
136106 1.26457
136122 1.10551
136152 1.15567
136183 1.27288
136198 1.37767
136206 1.71419
136208 2.04091
136210 2.82925
136211 3.74160
136212 5.30626
136213 9.06226
136213 12.6762
136214 18.0126
136214 28.8033
136215 38.4646
136216 32.2174
136216 22.0318
136217 13.3573
136218 9.23458
136219 6.74339
136220 5.45357
136221 3.98899
136223 3.27491
136227 2.62355
136230 2.35027
136237 2.12797
136243 2.05737
136257 2.05104
136270 2.10642
136302 2.30277
136318 2.42565
136326 2.70280
136328 2.98435
136330 3.70127
136331 4.51303
136332 6.13226
136333 9.79740
136333 13.3625
136334 18.6712
136334 29.5420
136335 39.6207
136336 33.8125
136336 23.7358
136337 17.4150
136338 13.1364
136339 8.96569
136340 6.94817
136341 5.83495
136343 4.71351
136345 4.18673
136350 3.72597
136354 3.54574
136363 3.44165
136372 3.45596
136389 3.59797
136407 3.80118
136477 4.86745
136618 7.78793
136900 14.9279
137058 17.4335
137215 17.9301
137530 15.4789
137753 13.2417
137976 11.3307
138422 8.56046
138867 6.66937
139090 5.85639
139202 5.43016
139257 5.19700
139285 5.11633
139292 5.15105
139299 5.32466
139303 5.59317
139306 6.29135
139308 7.12123
139310 8.70791
139311 12.3378
139312 16.2151
139313 22.0512
139314 33.8601
139315 41.8783
139316 36.1062
139317 24.8362
139318 19.5336
139319 15.9225
139320 11.4764
139322 9.26179
139323 8.02521
139326 6.76874
139329 6.18335
139335 5.62043
139341 5.36447
139353 5.10865
139365 4.96523
139388 4.76900
139412 4.60593
139460 4.27650
139507 3.88626
139555 3.36307
139579 3.01444
139602 2.57379
139626 1.99295
139650 1.22812
139662 0.788354
139674 0.413205
139680 0.344118
139686 0.483653
139691 1.04064
139694 1.59977
139697 2.40572
139702 4.65433
139707 8.23742
139717 18.2339
139722 21.8525
139727 23.0043
139737 20.8873
139745 18.1646
139753 15.8669
139761 14.0977
139769 12.7488
139785 10.8852
139801 9.69056
139818 8.85862
139834 8.25022
139866 7.41874
139899 6.86686
139931 6.46801
139963 6.16308
139979 6.07942
139987 6.25298
139991 6.94061
139993 8.36885
139994 10.2175
139995 14.3041
139996 19.7854
139997 24.0347
139998 20.9355
139999 15.6688
140000 10.6887
140000 6.72549
150000 6.60918
160000 6.50220
170000 6.40328
180000 6.31140
190000 6.22570
200000 6.14547
225000 5.95919
250000 5.79735
275000 5.65474
275000 5.65474
275000 5.65474
300000 5.52761
350000 5.29991
400000 5.11026
450000 4.94194
500000 4.79608
550000 4.66224
600000 4.54333
650000 4.43190
700000 4.33118
750000 4.23517
800000 4.14730
800000 4.14730
850000 4.06341
900000 3.98589
900000 3.98589
900000 3.98589
950000 3.91207
1.00000E+06 3.84332
1.05529E+06 3.77333
1.05529E+06 3.77333
1.05529E+06 3.77332
1.05529E+06 3.77330
1.05597E+06 3.77248
1.05666E+06 3.77164
1.05803E+06 3.76997
1.05940E+06 3.76830
1.06078E+06 3.76663
1.06353E+06 3.76330
1.06629E+06 3.75998
1.06906E+06 3.75665
1.07184E+06 3.75332
1.07741E+06 3.74669
1.08302E+06 3.74005
1.08865E+06 3.73344
1.10000E+06 3.72025
1.14891E+06 3.66539
1.20000E+06 3.61134
1.30000E+06 3.52021
1.40000E+06 3.43788
1.50000E+06 3.36297
1.60000E+06 3.31731
1.70000E+06 3.27498
1.80000E+06 3.23557
1.88725E+06 3.20330
1.88725E+06 3.20329
1.90000E+06 3.19873
1.90160E+06 3.19816
2.00000E+06 3.16416
2.07604E+06 3.16034
2.12871E+06 3.15778
2.16648E+06 3.15599
2.25000E+06 3.15213
2.27893E+06 3.15083
2.35953E+06 3.14728
2.40883E+06 3.14518
2.40883E+06 3.14518
2.48703E+06 3.14193
2.48863E+06 3.14186
2.48863E+06 3.14186
2.50000E+06 3.14140
2.57663E+06 3.15503
2.62824E+06 3.16402
2.72252E+06 3.18007
2.74517E+06 3.18386
2.75000E+06 3.18466
2.78477E+06 3.19041
2.80568E+06 3.19384
2.80568E+06 3.19384
2.80800E+06 3.19422
2.80801E+06 3.19422
2.81726E+06 3.19572
2.82309E+06 3.19667
2.82309E+06 3.19667
2.87044E+06 3.20431
2.91117E+06 3.21079
2.91995E+06 3.21218
2.95542E+06 3.21775
2.98341E+06 3.22211
3.00000E+06 3.22468
3.05910E+06 3.24317
3.06305E+06 3.24439
3.07636E+06 3.24852
3.11832E+06 3.26145
3.12502E+06 3.26350
3.12502E+06 3.26350
3.15288E+06 3.27200
3.15288E+06 3.27200
3.15348E+06 3.27218
3.25182E+06 3.30177
3.26195E+06 3.30478
3.27668E+06 3.30915
3.27872E+06 3.30975
3.29099E+06 3.31338
3.29099E+06 3.31338
3.34136E+06 3.32815
3.34868E+06 3.33028
3.40816E+06 3.34751
3.45831E+06 3.36188
3.47127E+06 3.36557
3.48872E+06 3.37053
3.50000E+06 3.37372
3.54218E+06 3.38833
3.59092E+06 3.40508
3.60723E+06 3.41066
3.74166E+06 3.45607
4.00000E+06 3.54042
4.24264E+06 3.60315
4.50000E+06 3.66700
4.64829E+06 3.69132
4.64830E+06 3.69132
4.74342E+06 3.70654
5.00000E+06 3.74651
5.09155E+06 3.75483
5.09156E+06 3.75483
5.24404E+06 3.76826
5.50000E+06 3.79028
6.00000E+06 3.80880
6.50000E+06 3.80864
6.80268E+06 3.79987
6.80268E+06 3.79987
7.00000E+06 3.79431
7.50000E+06 3.76943
7.58511E+06 3.76367
7.93531E+06 3.74070
8.00000E+06 3.73658
8.30718E+06 3.71214
8.45095E+06 3.70105
8.50000E+06 3.69732
8.55407E+06 3.69233
8.79255E+06 3.67074
8.92907E+06 3.65870
8.94237E+06 3.65754
9.00000E+06 3.65253
9.04938E+06 3.64748
9.06129E+06 3.64627
9.11604E+06 3.64072
9.16737E+06 3.63556
9.24610E+06 3.62771
9.24988E+06 3.62734
9.24988E+06 3.62734
9.36707E+06 3.61581
9.37448E+06 3.61508
9.37535E+06 3.61500
9.43576E+06 3.60913
9.46277E+06 3.60652
9.48663E+06 3.60423
9.49289E+06 3.60362
9.49820E+06 3.60311
9.50000E+06 3.60294
9.51252E+06 3.60155
9.59760E+06 3.59214
9.68512E+06 3.58257
9.70925E+06 3.57996
9.71344E+06 3.57950
9.72113E+06 3.57867
9.74146E+06 3.57647
9.74956E+06 3.57560
9.79538E+06 3.57068
9.82523E+06 3.56749
9.83843E+06 3.56608
9.84543E+06 3.56534
9.88513E+06 3.56112
9.92879E+06 3.55651
9.92949E+06 3.55644
9.93590E+06 3.55576
9.96636E+06 3.55257
9.97062E+06 3.55212
9.97753E+06 3.55140
9.98260E+06 3.55087
9.99377E+06 3.54970
1.00000E+07 3.54905
1.01589E+07 3.52929
1.04373E+07 3.49564
1.05000E+07 3.48823
1.05121E+07 3.48681
1.05121E+07 3.48681
1.06738E+07 3.46801
1.07946E+07 3.45421
1.08612E+07 3.44669
1.08799E+07 3.44459
1.10000E+07 3.43121
1.10955E+07 3.41868
1.11039E+07 3.41759
1.11302E+07 3.41417
1.11852E+07 3.40706
1.12284E+07 3.40150
1.12284E+07 3.40150
1.12624E+07 3.39715
1.12697E+07 3.39622
1.13156E+07 3.39038
1.14038E+07 3.37926
1.14215E+07 3.37704
1.14426E+07 3.37440
1.14533E+07 3.37307
1.15000E+07 3.36726
1.17037E+07 3.34233
1.17722E+07 3.33409
1.17737E+07 3.33391
1.18101E+07 3.32955
1.18189E+07 3.32850
1.18204E+07 3.32833
1.18224E+07 3.32809
1.18301E+07 3.32717
1.18526E+07 3.32450
1.18647E+07 3.32306
1.18871E+07 3.32041
1.18961E+07 3.31935
1.19728E+07 3.31033
1.19958E+07 3.30764
1.20000E+07 3.30715
1.20071E+07 3.30624
1.20342E+07 3.30279
1.20565E+07 3.29995
1.20863E+07 3.29617
1.21187E+07 3.29208
1.21307E+07 3.29057
1.21309E+07 3.29054
1.21440E+07 3.28889
1.21525E+07 3.28782
1.21670E+07 3.28601
1.21853E+07 3.28372
1.22210E+07 3.27926
1.22388E+07 3.27705
1.22402E+07 3.27687
1.22450E+07 3.27628
1.22786E+07 3.27211
1.22813E+07 3.27178
1.22880E+07 3.27095
1.23081E+07 3.26847
1.23092E+07 3.26834
1.23188E+07 3.26716
1.23278E+07 3.26605
1.24074E+07 3.25631
1.24963E+07 3.24555
1.25000E+07 3.24510
1.25989E+07 3.23325
1.25993E+07 3.23321
1.26476E+07 3.22747
1.26588E+07 3.22615
1.27003E+07 3.22125
1.28182E+07 3.20747
1.30000E+07 3.18658
1.35000E+07 3.12969
1.40000E+07 3.07584
1.43701E+07 3.03810
1.45000E+07 3.02517
1.50000E+07 2.97702
1.54069E+07 2.94039
1.54070E+07 2.94038
1.55000E+07 2.93220
1.60000E+07 2.88944
1.65000E+07 2.84986
1.68651E+07 2.82204
1.70000E+07 2.81198
1.75000E+07 2.77708
1.80000E+07 2.74358
1.85000E+07 2.71307
1.90000E+07 2.68371
1.93298E+07 2.66633
1.95000E+07 2.65753
2.00000E+07 2.63226