Ga-71(n,g) ENDF/B-VII.1
Energy(eV) XS(b)
1.00000E-05 237.880
1.25000E-05 212.766
1.50000E-05 194.228
2.00000E-05 168.206
2.75000E-05 143.447
3.50000E-05 127.152
4.25000E-05 115.389
5.00000E-05 106.383
6.25000E-05 95.1518
7.50000E-05 86.8614
0.000100000 75.2242
0.000125000 67.2825
0.000150000 61.4203
0.000200000 53.1915
0.000275000 45.3619
0.000350000 40.2091
0.000425000 36.4891
0.000500000 33.6413
0.000625000 30.0898
0.000750000 27.4681
0.00100000 23.7881
0.00125000 21.2768
0.00150000 19.4230
0.00200000 16.8208
0.00275000 14.3449
0.00350000 12.7155
0.00425000 11.5392
0.00500000 10.6386
0.00625000 9.51555
0.00750000 8.68653
0.0100000 7.52287
0.0125000 6.72877
0.0150000 6.14259
0.0200000 5.31980
0.0253000 4.73003
0.0314750 4.24090
0.0376500 3.87771
0.0500000 3.36516
0.0625000 3.01012
0.0750000 2.74806
0.100000 2.38026
0.125000 2.12929
0.150000 1.94407
0.200000 1.68413
0.275000 1.43690
0.350000 1.27426
0.500000 1.06711
0.750000 0.872646
1.00000 0.756910
1.50000 0.619951
2.00000 0.538588
2.75000 0.461506
3.50000 0.411060
5.00000 0.347311
7.50000 0.288405
10.0000 0.254192
15.0000 0.215456
20.0000 0.194374
27.5000 0.177656
35.0000 0.170892
50.0000 0.178850
61.3867 0.211939
67.0801 0.248056
72.7734 0.315068
78.4668 0.458298
81.3134 0.600295
84.1601 0.858039
85.5834 1.07454
87.0068 1.40459
88.4301 1.94477
89.8535 2.92192
90.5651 3.73925
91.2768 4.97915
91.9885 6.99351
92.7001 10.5947
93.0560 13.5696
93.4118 18.0253
93.7676 25.1366
94.1235 37.5181
94.4793 61.9994
94.6572 84.3561
94.8351 121.304
95.0131 188.679
95.1020 245.132
95.1910 330.363
95.2799 466.685
95.3689 700.622
95.4579 1135.23
95.5468 1984.75
95.6234 3174.08
95.7000 3965.10
95.7766 3170.13
95.8532 1980.47
95.9180 1309.08
95.9828 898.220
96.0476 643.765
96.1124 479.853
96.2420 292.621
96.3716 195.549
96.5011 139.396
96.6307 104.195
96.8899 64.3679
97.1491 43.6133
97.4083 31.4720
97.6674 23.7702
97.9266 18.5843
98.4450 12.2559
98.9633 8.69131
99.4817 6.48901
100.000 5.03467
100.781 3.62669
101.563 2.74461
103.125 1.74414
104.688 1.22067
106.250 0.913561
109.375 0.587270
112.500 0.427698
115.625 0.338795
118.750 0.284893
125.000 0.227264
137.500 0.188859
150.000 0.185787
175.000 0.223100
200.000 0.320709
210.448 0.394312
220.895 0.505350
231.343 0.683449
236.566 0.815869
241.790 0.995842
247.014 1.24942
252.238 1.62341
257.461 2.20886
262.685 3.20247
265.297 3.98256
267.909 5.09551
270.521 6.75990
273.133 9.40428
275.744 13.9564
278.356 22.6904
279.662 30.3028
280.968 42.0686
282.274 60.9677
283.580 91.6293
285.140 146.073
286.700 181.365
288.260 144.068
289.820 89.6995
291.132 59.3507
292.444 40.7636
293.755 29.2399
295.067 21.8089
297.690 13.3169
300.314 8.91627
302.937 6.37528
305.561 4.78719
310.808 3.00298
316.054 2.08959
321.301 1.57352
326.548 1.26832
331.795 1.09168
342.289 1.00694
347.536 1.10684
352.783 1.36910
358.029 1.97593
360.653 2.56382
363.276 3.56651
365.900 5.45451
367.212 7.08058
368.523 9.60008
369.835 13.7731
371.147 21.3051
371.803 27.4645
372.458 36.4067
373.114 49.6734
373.770 69.3148
374.735 110.703
375.700 137.982
376.665 109.983
377.630 68.6104
378.586 42.3955
379.542 27.6687
380.498 19.1540
381.454 13.9380
382.410 10.5586
383.366 8.26189
385.278 5.44831
387.190 3.86508
389.102 2.89024
392.926 1.80396
396.750 1.24414
400.574 0.917609
408.223 0.569360
415.871 0.395399
423.519 0.294920
438.815 0.187331
454.111 0.132595
469.408 0.100316
500.000 0.0650213
525.558 0.0492741
551.117 0.0395832
602.234 0.0306440
627.792 0.0313740
640.571 0.0343401
653.350 0.0412197
666.130 0.0576426
672.519 0.0746610
678.909 0.106199
682.104 0.132985
685.298 0.174078
688.493 0.241702
691.688 0.364614
693.285 0.467745
694.883 0.624532
696.480 0.879811
698.078 1.33728
698.876 1.71590
699.675 2.28390
700.474 3.19208
701.272 4.77716
701.672 6.05481
702.071 7.92178
702.470 10.8037
702.870 15.5823
703.069 19.2440
703.269 24.3429
703.469 31.7225
703.668 42.9171
703.868 60.9573
704.068 92.2145
704.168 116.802
704.267 151.186
704.367 199.972
704.467 268.779
704.634 429.665
704.800 536.690
704.967 429.457
705.133 268.569
705.277 176.065
705.421 120.024
705.565 85.6212
705.709 63.6021
705.997 38.6150
706.285 25.7415
706.573 18.3204
706.861 13.6813
707.437 8.44312
708.013 5.71878
708.589 4.12670
709.164 3.11740
709.740 2.43799
710.892 1.60892
712.044 1.14187
713.196 0.853157
714.348 0.662361
716.651 0.433861
718.955 0.307489
721.259 0.230339
723.562 0.179807
728.170 0.119804
732.777 0.0868612
737.384 0.0668206
741.991 0.0537035
751.206 0.0380831
760.421 0.0294231
778.850 0.0204960
797.279 0.0160793
815.708 0.0134772
852.567 0.0105331
926.283 0.00782511
1000.00 0.00663467
1045.94 0.00651570
1068.91 0.00748796
1074.65 0.00855160
1080.40 0.0115548
1083.27 0.0156959
1086.14 0.0273020
1087.57 0.0432010
1088.29 0.0588910
1089.01 0.0871137
1089.73 0.146091
1090.09 0.203220
1090.44 0.304001
1090.62 0.386370
1090.80 0.507334
1090.98 0.697730
1091.16 1.01803
1091.34 1.62673
1091.43 2.15687
1091.52 2.97784
1091.61 4.37632
1091.70 6.93628
1091.75 9.10766
1091.79 12.3474
1091.84 17.3163
1091.88 24.7435
1091.94 39.6781
1092.00 49.4019
1092.06 39.4193
1092.12 24.7461
1092.16 17.5940
1092.21 12.8012
1092.25 9.59266
1092.29 7.43907
1092.37 4.74729
1092.46 3.27967
1092.54 2.38429
1092.62 1.81375
1092.79 1.14548
1092.96 0.788082
1093.12 0.575404
1093.46 0.346075
1093.79 0.231764
1094.13 0.166735
1094.79 0.0994596
1095.46 0.0670859
1096.13 0.0491004
1097.46 0.0308831
1100.13 0.0176365
1102.80 0.0130173
1108.15 0.00999848
1113.49 0.00957003
1118.83 0.0107096
1124.17 0.0152379
1126.84 0.0218221
1128.18 0.0284228
1129.51 0.0404464
1130.85 0.0659203
1131.52 0.0909464
1132.18 0.135687
1132.52 0.172727
1132.85 0.228240
1133.18 0.316870
1133.52 0.470582
1133.85 0.774869
1134.02 1.05233
1134.19 1.51002
1134.35 2.34190
1134.44 3.04149
1134.52 4.08131
1134.60 5.75617
1134.69 8.57345
1134.77 13.7259
1134.85 23.5877
1134.93 37.7589
1135.00 47.2150
1135.07 37.7590
1135.15 23.5889
1135.21 16.1621
1135.26 11.4771
1135.32 8.39916
1135.37 6.38841
1135.49 3.99144
1135.60 2.70967
1135.71 1.95328
1135.83 1.47246
1136.05 0.921109
1136.28 0.630081
1136.50 0.458362
1136.73 0.348762
1136.96 0.274885
1137.41 0.183804
1137.86 0.132226
1138.76 0.0790584
1139.67 0.0535686
1140.57 0.0394396
1142.38 0.0251092
1145.99 0.0146412
1149.60 0.0109066
1156.83 0.00820209
1164.06 0.00725352
1192.97 0.00647606
1250.78 0.00725105
1279.69 0.00840374
1308.60 0.0109565
1323.05 0.0138670
1330.28 0.0165168
1337.51 0.0210998
1344.73 0.0304934
1348.35 0.0396575
1351.96 0.0561959
1353.77 0.0700722
1355.58 0.0912330
1357.38 0.125913
1359.19 0.188743
1360.09 0.241467
1361.00 0.321516
1361.90 0.452016
1362.80 0.685733
1363.25 0.879495
1363.71 1.17044
1364.16 1.63621
1364.61 2.44815
1365.06 4.06533
1365.29 5.55078
1365.51 8.00658
1365.74 12.5374
1365.85 16.3664
1365.96 22.1972
1366.08 31.6315
1366.19 48.0912
1366.25 61.2394
1366.30 79.4136
1366.36 105.276
1366.42 141.860
1366.51 227.081
1366.60 282.919
1366.69 226.081
1366.79 141.072
1366.84 104.706
1366.90 79.0096
1367.01 48.2702
1367.12 31.8343
1367.23 22.4457
1367.34 16.5648
1367.46 12.7261
1367.68 8.14496
1367.90 5.64620
1368.12 4.14001
1368.57 2.49922
1369.02 1.67010
1369.46 1.19534
1369.91 0.898585
1370.35 0.701242
1371.24 0.462361
1372.14 0.329327
1373.03 0.247677
1373.92 0.194017
1375.70 0.130137
1377.48 0.0950999
1379.27 0.0738922
1381.05 0.0601433
1384.61 0.0441043
1388.18 0.0356328
1395.31 0.0279069
1409.57 0.0248511
1423.83 0.0275915
1438.09 0.0342731
1452.35 0.0466149
1466.62 0.0714669
1473.75 0.100790
1475.53 0.117564
1477.31 0.154213
1478.20 0.198438
1478.65 0.239933
1479.09 0.312080
1479.54 0.457704
1479.76 0.594538
1479.99 0.827376
1480.21 1.27776
1480.32 1.68061
1480.43 2.32223
1480.54 3.45502
1480.65 5.66040
1480.71 7.64664
1480.77 10.7280
1480.82 15.9187
1480.88 24.4864
1480.94 39.1182
1481.00 48.8760
1481.06 39.1170
1481.12 24.4855
1481.17 17.5698
1481.21 12.9847
1481.29 7.64805
1481.37 4.96586
1481.46 3.48596
1481.54 2.57561
1481.62 1.99231
1481.79 1.30542
1481.95 0.936410
1482.12 0.716382
1482.45 0.479177
1482.78 0.361262
1483.11 0.295144
1483.77 0.228492
1485.09 0.184043
1486.41 0.174158
1491.69 0.203917
1496.97 0.278682
1502.26 0.415124
1504.90 0.526546
1507.54 0.690758
1510.18 0.946694
1512.82 1.37672
1514.15 1.71058
1515.47 2.18119
1516.79 2.87322
1518.11 3.94551
1519.43 5.72695
1520.75 8.95664
1521.41 11.6123
1522.07 15.4793
1522.73 21.2443
1523.39 29.8268
1524.35 47.6346
1525.30 59.4410
1526.26 47.5598
1527.21 29.7542
1527.88 21.0787
1528.55 15.2968
1529.22 11.4339
1529.89 8.80009
1531.23 5.60530
1532.57 3.85191
1533.90 2.79812
1535.24 2.12060
1537.92 1.33434
1540.60 0.914827
1543.27 0.665612
1545.95 0.505815
1548.63 0.397348
1553.98 0.263857
1559.34 0.188040
1564.69 0.140911
1570.04 0.109642
1580.75 0.0720476
1591.46 0.0511834
1602.17 0.0384204
1612.88 0.0300522
1634.29 0.0201161
1655.71 0.0146767
1677.13 0.0113907
1698.54 0.00926861
1741.38 0.00684675
1784.21 0.00573542
1827.04 0.00572189
1837.75 0.00611079
1848.46 0.00714363
1853.81 0.00844393
1859.17 0.0118624
1861.84 0.0164147
1864.52 0.0289535
1865.86 0.0459827
1867.20 0.0927232
1867.87 0.155220
1868.20 0.215529
1868.54 0.321059
1868.87 0.532982
1869.04 0.728523
1869.21 1.05605
1869.37 1.67050
1869.46 2.19826
1869.54 3.00311
1869.63 4.34720
1869.71 6.73059
1869.75 8.69147
1869.79 11.5315
1869.83 15.7304
1869.88 21.7461
1869.94 34.9451
1870.00 43.5765
1870.06 34.7223
1870.13 21.7473
1870.18 13.7270
1870.24 9.09433
1870.30 6.35751
1870.36 4.65471
1870.48 2.77444
1870.60 1.83570
1870.71 1.29765
1870.83 0.965004
1871.07 0.594575
1871.30 0.402792
1871.54 0.291841
1872.01 0.174451
1872.48 0.117104
1872.95 0.0849010
1873.89 0.0519636
1875.78 0.0277873
1877.66 0.0192743
1881.43 0.0134975
1885.19 0.0119907
1892.73 0.0126220
1900.26 0.0162295
1907.80 0.0249735
1911.56 0.0338882
1915.33 0.0502299
1917.22 0.0640179
1919.10 0.0850531
1920.98 0.119491
1922.87 0.181591
1923.81 0.233352
1924.75 0.311512
1925.69 0.437591
1926.63 0.660146
1927.10 0.841935
1927.57 1.11093
1928.05 1.53303
1928.52 2.24992
1928.99 3.61254
1929.22 4.80811
1929.46 6.68766
1929.69 9.90364
1929.81 12.4206
1929.93 15.9395
1930.05 21.1202
1930.16 28.8970
1930.28 41.1641
1930.40 60.2924
1930.55 96.6535
1930.70 120.700
1930.85 96.3814
1931.00 60.2770
1931.14 38.8962
1931.27 26.1992
1931.41 18.5293
1931.54 13.6786
1931.81 8.23749
1932.08 5.47128
1932.35 3.88082
1932.62 2.89404
1933.16 1.78179
1933.70 1.20534
1934.24 0.869213
1934.78 0.656439
1935.31 0.513359
1936.39 0.338951
1937.47 0.240780
1938.55 0.180131
1939.63 0.140066
1941.78 0.0920850
1943.94 0.0655710
1946.10 0.0493881
1948.25 0.0387908
1952.56 0.0262125
1956.88 0.0193185
1965.50 0.0124051
1974.13 0.00918067
1982.75 0.00742295
2000.00 0.00568170
2024.81 0.00469778
2049.62 0.00434231
2099.23 0.00435163
2148.85 0.00497582
2198.47 0.00642770
2248.08 0.00973165
2272.89 0.0130508
2297.70 0.0190683
2310.10 0.0240931
2322.51 0.0316911
2334.91 0.0439699
2347.31 0.0657370
2353.52 0.0835598
2359.72 0.110020
2365.92 0.151736
2372.12 0.223087
2378.32 0.360247
2381.43 0.481757
2384.53 0.676126
2387.63 1.01365
2389.18 1.28279
2390.73 1.66941
2392.28 2.24836
2393.83 3.15379
2395.38 4.63309
2396.93 7.08053
2398.72 11.3277
2400.50 14.1506
2402.29 11.3063
2404.07 7.05989
2405.57 4.68319
2407.06 3.22254
2408.56 2.31484
2410.05 1.72872
2413.05 1.05688
2416.04 0.707701
2419.03 0.505301
2422.02 0.378305
2428.00 0.234438
2433.98 0.159372
2439.97 0.115436
2445.95 0.0875494
2451.93 0.0687718
2463.90 0.0458566
2475.86 0.0329588
2487.83 0.0250039
2499.79 0.0197671
2523.72 0.0135556
2547.65 0.0102096
2595.51 0.00716198
2643.37 0.00651516
2667.30 0.00698806
2691.23 0.00837312
2715.16 0.0118142
2727.13 0.0153840
2739.09 0.0219707
2745.08 0.0275431
2751.06 0.0360629
2757.04 0.0500367
2763.02 0.0753288
2766.02 0.0964856
2769.01 0.128543
2772.00 0.180536
2774.99 0.273199
2776.48 0.349510
2777.98 0.463406
2779.48 0.644252
2780.97 0.956442
2782.47 1.56624
2783.22 2.11541
2783.96 3.00774
2784.71 4.59893
2785.08 5.90037
2785.46 7.81853
2785.83 10.7863
2786.21 15.6458
2786.58 24.0847
2786.95 39.1169
2787.33 62.6328
2787.70 78.2525
2788.07 62.5460
2788.45 39.0976
2788.77 25.7800
2789.08 17.6557
2789.40 12.6386
2789.72 9.42081
2790.35 5.74307
2790.99 3.83819
2791.62 2.73565
2792.26 2.04598
2793.53 1.26568
2794.80 0.858768
2796.07 0.620887
2797.34 0.469848
2798.61 0.368208
2801.15 0.244096
2803.69 0.174190
2806.23 0.131027
2808.77 0.102576
2813.86 0.0687006
2818.94 0.0503021
2824.02 0.0395031
2829.10 0.0330231
2839.26 0.0281245
2844.35 0.0294400
2849.43 0.0348328
2854.51 0.0492720
2857.05 0.0645939
2859.59 0.0930801
2860.86 0.117256
2862.13 0.154182
2863.40 0.214625
2864.67 0.323297
2865.31 0.413662
2865.94 0.549364
2866.58 0.766955
2867.21 1.14816
2867.85 1.90873
2868.17 2.61122
2868.48 3.78018
2868.80 5.95100
2868.96 7.79999
2869.12 10.6160
2869.28 15.2449
2869.36 18.7476
2869.44 23.4509
2869.52 30.0916
2869.59 39.4558
2869.67 53.0349
2869.75 72.6513
2869.88 116.361
2870.00 145.549
2870.12 116.351
2870.25 72.6416
2870.37 45.8585
2870.48 30.3825
2870.60 21.2372
2870.72 15.5462
2870.95 9.26092
2871.18 6.10290
2871.42 4.31183
2871.65 3.20378
2872.12 1.96539
2872.59 1.32726
2873.06 0.956513
2873.52 0.722404
2873.99 0.565254
2874.93 0.374014
2875.86 0.266524
2876.80 0.200161
2877.74 0.156329
2879.61 0.103825
2881.48 0.0747426
2883.35 0.0569399
2885.22 0.0452357
2888.97 0.0312424
2892.71 0.0234669
2900.20 0.0154786
2907.69 0.0115883
2915.18 0.00935882
2930.15 0.00697203
2960.10 0.00506082
2990.05 0.00438495
3020.01 0.00423077
3049.96 0.00452397
3064.93 0.00498083
3079.91 0.00611707
3087.40 0.00755160
3094.88 0.0114019
3098.63 0.0166140
3102.37 0.0311393
3104.24 0.0510187
3106.12 0.106100
3107.05 0.180326
3107.52 0.252484
3107.99 0.380305
3108.46 0.639914
3108.69 0.883921
3108.92 1.30008
3109.16 2.09617
3109.27 2.79755
3109.39 3.91274
3109.51 5.83174
3109.63 9.50567
3109.68 12.7304
3109.74 17.6101
3109.80 25.3712
3109.86 37.8189
3109.93 60.4223
3110.00 75.4558
3110.07 60.4226
3110.14 37.8197
3110.19 27.8712
3110.23 20.8994
3110.32 12.5986
3110.41 8.26390
3110.49 5.81082
3110.58 4.27742
3110.67 3.28229
3110.84 2.09677
3111.02 1.45211
3111.19 1.06430
3111.54 0.641957
3111.89 0.429051
3112.24 0.307663
3112.94 0.181275
3113.65 0.120207
3114.35 0.0862245
3115.75 0.0516504
3118.55 0.0263878
3121.35 0.0174440
3126.95 0.0111417
3132.56 0.00911449
3143.77 0.00818646
3154.97 0.00868420
3166.18 0.0102384
3177.39 0.0141735
3182.99 0.0190993
3188.60 0.0322040
3191.40 0.0497828
3192.80 0.0670450
3194.20 0.0981363
3195.60 0.163228
3196.30 0.226638
3197.00 0.339035
3197.70 0.568542
3198.05 0.784924
3198.40 1.15568
3198.75 1.87012
3198.93 2.50455
3199.10 3.52179
3199.28 5.29408
3199.45 8.75457
3199.54 11.8459
3199.63 16.6527
3199.72 24.6475
3199.80 37.8328
3199.90 60.4749
3200.00 75.5469
3200.10 60.4731
3200.20 37.8323
3200.31 21.8417
3200.42 13.5662
3200.54 9.07428
3200.65 6.46019
3200.76 4.80166
3200.87 3.70885
3201.10 2.39268
3201.33 1.66588
3201.55 1.22757
3202.00 0.746582
3202.45 0.502537
3202.90 0.362683
3203.80 0.216441
3204.70 0.145707
3205.60 0.106259
3207.41 0.0662137
3211.01 0.0372565
3214.61 0.0274095
3221.82 0.0214996
3229.03 0.0209974
3243.44 0.0255300
3257.86 0.0364171
3265.07 0.0457575
3272.28 0.0598341
3279.48 0.0822817
3286.69 0.121127
3293.90 0.197022
3297.50 0.265386
3301.11 0.376651
3304.71 0.575005
3306.51 0.737346
3308.31 0.976783
3310.12 1.34761
3311.92 1.95570
3313.72 3.01394
3315.52 4.90952
3317.31 7.85251
3319.10 9.80973
3320.89 7.84181
3322.68 4.89927
3324.12 3.29976
3325.57 2.29815
3327.01 1.66585
3328.46 1.25243
3331.34 0.773235
3334.23 0.521283
3337.12 0.374271
3340.01 0.281584
3345.78 0.176250
3351.56 0.121290
3357.34 0.0893219
3363.11 0.0693856
3368.89 0.0564779
3380.44 0.0432828
3386.22 0.0417232
3391.99 0.0446166
3397.77 0.0564630
3400.66 0.0701256
3403.54 0.0962184
3404.99 0.118578
3406.43 0.152897
3407.88 0.209146
3409.32 0.310377
3410.04 0.394321
3410.76 0.520356
3411.49 0.721959
3412.21 1.07382
3412.93 1.77143
3413.29 2.41004
3413.65 3.46795
3414.01 5.40311
3414.19 7.03513
3414.37 9.49311
3414.55 13.4630
3414.73 20.2761
3414.82 25.5999
3414.91 33.0144
3415.00 43.4742
3415.09 58.1378
3415.25 93.0181
3415.40 116.271
3415.55 93.0097
3415.71 58.1292
3415.80 43.1928
3415.89 32.6218
3416.07 19.8746
3416.26 13.1274
3416.44 9.24005
3416.63 6.82860
3416.81 5.24075
3417.18 3.35668
3417.55 2.32929
3417.91 1.71010
3418.65 1.03521
3419.39 0.694527
3420.12 0.499374
3420.86 0.377318
3421.59 0.296030
3423.06 0.197589
3424.54 0.142591
3426.01 0.108714
3427.48 0.0863437
3430.42 0.0594798
3433.36 0.0444997
3439.25 0.0290489
3445.13 0.0214841
3451.02 0.0171228
3462.79 0.0124241
3474.56 0.0101308
3486.33 0.00938394
3492.22 0.0100132
3498.10 0.0130137
3501.04 0.0176581
3503.99 0.0311336
3505.46 0.0497986
3506.93 0.101494
3507.66 0.170899
3508.03 0.238049
3508.40 0.355882
3508.77 0.593338
3508.95 0.814127
3509.14 1.18620
3509.32 1.88487
3509.41 2.48843
3509.50 3.42855
3509.60 4.99900
3509.69 7.87191
3509.73 10.2533
3509.78 13.7556
3509.83 19.0325
3509.87 26.7721
3509.94 42.8769
3510.00 53.6322
3510.07 42.8773
3510.13 26.7728
3510.20 16.0073
3510.27 10.2540
3510.34 6.96742
3510.40 5.02193
3510.47 3.76020
3510.54 2.92386
3510.68 1.90662
3510.81 1.33517
3510.95 0.988267
3511.22 0.602933
3511.50 0.405808
3511.77 0.292514
3512.32 0.173578
3513.41 0.0832521
3514.50 0.0501230
3516.69 0.0256434
3518.87 0.0168086
3523.24 0.0102725
3527.61 0.00784018
3536.36 0.00588922
3545.10 0.00503313
3580.07 0.00367299
3650.00 0.00280912
3719.94 0.00284824
3737.42 0.00310257
3754.90 0.00371780
3763.65 0.00443237
3772.39 0.00618631
3781.13 0.0144842
3783.32 0.0226802
3785.50 0.0453623
3786.59 0.0761071
3787.69 0.159795
3788.23 0.270387
3788.51 0.375681
3788.78 0.558127
3789.05 0.915939
3789.19 1.24122
3789.32 1.76952
3789.46 2.72551
3789.53 3.50854
3789.60 4.67042
3789.67 6.51850
3789.73 9.55265
3789.80 14.9282
3789.87 24.7934
3789.94 39.7083
3790.00 49.6690
3790.07 39.7087
3790.13 24.7940
3790.19 15.4683
3790.26 10.2217
3790.32 7.13355
3790.38 5.21666
3790.44 3.94627
3790.50 3.09274
3790.63 2.03863
3790.75 1.43723
3790.88 1.06881
3791.13 0.656811
3791.37 0.443747
3791.62 0.320525
3792.12 0.190231
3793.11 0.0908783
3794.11 0.0543371
3796.10 0.0274904
3798.08 0.0179966
3806.04 0.00960144
3813.99 0.00971757
3821.94 0.0125941
3825.92 0.0153892
3829.89 0.0198048
3833.87 0.0271672
3837.85 0.0406217
3839.83 0.0519260
3841.82 0.0691111
3843.81 0.0970706
3845.80 0.147090
3846.79 0.188407
3847.79 0.250261
3848.78 0.348868
3849.77 0.520214
3850.77 0.857743
3851.26 1.16463
3851.76 1.66934
3852.26 2.58254
3852.51 3.34335
3852.76 4.47809
3853.00 6.27969
3853.25 9.30858
3853.38 11.6481
3853.50 14.8250
3853.63 19.2111
3853.75 25.2209
3853.98 40.3971
3854.20 50.4569
3854.43 40.3204
3854.65 25.2157
3854.81 18.0123
3854.96 13.1575
3855.11 9.89018
3855.27 7.64285
3855.58 4.89801
3855.88 3.37886
3856.19 2.46183
3856.50 1.86960
3857.11 1.18088
3857.73 0.811315
3858.35 0.591535
3858.96 0.450091
3859.58 0.354087
3860.81 0.235631
3862.04 0.168208
3863.27 0.126234
3864.50 0.0983509
3866.96 0.0647698
3869.43 0.0461065
3871.89 0.0346713
3874.35 0.0271620
3879.27 0.0182243
3884.20 0.0133125
3889.12 0.0103267
3894.05 0.00837757
3903.90 0.00607336
3913.74 0.00481787
3933.44 0.00357629
3972.84 0.00274235
4012.23 0.00255156
4051.63 0.00262586
4091.02 0.00301216
4110.72 0.00351472
4130.42 0.00482878
4140.27 0.00657876
4145.19 0.00830270
4150.11 0.0114342
4155.04 0.0181082
4157.50 0.0247428
4159.96 0.0368202
4161.19 0.0469817
4162.42 0.0624794
4163.66 0.0878311
4164.89 0.133582
4166.12 0.229334
4166.73 0.322440
4167.35 0.486949
4167.96 0.821180
4168.27 1.13503
4168.58 1.66743
4168.89 2.68624
4169.04 3.58188
4169.20 5.00266
4169.35 7.43944
4169.50 12.0809
4169.58 16.0915
4169.66 22.2338
4169.73 31.9773
4169.81 47.2963
4169.91 75.5878
4170.00 94.4129
4170.10 75.5851
4170.19 47.2933
4170.30 27.4906
4170.40 17.2227
4170.51 11.5857
4170.62 8.25588
4170.72 6.15402
4170.83 4.75245
4171.04 3.06843
4171.25 2.13895
4171.46 1.57428
4171.89 0.953738
4172.31 0.638967
4172.74 0.457912
4173.16 0.344379
4173.58 0.268561
4174.43 0.176790
4175.28 0.125496
4176.13 0.0939597
4176.98 0.0732020
4178.67 0.0484354
4180.37 0.0348080
4182.06 0.0265184
4183.76 0.0211068
4187.15 0.0147129
4190.55 0.0112361
4197.33 0.00780394
4204.12 0.00626172
4210.90 0.00547417
4224.47 0.00482829
4251.61 0.00487615
4278.75 0.00582369
4305.89 0.00807811
4319.46 0.0103129
4333.03 0.0143316
4346.60 0.0227485
4353.39 0.0309745
4360.17 0.0456820
4363.56 0.0578448
4366.96 0.0760804
4370.35 0.105248
4373.74 0.156167
4377.13 0.257340
4378.83 0.350160
4380.53 0.504363
4382.22 0.787946
4383.07 1.02737
4383.92 1.39182
4384.77 1.98121
4385.61 3.00906
4386.04 3.82153
4386.46 4.96493
4386.89 6.59817
4387.31 8.91891
4388.01 14.2767
4388.70 17.8500
4389.40 14.2712
4390.09 8.91354
4390.67 5.90780
4391.26 4.06288
4391.84 2.91761
4392.43 2.17828
4393.59 1.33213
4394.76 0.892505
4395.93 0.637866
4397.10 0.478068
4399.43 0.297074
4401.77 0.202653
4404.11 0.147371
4406.44 0.112286
4408.78 0.0886608
4413.45 0.0598134
4418.12 0.0435730
4422.79 0.0335543
4427.46 0.0269571
4436.81 0.0191168
4446.15 0.0148596
4464.84 0.0107631
4483.53 0.00910369
4502.21 0.00847720
4539.59 0.00873780
4576.96 0.0104697
4614.33 0.0145544
4633.02 0.0189032
4642.37 0.0226236
4651.71 0.0287226
4661.05 0.0405095
4665.72 0.0515149
4670.40 0.0707002
4675.07 0.109650
4677.40 0.146716
4679.74 0.211250
4682.08 0.339405
4683.24 0.457236
4683.83 0.541957
4684.41 0.653618
4685.00 0.804844
4685.58 1.01649
4686.16 1.32485
4686.75 1.79720
4687.33 2.56792
4687.62 3.14563
4687.92 3.92967
4688.21 5.01996
4688.50 6.57237
4688.79 8.82086
4689.08 12.0505
4689.54 19.2618
4690.00 24.0652
4690.46 19.2575
4690.92 12.0466
4691.30 8.00881
4691.69 5.52796
4692.07 3.98255
4692.45 2.98233
4693.22 1.83469
4693.98 1.23706
4694.75 0.890105
4695.52 0.672573
4697.05 0.426133
4698.58 0.297626
4700.11 0.222632
4703.18 0.143493
4706.24 0.105271
4709.31 0.0844088
4715.44 0.0648092
4721.57 0.0579147
4727.70 0.0568548
4739.95 0.0651786
4752.21 0.0884920
4758.34 0.110327
4764.47 0.146460
4766.01 0.159264
4767.54 0.174298
4769.07 0.192161
4770.60 0.213614
4772.14 0.239769
4773.67 0.272123
4775.20 0.312902
4776.73 0.365402
4778.26 0.434742
4779.80 0.528930
4781.33 0.661615
4782.86 0.856324
4784.39 1.15730
4785.93 1.65031
4786.69 2.01804
4787.46 2.51001
4788.22 3.17278
4788.99 4.05811
4790.50 6.43960
4792.00 8.02729
4793.51 6.44543
4795.01 4.07509
4796.38 2.66637
4797.74 1.83735
4799.11 1.34201
4800.47 1.03325
4803.20 0.696828
4805.93 0.538254
4811.39 0.429561
4816.85 0.448734
4822.30 0.564861
4827.76 0.827592
4830.49 1.05932
4833.22 1.41018
4835.95 1.95316
4838.68 2.79258
4842.34 4.43738
4846.00 5.52922
4849.66 4.42255
4853.32 2.77142
4855.61 2.04036
4857.90 1.53053
4862.49 0.926683
4867.07 0.612819
4871.66 0.434098
4876.24 0.324057
4880.82 0.252020
4889.99 0.167184
4899.16 0.121540
4908.33 0.0946797
4926.66 0.0675387
4945.00 0.0577842
4963.33 0.0585722
4981.67 0.0707230
5000.00 0.104260
5012.37 0.156451
5018.55 0.203238
5024.73 0.278063
5027.82 0.333222
5030.91 0.407201
5034.00 0.509211
5037.10 0.654454
5040.19 0.869083
5043.28 1.19898
5046.37 1.72498
5049.46 2.57120
5053.23 4.10592
5057.00 5.12520
5060.77 4.09759
5064.54 2.56267
5067.80 1.68217
5071.06 1.14908
5074.32 0.821887
5077.58 0.612520
5084.09 0.374786
5090.61 0.252207
5097.13 0.181495
5103.65 0.137231
5116.68 0.0871579
5129.72 0.0610372
5142.75 0.0457342
5168.82 0.0294992
5194.89 0.0216342
5220.96 0.0174109
5273.10 0.0140114
5325.24 0.0145579
5351.31 0.0163679
5377.38 0.0198531
5403.45 0.0265507
5416.49 0.0323414
5429.52 0.0415495
5442.56 0.0581851
5449.07 0.0726718
5455.59 0.0963855
5462.11 0.141012
5465.37 0.180857
5468.63 0.246352
5471.88 0.366800
5473.51 0.469547
5475.14 0.628128
5476.77 0.890933
5478.40 1.36685
5479.22 1.75845
5480.03 2.32978
5480.85 3.18502
5481.66 4.46146
5482.83 7.10110
5484.00 8.85933
5485.17 7.10107
5486.34 4.46532
5487.48 2.80568
5488.63 1.86491
5489.77 1.31804
5490.91 0.982553
5493.20 0.617939
5495.48 0.439641
5497.77 0.342139
5500.05 0.285188
5504.62 0.230496
5509.19 0.214865
5513.76 0.220798
5522.91 0.283851
5527.48 0.347617
5532.05 0.447246
5536.62 0.608507
5541.19 0.888425
5545.76 1.43225
5548.04 1.91726
5550.33 2.69762
5552.62 4.06413
5554.90 6.74963
5556.04 9.15023
5557.19 12.9510
5558.33 19.2674
5559.47 29.9328
5560.10 38.3308
5560.74 47.9198
5562.00 59.9204
5563.27 47.9036
5564.53 29.9144
5565.64 19.4875
5566.75 13.2272
5567.86 9.40497
5568.96 6.97212
5571.18 4.22209
5573.40 2.81067
5575.62 1.99941
5577.83 1.49293
5582.27 0.922026
5586.70 0.625308
5591.13 0.451984
5595.57 0.342055
5600.00 0.268032
5600.00 0.279380
7500.00 0.230000
9000.00 0.201800
10000.0 0.190840
50000.0 0.0794560
100000 0.0536720
395550 0.0325480
494230 0.0275280
494230 0.0275280
518770 0.0250800
518775 0.0250798
600000 0.0210830
700000 0.0190790
800000 0.0162190
923040 0.0143150
923043 0.0143150
978420 0.0133990
1.12310E+06 0.0120510
1.12315E+06 0.0120504
1.12510E+06 0.0120280
1.20000E+06 0.0110970
1.30000E+06 0.0101780
1.41480E+06 0.00951240
1.41484E+06 0.00951213
1.49690E+06 0.00894910
1.51490E+06 0.00853660
1.51494E+06 0.00853641
1.80000E+06 0.00727610
2.06250E+06 0.00616680
2.50000E+06 0.00510470
3.00000E+06 0.00424710
3.50000E+06 0.00344960
4.00000E+06 0.00261980
4.50000E+06 0.00200550
5.00000E+06 0.00154210
5.33600E+06 0.00129330
5.50000E+06 0.00118760
5.72300E+06 0.00106810
6.00000E+06 0.000936760
6.50000E+06 0.000744220
7.00000E+06 0.000602340
7.50000E+06 0.000501200
7.97920E+06 0.000435290
8.00000E+06 0.000432430
8.72300E+06 0.000379090
9.00000E+06 0.000370090
9.43770E+06 0.000366090
9.43774E+06 0.000366091
9.80000E+06 0.000370570
1.00000E+07 0.000375580
1.10000E+07 0.000516580
1.14180E+07 0.000637560
1.20000E+07 0.000816730
1.30000E+07 0.000940700
1.34450E+07 0.000976580
1.40000E+07 0.00103070
1.50000E+07 0.000965200
1.60000E+07 0.000890610
1.72000E+07 0.000803920
1.72002E+07 0.000803907
1.80000E+07 0.000752830
1.90000E+07 0.000732560
2.00000E+07 0.000693490