Ge-76(n,tot) ENDF/B-VII.1
Energy(eV) XS(b)
1.00000E-05 16.1367
1.25000E-05 15.3158
1.50000E-05 14.7099
2.00000E-05 13.8593
2.75000E-05 13.0499
3.50000E-05 12.5173
4.25000E-05 12.1328
5.00000E-05 11.8384
6.25000E-05 11.4713
7.50000E-05 11.2003
0.000100000 10.8199
0.000125000 10.5603
0.000150000 10.3686
0.000200000 10.0997
0.000275000 9.84372
0.000350000 9.67528
0.000425000 9.55368
0.000500000 9.46059
0.000625000 9.34450
0.000750000 9.25880
0.00100000 9.13851
0.00125000 9.05642
0.00150000 8.99582
0.00200000 8.91076
0.00275000 8.82982
0.00350000 8.77656
0.00425000 8.73810
0.00500000 8.70867
0.00625000 8.67195
0.00750000 8.64485
0.0100000 8.60681
0.0125000 8.58084
0.0150000 8.56168
0.0200000 8.53477
0.0253000 8.51548
0.0314750 8.49948
0.0376500 8.48760
0.0500000 8.47082
0.0625000 8.45919
0.0750000 8.45060
0.100000 8.43854
0.125000 8.43029
0.150000 8.42419
0.200000 8.41561
0.275000 8.40740
0.350000 8.40196
0.500000 8.39495
0.750000 8.38819
1.00000 8.38400
1.50000 8.37873
2.00000 8.37528
2.75000 8.37158
3.50000 8.36876
5.00000 8.36433
7.50000 8.35851
10.0000 8.35351
15.0000 8.34447
20.0000 8.33601
27.5000 8.32376
35.0000 8.31178
50.0000 8.28815
75.0000 8.24903
100.000 8.20978
150.000 8.12984
200.000 8.04632
275.000 7.90779
350.000 7.73425
387.500 7.61816
425.000 7.45894
443.750 7.34918
462.500 7.20275
481.250 6.99126
490.625 6.84315
500.000 6.64732
506.346 6.47361
512.692 6.24926
519.038 5.94750
525.384 5.51920
528.557 5.23004
531.730 4.86534
534.903 4.39359
538.076 3.76854
539.663 3.38125
541.249 2.93981
542.836 2.46235
544.422 2.04383
545.215 1.95600
546.009 2.10203
546.207 2.20451
546.405 2.34642
546.604 2.53743
546.802 2.78985
547.000 3.11953
547.198 3.54709
547.397 4.09960
547.595 4.81316
547.793 5.73693
547.992 6.93669
548.190 8.50577
548.388 10.5763
548.587 13.3401
548.785 17.0838
548.983 22.2476
549.182 29.5326
549.380 40.1104
549.578 56.0085
549.777 81.0253
549.975 122.806
550.173 198.383
550.272 260.341
550.371 350.962
550.471 489.127
550.570 708.776
550.669 1073.63
550.768 1687.68
550.884 2809.38
551.000 3652.87
551.117 3038.63
551.233 1973.02
551.343 1293.52
551.452 889.308
551.562 644.578
551.671 489.057
551.890 312.308
552.110 220.143
552.329 166.016
552.548 131.436
552.986 91.0597
553.424 68.9904
553.863 55.4476
554.301 46.4397
554.739 40.0908
555.616 31.8403
556.492 26.7882
557.369 23.4146
558.245 21.0191
559.998 17.8676
561.751 15.9022
563.504 14.5668
565.257 13.6034
568.763 12.3103
572.269 11.4844
575.775 10.9122
579.281 10.4924
586.293 9.91761
593.305 9.54193
600.317 9.27647
607.329 9.07834
621.353 8.80076
635.377 8.61376
649.401 8.47763
663.425 8.37293
691.473 8.21953
719.521 8.10939
775.617 7.95370
831.712 7.84126
887.808 7.75083
1000.00 7.60432
1250.00 7.35139
1500.00 7.14421
2000.00 6.79649
2695.99 6.39326
3391.97 6.02880
3739.96 5.83674
3913.96 5.72810
4087.96 5.60044
4261.95 5.43334
4348.95 5.32009
4435.95 5.16767
4479.45 5.06666
4522.95 4.93863
4566.45 4.76830
4609.94 4.52638
4631.69 4.36110
4653.44 4.14867
4675.19 3.86452
4696.94 3.46396
4707.82 3.19517
4718.69 2.85795
4729.57 2.42459
4740.44 1.85505
4745.88 1.50440
4751.32 1.10620
4756.75 0.674500
4762.19 0.281865
4763.55 0.214124
4764.91 0.173068
4766.27 0.171811
4767.63 0.229768
4768.99 0.376178
4769.67 0.495675
4770.35 0.655445
4771.03 0.865582
4771.71 1.13766
4773.07 1.93609
4774.43 3.24184
4775.79 5.38579
4777.14 8.98269
4778.50 15.2420
4779.86 26.7552
4780.54 36.1235
4781.22 49.5657
4781.90 69.4091
4782.58 99.3854
4783.26 145.780
4783.94 217.515
4784.97 388.147
4786.00 538.098
4787.03 475.060
4788.06 326.223
4788.89 236.609
4789.72 176.937
4790.54 137.334
4791.37 110.283
4793.03 77.1501
4794.68 58.4585
4796.34 46.8338
4798.00 39.0588
4801.31 29.5116
4804.62 23.9879
4807.93 20.4436
4811.24 17.9976
4814.55 16.2191
4821.18 13.8202
4827.80 12.2871
4834.42 11.2276
4841.05 10.4536
4854.29 9.40085
4867.54 8.71954
4880.78 8.24280
4894.03 7.89041
4920.52 7.40350
4947.02 7.08185
4973.51 6.85232
5000.00 6.67937
5036.74 6.49841
5073.48 6.36130
5146.96 6.16347
5220.44 6.02296
5293.92 5.91373
5440.88 5.74281
5587.85 5.59727
5734.81 5.44602
5808.29 5.35572
5881.77 5.24194
5918.51 5.16933
5955.25 5.07908
5991.99 4.96073
6028.73 4.79393
6047.10 4.68002
6065.47 4.53310
6083.84 4.33498
6102.21 4.05131
6111.40 3.85735
6120.58 3.60897
6129.77 3.27973
6138.95 2.82396
6143.54 2.52506
6148.14 2.15969
6152.73 1.70889
6157.32 1.15830
6161.91 0.546806
6164.21 0.305483
6165.36 0.254654
6165.93 0.262869
6166.51 0.304021
6167.08 0.389702
6167.65 0.535236
6168.23 0.762354
6168.80 1.10147
6169.38 1.59606
6169.95 2.30948
6170.52 3.33610
6171.10 4.81995
6171.67 6.98734
6172.25 10.2056
6172.82 15.0941
6173.39 22.7419
6173.97 35.1542
6174.54 56.1884
6175.12 93.4272
6175.69 160.722
6176.35 290.972
6177.00 408.722
6177.66 365.187
6178.31 253.515
6178.78 191.814
6179.24 148.414
6179.71 118.206
6180.18 96.8246
6181.11 69.5640
6182.04 53.5984
6182.98 43.4245
6183.91 36.5045
6185.78 27.8676
6187.64 22.7978
6189.51 19.5130
6191.37 17.2323
6193.24 15.5658
6196.97 13.3078
6200.70 11.8585
6204.44 10.8542
6208.17 10.1191
6215.63 9.11762
6223.10 8.46892
6230.56 8.01498
6238.02 7.67963
6252.95 7.21713
6267.88 6.91279
6282.81 6.69677
6297.74 6.53507
6327.60 6.30795
6357.45 6.15469
6387.31 6.04314
6417.17 5.95745
6476.88 5.83231
6536.59 5.74302
6656.02 5.61820
6775.45 5.52951
6894.88 5.45918
7133.73 5.34690
7611.44 5.17223
8089.16 5.02430
9044.58 4.75326
10000.0 4.48024
11041.9 4.14241
11562.8 3.93952
12083.7 3.69481
12604.6 3.37746
12865.1 3.17234
13125.6 2.91503
13386.0 2.57070
13516.3 2.34394
13646.5 2.05635
13776.7 1.66839
13841.8 1.41322
13906.9 1.09466
13972.1 0.688136
14004.6 0.448850
14037.2 0.204356
14053.5 0.101329
14061.6 0.0642097
14069.7 0.0441708
14077.9 0.0504955
14086.0 0.0975357
14090.1 0.142960
14094.2 0.208006
14098.2 0.297780
14102.3 0.418899
14110.4 0.792586
14118.6 1.43876
14126.7 2.56060
14134.9 4.55907
14143.0 8.28970
14147.1 11.3473
14151.1 15.7561
14155.2 22.2678
14159.3 32.1252
14163.3 47.3478
14167.4 70.8226
14173.7 128.419
14180.0 180.372
14186.3 160.632
14192.6 111.038
14199.6 72.2352
14206.6 50.1056
14213.6 37.0957
14220.6 28.9590
14227.6 23.5327
14234.6 19.7346
14248.6 14.8534
14262.6 11.9121
14276.5 9.97206
14304.5 7.59301
14332.5 6.19250
14360.5 5.26216
14416.4 4.06995
14472.4 3.29114
14528.3 2.69561
14640.3 1.71742
14752.2 0.813087
14808.1 0.386867
14836.1 0.202261
14850.1 0.124839
14864.1 0.0625981
14878.1 0.0211696
14892.1 0.00846758
14899.1 0.0161530
14906.1 0.0353898
14913.1 0.0682887
14920.0 0.117198
14927.0 0.185179
14934.0 0.275533
14948.0 0.541531
14962.0 0.960744
14976.0 1.60053
14990.0 2.56517
15004.0 4.01563
15018.0 6.21022
15032.0 9.57392
15045.9 14.8243
15059.9 23.1944
15073.9 36.7870
15087.9 58.8759
15109.0 114.697
15130.0 171.210
15140.5 174.983
15151.1 160.963
15172.1 116.788
15191.0 85.4531
15209.8 64.7553
15228.7 51.1652
15247.5 41.9355
15285.3 30.6324
15323.0 24.2012
15360.7 20.1460
15398.4 17.3904
15473.9 13.9261
15549.3 11.8564
15624.7 10.4872
15700.2 9.51498
15775.6 8.78858
15926.5 7.77174
16077.3 7.08876
16228.2 6.59309
16379.1 6.21268
16680.8 5.65548
16982.6 5.25271
17586.1 4.66514
18189.5 4.20010
18793.0 3.76079
19396.5 3.27811
19698.3 2.99177
20000.0 2.64592
20262.4 2.25797
20393.5 2.01067
20524.7 1.70343
20655.9 1.29869
20721.5 1.03970
20787.1 0.728409
20852.6 0.364462
20885.4 0.182888
20901.8 0.106941
20918.2 0.0564724
20926.4 0.0476433
20934.6 0.0555700
20942.8 0.0867625
20951.0 0.150406
20959.2 0.259657
20967.4 0.433688
20975.6 0.700999
20983.8 1.10433
20992.0 1.71222
21000.2 2.63295
21008.4 4.04726
21016.6 6.26354
21024.8 9.84568
21033.0 15.8288
21041.2 26.1591
21049.4 44.1881
21059.7 82.7337
21070.0 119.512
21080.3 109.190
21090.6 77.2322
21102.6 50.4936
21114.5 35.3196
21126.5 26.4439
21138.5 20.8942
21150.4 17.1891
21162.4 14.5860
21186.3 11.2213
21210.3 9.17388
21234.2 7.80926
21282.0 6.11028
21329.9 5.08776
21377.7 4.39357
21473.5 3.47532
21569.2 2.84968
21664.9 2.35344
21856.3 1.50736
22047.7 0.709109
22143.4 0.334616
22191.3 0.173573
22215.2 0.106261
22239.2 0.0521339
22263.1 0.0158375
22287.0 0.00374005
22299.0 0.00935765
22310.9 0.0244829
22322.9 0.0507350
22334.9 0.0899463
22346.8 0.144402
22358.8 0.216638
22382.7 0.427776
22406.7 0.756466
22430.6 1.25039
22454.5 1.98048
22478.4 3.05231
22502.4 4.62725
22526.3 6.95487
22550.2 10.4319
22574.2 15.6821
22598.1 23.6721
22622.0 35.7713
22666.0 72.7288
22710.0 112.244
22732.0 116.214
22754.0 108.088
22798.0 79.9186
22848.2 54.9908
22898.4 40.1204
22948.5 31.1184
22998.7 25.3306
23048.9 21.3841
23099.0 18.5583
23199.4 14.8276
23299.7 12.4998
23400.1 10.9171
23600.8 8.90106
23801.4 7.65812
24002.1 6.79933
24403.5 5.64501
24804.9 4.84845
25206.3 4.21167
26009.0 3.10539
26811.8 1.97944
27213.1 1.36171
27614.5 0.719104
27815.2 0.414309
28015.9 0.160484
28116.2 0.0727448
28166.4 0.0443750
28216.6 0.0294556
28266.7 0.0309597
28316.9 0.0525096
28367.1 0.0985331
28417.3 0.174462
28467.4 0.287009
28517.6 0.444398
28567.8 0.656903
28617.9 0.937306
28718.3 1.76997
28818.6 3.12652
28919.0 5.30204
29019.3 8.76937
29119.7 14.2749
29220.0 22.9136
29315.0 35.1467
29410.0 51.8028
29600.0 86.4802
29695.0 92.6052
29790.0 88.8885
29980.0 69.5445
30000.0 67.4703
30000.0 8.70645
35000.0 8.44538
40000.0 8.23459
50000.0 7.91079
60000.0 7.66942
72000.0 7.44586
85000.0 7.25549
100000 7.07924
125000 6.85022
150000 6.67141
170000 6.55168
200000 6.39859
250000 6.19036
300000 6.01982
350000 5.87396
400000 5.74553
450000 5.63005
550000 5.42691
570379 5.38902
570400 5.38912
570400 5.40938
600000 5.31582
700000 5.03987
800000 4.79698
900000 4.58263
1.00000E+06 4.39365
1.12313E+06 4.20226
1.20000E+06 4.08278
1.40000E+06 3.85003
1.42883E+06 3.82614
1.42884E+06 3.82614
1.55995E+06 3.71749
1.55995E+06 3.71749
1.60000E+06 3.68431
1.80000E+06 3.57557
1.93649E+06 3.53351
1.93649E+06 3.53350
2.00000E+06 3.51393
2.04674E+06 3.50819
2.18464E+06 3.49128
2.18465E+06 3.49128
2.20000E+06 3.48939
2.23419E+06 3.48987
2.23420E+06 3.48987
2.31455E+06 3.49099
2.40000E+06 3.49220
2.48863E+06 3.50160
2.48863E+06 3.50160
2.51112E+06 3.50399
2.51113E+06 3.50398
2.53686E+06 3.50672
2.53686E+06 3.50672
2.58793E+06 3.51214
2.58793E+06 3.51214
2.60000E+06 3.51342
2.62552E+06 3.51786
2.62553E+06 3.51786
2.65886E+06 3.52366
2.65886E+06 3.52366
2.68977E+06 3.52904
2.72817E+06 3.53572
2.72817E+06 3.53572
2.76972E+06 3.54295
2.78431E+06 3.54549
2.80000E+06 3.54822
2.80559E+06 3.54919
2.87935E+06 3.56204
2.87935E+06 3.56204
2.93620E+06 3.57193
2.95859E+06 3.57582
2.95859E+06 3.57582
2.95981E+06 3.57604
3.00000E+06 3.58303
3.00155E+06 3.58332
3.00156E+06 3.58332
3.03378E+06 3.58929
3.04776E+06 3.59189
3.04776E+06 3.59189
3.08140E+06 3.59813
3.08140E+06 3.59813
3.09305E+06 3.60030
3.09306E+06 3.60030
3.11180E+06 3.60376
3.11180E+06 3.60376
3.13105E+06 3.60734
3.13105E+06 3.60734
3.17341E+06 3.61520
3.18324E+06 3.61702
3.20000E+06 3.62013
3.20806E+06 3.62163
3.20806E+06 3.62163
3.22448E+06 3.62468
3.23745E+06 3.62709
3.26683E+06 3.63254
3.26683E+06 3.63254
3.27474E+06 3.63400
3.31142E+06 3.64080
3.35631E+06 3.64913
3.50000E+06 3.67579
3.70000E+06 3.71289
4.00000E+06 3.75990
4.50000E+06 3.82578
5.00000E+06 3.87858
6.00000E+06 3.95343
6.30973E+06 3.96590
6.30973E+06 3.96590
6.48432E+06 3.97294
6.51188E+06 3.97405
6.51188E+06 3.97405
6.58869E+06 3.97714
6.59507E+06 3.97740
6.59507E+06 3.97740
6.68444E+06 3.98099
6.68444E+06 3.98099
6.88274E+06 3.98898
6.88274E+06 3.98898
6.99958E+06 3.99369
7.00000E+06 3.99370
7.10161E+06 3.99455
7.10161E+06 3.99455
7.60915E+06 3.99878
8.00000E+06 4.00203
9.00000E+06 3.97930
9.55356E+06 3.94993
9.55356E+06 3.94993
1.00000E+07 3.92624
1.10000E+07 3.84373
1.20000E+07 3.73269
1.21976E+07 3.70590
1.21976E+07 3.70590
1.30000E+07 3.59711
1.40000E+07 3.44590
1.49890E+07 3.29634
1.49890E+07 3.29633
1.50000E+07 3.29468
1.60000E+07 3.15231
1.61452E+07 3.13411
1.66052E+07 3.07643
1.70000E+07 3.02693
1.80000E+07 2.92094
1.90000E+07 2.83244
2.00000E+07 2.75695