Zr-91(n,g) ENDF/B-VII.1
Energy(eV) XS(b)
1.00000E-05 61.1523
1.25000E-05 54.6963
1.50000E-05 49.9307
2.00000E-05 43.2412
2.75000E-05 36.8763
3.50000E-05 32.6873
4.25000E-05 29.6632
5.00000E-05 27.3482
6.25000E-05 24.4609
7.50000E-05 22.3297
0.000100000 19.3381
0.000125000 17.2965
0.000150000 15.7895
0.000200000 13.6741
0.000275000 11.6613
0.000350000 10.3366
0.000425000 9.38033
0.000500000 8.64823
0.000625000 7.73521
0.000750000 7.06124
0.00100000 6.11521
0.00125000 5.46961
0.00150000 4.99304
0.00200000 4.32409
0.00275000 3.68759
0.00350000 3.26869
0.00425000 2.96628
0.00500000 2.73476
0.00625000 2.44604
0.00750000 2.23290
0.0100000 1.93373
0.0125000 1.72957
0.0150000 1.57886
0.0200000 1.36730
0.0253000 1.21566
0.0314750 1.08988
0.0376500 0.996479
0.0500000 0.864659
0.0625000 0.773338
0.0750000 0.705924
0.100000 0.611289
0.125000 0.546701
0.150000 0.499020
0.200000 0.432081
0.275000 0.368375
0.350000 0.326436
0.500000 0.272960
0.750000 0.222659
1.00000 0.192645
1.50000 0.156997
2.00000 0.135708
2.75000 0.115409
3.50000 0.102016
5.00000 0.0848866
7.50000 0.0686948
10.0000 0.0589796
15.0000 0.0473697
20.0000 0.0403965
27.5000 0.0337327
35.0000 0.0293513
50.0000 0.0238480
75.0000 0.0190236
100.000 0.0167461
129.637 0.0162865
144.456 0.0175793
151.865 0.0200536
153.717 0.0217739
155.569 0.0258303
156.496 0.0308908
156.959 0.0356896
157.422 0.0440986
157.885 0.0611131
158.116 0.0771409
158.348 0.104608
158.580 0.157714
158.695 0.205067
158.811 0.281272
158.927 0.415087
159.043 0.679082
159.100 0.916297
159.158 1.29420
159.216 1.92607
159.274 3.00053
159.337 4.78792
159.400 5.97976
159.463 4.78986
159.526 3.00301
159.569 2.14754
159.613 1.57326
159.656 1.18718
159.699 0.921863
159.785 0.597842
159.872 0.418945
159.958 0.310920
160.045 0.241288
160.218 0.160235
160.391 0.116893
160.563 0.0911262
160.909 0.0634232
161.255 0.0497200
161.601 0.0420267
162.292 0.0343158
163.676 0.0293512
165.059 0.0285964
167.825 0.0312868
170.592 0.0385095
173.358 0.0548149
174.741 0.0712198
176.124 0.101248
176.816 0.126621
177.508 0.165466
178.199 0.229328
178.891 0.345390
179.237 0.442804
179.582 0.590955
179.928 0.832284
180.274 1.26495
180.447 1.62315
180.620 2.16058
180.793 3.01990
180.966 4.51944
181.138 7.49271
181.225 10.2169
181.311 14.7253
181.398 22.9840
181.441 29.9195
181.484 40.4224
181.527 57.2851
181.571 86.3773
181.614 140.828
181.657 248.266
181.694 395.982
181.730 493.959
181.767 396.044
181.803 248.351
181.839 154.919
181.874 101.792
181.910 70.6627
181.945 51.5110
181.981 39.0054
182.016 30.4986
182.087 20.0235
182.159 14.1118
182.230 10.4667
182.372 6.40736
182.514 4.31976
182.656 3.10915
182.798 2.34569
182.940 1.83399
183.225 1.21141
183.509 0.861977
183.793 0.646426
184.078 0.504181
184.646 0.334037
185.215 0.240074
185.784 0.182764
186.352 0.145276
187.490 0.100857
188.627 0.0765919
190.902 0.0524762
193.176 0.0414874
195.451 0.0357465
200.000 0.0306977
209.991 0.0297108
219.982 0.0346270
224.977 0.0399339
229.972 0.0508147
232.470 0.0630109
233.719 0.0741386
234.968 0.0934171
236.217 0.132781
236.841 0.170777
237.465 0.238259
238.090 0.376914
238.402 0.509349
238.714 0.739681
239.026 1.19449
239.183 1.60926
239.339 2.29373
239.495 3.53865
239.573 4.57974
239.651 6.14524
239.729 8.64216
239.807 12.8962
239.885 20.7402
239.963 35.8686
240.032 57.3426
240.100 71.6541
240.169 57.3579
240.237 35.8885
240.288 24.9886
240.338 17.8772
240.389 13.2273
240.439 10.1024
240.541 6.37729
240.642 4.36599
240.743 3.16956
240.844 2.40611
241.046 1.52615
241.249 1.05973
241.451 0.783844
241.856 0.488136
242.260 0.341737
242.665 0.258985
243.474 0.174203
244.283 0.134384
245.092 0.113035
246.711 0.0932510
249.948 0.0845311
253.184 0.0889326
259.658 0.115589
266.132 0.170679
269.368 0.217955
272.605 0.290446
275.842 0.409442
279.079 0.624937
280.697 0.805168
282.316 1.07841
283.934 1.52176
285.552 2.31261
286.362 2.96433
287.171 3.93803
287.980 5.48646
288.789 8.16834
289.194 10.3135
289.598 13.4261
290.003 18.1832
290.408 25.9664
290.812 39.9424
291.015 51.4684
291.217 68.5969
291.419 95.3965
291.621 139.973
291.824 219.116
292.026 364.681
292.218 582.841
292.410 727.666
292.602 581.947
292.794 363.803
292.947 246.270
293.100 172.204
293.253 125.143
293.405 94.2569
293.711 58.2822
294.017 39.2847
294.323 28.1663
294.628 21.1395
295.240 13.1277
295.851 8.92213
296.462 6.45010
297.074 4.87677
297.685 3.81471
298.908 2.51525
300.131 1.78131
301.354 1.32695
302.576 1.02643
305.022 0.666349
307.468 0.467205
309.913 0.345716
312.359 0.266233
317.250 0.172069
322.141 0.120595
327.032 0.0894555
331.924 0.0692122
341.706 0.0453953
351.488 0.0324752
361.271 0.0247098
371.053 0.0196975
390.618 0.0139032
410.183 0.0110278
429.748 0.0107025
434.639 0.0119437
439.530 0.0161204
441.976 0.0221798
443.198 0.0282794
444.421 0.0394232
445.033 0.0488001
445.644 0.0630793
446.255 0.0863618
446.867 0.128137
447.172 0.162738
447.478 0.214672
447.784 0.297746
448.090 0.442796
448.395 0.730647
448.548 0.994551
448.701 1.43198
448.854 2.23420
448.930 2.90939
449.007 3.93388
449.083 5.58329
449.159 8.44078
449.236 13.8240
449.312 24.5524
449.376 39.2775
449.440 49.0944
449.504 39.2827
449.568 24.5591
449.617 16.8237
449.666 11.8756
449.716 8.69496
449.765 6.58940
449.863 4.10970
449.962 2.78705
450.060 2.00781
450.159 1.51303
450.356 0.946278
450.553 0.647415
450.750 0.471180
450.947 0.358743
451.144 0.282693
451.538 0.189431
451.932 0.136612
452.326 0.103837
452.720 0.0821128
453.508 0.0560069
454.296 0.0415101
455.872 0.0267935
457.448 0.0198320
459.024 0.0159840
462.176 0.0120694
468.480 0.00913016
474.784 0.00800321
500.000 0.00673200
545.237 0.00709128
567.856 0.00821189
590.475 0.0105898
613.093 0.0159955
624.403 0.0214876
635.712 0.0315787
641.367 0.0401166
647.021 0.0531935
652.676 0.0747001
658.330 0.113811
661.158 0.146673
663.985 0.196718
666.812 0.278420
669.640 0.425464
671.053 0.547723
672.467 0.731983
673.881 1.02850
675.294 1.55091
676.001 1.97606
676.708 2.60325
677.415 3.58358
678.122 5.23949
678.475 6.53160
678.829 8.36137
679.182 11.0693
679.535 15.3060
679.889 22.4293
680.242 35.5921
680.419 46.6172
680.596 62.9986
680.772 88.0060
680.949 126.259
681.190 201.964
681.430 252.348
681.671 201.793
681.911 126.092
682.117 82.9944
682.322 56.7578
682.528 40.5836
682.734 30.1980
683.145 18.3747
683.557 12.2641
683.968 8.73524
684.379 6.52572
685.202 4.02871
686.025 2.72846
686.848 1.96820
687.670 1.48602
688.493 1.16134
690.138 0.765042
691.784 0.541737
693.429 0.403701
695.075 0.312494
698.366 0.203291
701.657 0.142929
704.948 0.106109
708.239 0.0820171
714.821 0.0534634
721.402 0.0378422
727.984 0.0283838
734.566 0.0222304
747.730 0.0149865
760.894 0.0110612
787.221 0.00722625
813.549 0.00563693
839.877 0.00532946
853.040 0.00595440
859.622 0.00677699
866.204 0.00841975
872.786 0.0121136
876.077 0.0158746
879.368 0.0228119
881.014 0.0287006
882.659 0.0377425
884.305 0.0526511
885.950 0.0798345
886.773 0.102721
887.595 0.137619
888.418 0.194677
889.241 0.297523
889.652 0.383142
890.064 0.512299
890.475 0.720357
890.886 1.08727
891.092 1.38619
891.298 1.82760
891.503 2.51828
891.709 3.68584
891.915 5.89164
892.018 7.80994
892.120 10.8140
892.223 15.8835
892.326 25.2791
892.378 33.1785
892.429 44.9581
892.480 63.0231
892.532 90.8025
892.601 145.337
892.670 181.629
892.739 145.260
892.808 90.8128
892.861 62.6019
892.913 44.4396
892.965 32.6565
893.018 24.8135
893.122 15.5273
893.227 10.5479
893.332 7.60439
893.437 5.73096
893.646 3.58096
893.855 2.44417
894.065 1.77322
894.274 1.34454
894.483 1.05455
894.902 0.698531
895.321 0.496857
895.739 0.371682
896.158 0.288706
896.996 0.189008
897.833 0.133691
898.670 0.0998418
899.508 0.0776337
901.183 0.0512232
902.858 0.0367121
904.533 0.0278897
906.207 0.0221264
909.557 0.0152972
912.907 0.0115532
919.606 0.00778589
926.306 0.00601050
933.005 0.00502673
946.404 0.00401807
973.202 0.00325459
1000.00 0.00298017
1065.76 0.00287670
1131.53 0.00315703
1197.29 0.00382559
1263.05 0.00517535
1328.81 0.00813103
1361.69 0.0110616
1394.58 0.0163365
1411.02 0.0207190
1427.46 0.0273197
1443.90 0.0379370
1460.34 0.0566447
1468.56 0.0718795
1476.78 0.0943788
1485.00 0.129611
1493.22 0.189307
1497.33 0.236044
1501.44 0.302458
1505.55 0.401209
1509.66 0.556742
1513.77 0.820834
1515.83 1.02669
1517.88 1.31640
1519.94 1.73820
1521.99 2.37493
1524.05 3.36713
1526.10 4.92373
1531.40 11.0327
1531.79 11.9444
1532.17 14.1569
1532.37 16.7652
1532.56 22.4415
1532.66 28.0919
1532.75 37.9253
1532.85 56.7270
1532.94 94.8912
1533.02 146.958
1533.10 181.111
1533.18 146.092
1533.26 94.5863
1533.31 69.7785
1533.37 53.1004
1533.47 34.1814
1533.58 24.7420
1533.69 19.5136
1533.90 14.1629
1534.12 11.5814
1534.55 9.08093
1534.98 7.77988
1536.70 5.13084
1538.33 3.70682
1539.96 2.76036
1543.21 1.65675
1546.47 1.08523
1549.72 0.759655
1552.98 0.559117
1556.23 0.427721
1562.74 0.272581
1569.25 0.188402
1575.76 0.137854
1588.78 0.0829255
1601.80 0.0553771
1614.82 0.0396658
1627.84 0.0298838
1640.86 0.0233954
1666.90 0.0156231
1692.94 0.0113631
1718.98 0.00882705
1745.02 0.00725512
1797.10 0.00578822
1823.15 0.00571407
1849.19 0.00621669
1875.23 0.00785671
1888.25 0.00964177
1901.27 0.0129591
1914.29 0.0200416
1920.80 0.0270478
1927.31 0.0397427
1930.56 0.0503964
1933.82 0.0666323
1937.07 0.0932089
1940.33 0.141316
1941.95 0.181603
1943.58 0.242728
1945.21 0.342190
1946.84 0.520081
1947.65 0.667233
1948.46 0.887790
1949.28 1.24002
1950.09 1.85268
1950.91 3.06549
1951.31 4.17300
1951.72 6.00298
1952.13 9.33755
1952.33 12.1375
1952.53 16.3403
1952.74 23.0865
1952.94 34.5804
1953.14 55.8278
1953.35 97.0988
1953.52 155.532
1953.70 194.549
1953.88 155.517
1954.05 97.0939
1954.22 60.8171
1954.39 40.0586
1954.56 27.8861
1954.73 20.3889
1954.90 15.4617
1955.07 12.1120
1955.41 7.96845
1955.75 5.62371
1956.09 4.17529
1956.77 2.55871
1957.45 1.72589
1958.12 1.24336
1958.80 0.938860
1959.48 0.734591
1960.84 0.486141
1962.19 0.346900
1963.55 0.261130
1964.91 0.204765
1967.62 0.137872
1970.33 0.101691
1973.05 0.0805180
1975.76 0.0677484
1981.18 0.0568082
1986.61 0.0611891
1989.32 0.0726663
1992.04 0.102782
1993.39 0.140104
1994.07 0.174952
1994.75 0.235496
1995.43 0.357698
1995.77 0.473428
1996.10 0.674094
1996.44 1.07049
1996.61 1.43448
1996.78 2.03447
1996.95 3.14188
1997.04 4.07750
1997.12 5.48138
1997.21 7.77268
1997.29 11.7667
1997.38 19.3592
1997.42 25.6019
1997.46 34.4231
1997.53 55.0952
1997.60 68.9068
1997.67 55.0976
1997.74 34.4276
1997.81 21.0670
1997.88 13.6557
1997.95 9.41461
1998.02 6.86466
1998.09 5.19355
1998.16 4.07647
1998.31 2.70007
1998.45 1.92414
1998.59 1.45224
1998.87 0.929647
1999.15 0.663149
1999.44 0.511424
2000.00 0.356396
2000.75 0.273687
2001.49 0.244326
2002.99 0.250842
2004.48 0.312633
2005.97 0.446280
2006.72 0.561393
2007.47 0.735532
2008.21 1.01502
2008.96 1.50058
2009.71 2.45614
2010.08 3.32038
2010.45 4.73422
2010.82 7.27135
2011.01 9.36866
2011.20 12.4657
2011.38 17.3316
2011.57 25.3660
2011.76 39.6729
2011.94 65.7655
2012.12 105.444
2012.30 131.733
2012.48 105.189
2012.66 65.7552
2012.84 40.0817
2013.02 25.9366
2013.20 17.8022
2013.38 12.8864
2013.57 9.70219
2013.75 7.55912
2014.11 4.94219
2014.47 3.47161
2014.83 2.56967
2015.56 1.57056
2016.29 1.05851
2017.01 0.762655
2017.74 0.576254
2018.46 0.451297
2019.91 0.299292
2021.36 0.213932
2022.81 0.161151
2024.26 0.126261
2027.16 0.0843320
2030.06 0.0609903
2032.97 0.0466223
2035.87 0.0371217
2041.67 0.0256708
2047.47 0.0192446
2059.08 0.0125755
2070.68 0.00930870
2082.28 0.00744690
2105.49 0.00550568
2128.70 0.00459101
2151.91 0.00413552
2198.33 0.00392192
2244.75 0.00436311
2291.17 0.00571777
2314.37 0.00715781
2337.58 0.0101007
2349.19 0.0132434
2354.99 0.0159916
2360.79 0.0206048
2366.60 0.0297976
2369.50 0.0386082
2372.40 0.0543426
2375.30 0.0873399
2376.75 0.119788
2378.20 0.178231
2378.93 0.227042
2379.65 0.300788
2380.38 0.420103
2381.10 0.632062
2381.46 0.806276
2381.83 1.06561
2382.19 1.47588
2382.55 2.17839
2382.91 3.54071
2383.10 4.75180
2383.28 6.69998
2383.46 10.1361
2383.64 16.8761
2383.73 22.9518
2383.82 32.4940
2383.91 48.5673
2384.00 75.5247
2384.10 121.161
2384.20 151.212
2384.30 120.670
2384.40 75.5242
2384.49 49.4925
2384.57 33.7361
2384.66 24.0681
2384.74 17.9398
2384.91 10.9188
2385.08 7.29190
2385.26 5.18903
2385.43 3.88173
2385.77 2.40357
2386.11 1.63188
2386.45 1.18204
2386.80 0.895910
2387.14 0.703826
2387.82 0.469005
2388.51 0.336722
2389.19 0.254993
2389.88 0.201034
2391.25 0.136569
2392.62 0.101114
2395.36 0.0658197
2398.10 0.0498684
2400.84 0.0417483
2406.32 0.0352917
2417.28 0.0370147
2428.24 0.0496209
2439.19 0.0789295
2444.67 0.107211
2450.15 0.155885
2452.89 0.194441
2455.63 0.249792
2458.37 0.333136
2461.11 0.466568
2462.48 0.565386
2463.85 0.698715
2465.22 0.884038
2466.59 1.15056
2467.96 1.55036
2469.33 2.17747
2470.70 3.20448
2472.07 4.90915
2473.64 7.84866
2475.20 9.80183
2476.77 7.83597
2478.33 4.89692
2479.28 3.62786
2480.23 2.73322
2482.13 1.65963
2484.04 1.09427
2485.94 0.769798
2487.84 0.568887
2489.74 0.436845
2493.54 0.280522
2497.35 0.195451
2501.15 0.144301
2508.76 0.0886743
2516.36 0.0608138
2523.97 0.0450091
2539.18 0.0289356
2554.40 0.0217228
2569.61 0.0183605
2600.04 0.0174480
2630.46 0.0229878
2645.68 0.0298026
2660.89 0.0425591
2676.10 0.0691791
2683.71 0.0945275
2691.31 0.138186
2698.92 0.222927
2702.72 0.298754
2706.53 0.421402
2710.33 0.638076
2712.23 0.813840
2714.13 1.07071
2716.04 1.46422
2717.94 2.09919
2719.84 3.18123
2721.74 5.06731
2723.72 8.09500
2725.70 10.1046
2727.68 8.08192
2729.66 5.05687
2731.33 3.35421
2733.00 2.31062
2734.67 1.66417
2736.34 1.24818
2739.67 0.776036
2743.01 0.537727
2746.35 0.411726
2749.69 0.359464
2751.36 0.366485
2753.02 0.425239
2753.86 0.509434
2754.69 0.724958
2755.11 0.991627
2755.32 1.23662
2755.53 1.64460
2755.74 2.41274
2755.84 3.07480
2755.94 4.10981
2756.05 5.87327
2756.15 9.12082
2756.21 11.8534
2756.26 15.9327
2756.31 22.1975
2756.36 31.8453
2756.43 50.7714
2756.50 63.1221
2756.57 50.4951
2756.64 31.8681
2756.69 23.1436
2756.73 17.2893
2756.82 10.4602
2756.91 6.94097
2757.00 4.98908
2757.09 3.78878
2757.18 3.02041
2757.36 2.12338
2757.54 1.65235
2757.73 1.38325
2758.09 1.12739
2758.81 1.06356
2759.53 1.29879
2760.26 1.90298
2760.62 2.47461
2760.98 3.41279
2761.34 5.09217
2761.70 8.47550
2761.89 11.5706
2762.07 16.5933
2762.25 25.2026
2762.43 40.2249
2762.61 64.3865
2762.80 80.3933
2762.99 64.2320
2763.17 40.2067
2763.37 24.3895
2763.56 15.7450
2763.75 10.8073
2763.94 7.83572
2764.14 5.91731
2764.33 4.62843
2764.71 3.05442
2765.10 2.17382
2765.48 1.63345
2766.25 1.03291
2767.02 0.723941
2767.79 0.543752
2769.33 0.351384
2770.87 0.254752
2772.41 0.198513
2775.49 0.137178
2778.57 0.104808
2781.65 0.0847940
2787.81 0.0611113
2800.12 0.0382884
2812.44 0.0270325
2824.76 0.0203725
2837.07 0.0160330
2861.71 0.0108451
2886.34 0.00795916
2910.97 0.00619293
2960.24 0.00429041
3009.50 0.00353364
3034.14 0.00350213
3058.77 0.00382156
3083.40 0.00489375
3095.72 0.00610010
3108.03 0.00840346
3114.19 0.0103891
3120.35 0.0134604
3126.51 0.0185546
3132.67 0.0278919
3135.75 0.0357812
3138.82 0.0478490
3141.90 0.0676532
3144.98 0.103533
3146.52 0.133560
3148.06 0.179045
3149.60 0.252849
3151.14 0.384208
3151.91 0.492304
3152.68 0.653463
3153.45 0.908937
3154.22 1.34848
3154.99 2.20384
3155.37 2.97061
3155.76 4.21246
3156.14 6.40840
3156.34 8.19650
3156.53 10.7988
3156.72 14.8062
3156.91 21.2441
3157.11 32.1954
3157.30 51.2705
3157.50 82.0962
3157.70 102.664
3157.90 82.0815
3158.10 51.2614
3158.32 30.0561
3158.55 18.9087
3158.77 12.7553
3158.99 9.10681
3159.21 6.79757
3159.43 5.25468
3159.87 3.39720
3160.31 2.36822
3160.76 1.74401
3161.64 1.05708
3162.53 0.707864
3163.41 0.507096
3164.29 0.381107
3165.18 0.296919
3166.95 0.194908
3168.71 0.137885
3170.48 0.102785
3172.25 0.0796801
3175.79 0.0520894
3179.33 0.0368733
3182.86 0.0275996
3186.40 0.0215312
3193.47 0.0143295
3200.55 0.0103774
3207.62 0.00797313
3214.70 0.00639944
3228.85 0.00452624
3242.99 0.00349017
3271.29 0.00243116
3299.59 0.00192089
3327.88 0.00163543
3384.48 0.00136052
3441.07 0.00129773
3497.66 0.00146327
3525.96 0.00174849
3554.26 0.00249929
3568.41 0.00343323
3582.56 0.00578588
3589.63 0.00876637
3596.70 0.0166190
3600.24 0.0270039
3602.01 0.0371225
3603.78 0.0552381
3605.55 0.0930129
3606.43 0.129666
3607.31 0.194627
3607.76 0.247985
3608.20 0.327117
3608.64 0.452023
3609.08 0.666044
3609.53 1.07857
3609.75 1.44505
3609.97 2.03292
3610.19 3.05790
3610.41 5.06160
3610.52 6.85120
3610.63 9.64427
3610.74 14.2864
3610.85 21.9773
3610.98 35.1848
3611.10 43.8814
3611.23 35.0700
3611.35 21.8883
3611.47 13.6098
3611.59 8.91666
3611.72 6.18472
3611.84 4.51401
3611.96 3.41714
3612.08 2.67508
3612.32 1.75829
3612.57 1.24085
3612.81 0.921781
3613.30 0.566312
3613.78 0.383467
3614.27 0.277786
3615.24 0.166652
3616.21 0.112658
3617.19 0.0826680
3619.13 0.0527381
3621.08 0.0396225
3623.02 0.0337161
3626.91 0.0328635
3630.80 0.0448438
3632.75 0.0593842
3634.69 0.0870214
3635.66 0.110576
3636.64 0.146531
3637.61 0.205260
3638.58 0.310330
3639.07 0.397295
3639.55 0.527158
3640.04 0.733877
3640.53 1.09221
3641.01 1.79521
3641.25 2.43149
3641.50 3.47271
3641.74 5.34249
3641.86 6.89201
3641.98 9.17538
3642.11 12.7775
3642.23 18.7167
3642.35 29.3445
3642.47 48.7072
3642.59 77.9858
3642.70 97.2452
3642.82 77.7117
3642.93 48.4942
3643.04 30.7843
3643.15 20.5538
3643.25 14.4478
3643.36 10.6193
3643.58 6.35986
3643.79 4.20464
3644.00 2.97684
3644.22 2.21494
3644.65 1.36092
3645.07 0.918878
3645.50 0.662328
3645.93 0.500093
3646.36 0.391070
3647.22 0.258131
3648.07 0.183429
3648.93 0.137266
3649.78 0.106754
3651.50 0.0701696
3653.21 0.0499034
3656.63 0.0293648
3660.06 0.0196546
3663.49 0.0142947
3670.34 0.00886558
3684.04 0.00489296
3697.74 0.00350042
3711.44 0.00290288
3725.14 0.00265328
3752.55 0.00271621
3779.95 0.00350639
3793.65 0.00441185
3807.36 0.00611189
3814.21 0.00755780
3821.06 0.00977461
3827.91 0.0134200
3834.76 0.0200449
3838.19 0.0256076
3841.61 0.0340703
3845.04 0.0478761
3848.46 0.0726765
3850.17 0.0932671
3851.89 0.124248
3853.60 0.173985
3855.31 0.261239
3856.17 0.332051
3857.03 0.436020
3857.88 0.597660
3858.74 0.868590
3859.59 1.37401
3860.02 1.80663
3860.45 2.47472
3860.88 3.57729
3861.09 4.41286
3861.31 5.55826
3861.52 7.17104
3861.73 9.50341
3861.95 12.9464
3862.16 18.0179
3862.48 28.8320
3862.80 36.0408
3863.12 28.8262
3863.44 18.0123
3863.72 11.7318
3864.00 7.96881
3864.28 5.67039
3864.56 4.20467
3865.11 2.54510
3865.67 1.69454
3866.23 1.20464
3866.79 0.899318
3867.91 0.554974
3869.02 0.375916
3870.14 0.271444
3871.26 0.205183
3872.37 0.160635
3874.61 0.106251
3876.84 0.0756413
3879.07 0.0567281
3881.30 0.0442365
3885.77 0.0292924
3890.24 0.0210521
3894.70 0.0160439
3899.17 0.0127881
3908.10 0.00899096
3917.04 0.00700684
3934.90 0.00537373
3952.77 0.00544219
3961.70 0.00617727
3970.63 0.00783008
3979.57 0.0116606
3988.50 0.0227896
3992.97 0.0382710
3995.20 0.0536788
3997.43 0.0816835
3999.67 0.140963
4000.78 0.199227
4001.90 0.303577
4002.46 0.390129
4003.02 0.519784
4003.58 0.727080
4004.13 1.08881
4004.69 1.80797
4004.97 2.46595
4005.25 3.55682
4005.53 5.55481
4005.67 7.24379
4005.81 9.78697
4005.95 13.9097
4006.09 20.9945
4006.23 34.4274
4006.37 60.9587
4006.48 97.5499
4006.60 121.949
4006.72 97.5469
4006.83 60.9577
4006.97 35.3720
4007.10 22.0476
4007.23 14.7798
4007.36 10.5317
4007.49 7.83424
4007.62 6.05171
4007.89 3.90308
4008.15 2.71531
4008.41 1.99768
4008.94 1.20942
4009.47 0.809176
4009.99 0.579546
4010.52 0.435330
4011.05 0.339233
4012.10 0.222814
4013.15 0.157754
4015.26 0.0914485
4017.36 0.0600308
4019.47 0.0427222
4023.68 0.0253032
4032.10 0.0127037
4040.53 0.00827774
4057.37 0.00519476
4074.22 0.00426018
4107.91 0.00408237
4141.60 0.00491976
4175.29 0.00687836
4192.14 0.00860829
4208.99 0.0113024
4225.83 0.0158672
4242.68 0.0249982
4251.10 0.0342570
4255.31 0.0419506
4259.52 0.0542391
4263.74 0.0773328
4265.84 0.0985148
4267.95 0.135092
4270.05 0.209100
4271.11 0.279715
4272.16 0.403343
4273.21 0.652377
4273.74 0.885365
4274.26 1.28019
4274.79 2.03281
4275.05 2.69128
4275.32 3.73242
4275.58 5.51007
4275.71 6.90945
4275.84 8.87363
4275.98 11.7741
4276.11 16.1544
4276.24 23.1025
4276.37 34.0281
4276.54 54.4713
4276.70 67.9856
4276.87 54.3361
4277.03 34.0249
4277.21 20.1368
4277.39 12.7657
4277.57 8.66396
4277.75 6.21851
4277.93 4.66483
4278.11 3.62396
4278.46 2.36767
4278.82 1.66997
4279.18 1.24661
4279.90 0.780803
4280.61 0.544603
4281.33 0.409647
4282.76 0.270443
4284.20 0.205611
4285.63 0.172010
4288.49 0.144938
4294.23 0.152376
4299.96 0.206057
4305.69 0.328809
4308.55 0.444652
4311.42 0.638730
4314.28 0.997553
4315.72 1.30174
4317.15 1.76569
4318.58 2.51906
4320.02 3.83923
4321.45 6.36921
4322.16 8.49454
4322.88 11.5309
4324.04 18.4858
4325.20 23.1296
4326.36 18.4711
4327.52 11.5214
4328.34 8.12726
4329.16 5.87881
4329.98 4.38595
4330.80 3.37012
4332.44 2.14263
4334.08 1.47113
4335.72 1.06843
4337.36 0.809800
4340.64 0.510016
4343.92 0.350075
4347.21 0.255047
4350.49 0.194085
4353.77 0.152686
4360.33 0.101662
4366.89 0.0726192
4373.45 0.0545249
4380.01 0.0424919
4393.13 0.0279776
4406.26 0.0198860
4419.38 0.0149165
4432.50 0.0116470
4458.75 0.00775000
4484.99 0.00561136
4511.24 0.00432391
4537.48 0.00350514
4589.97 0.00265021
4642.47 0.00257573
4668.71 0.00306255
4694.96 0.00482647
4708.08 0.00742018
4721.20 0.0148717
4727.76 0.0252189
4731.04 0.0355160
4734.32 0.0542208
4737.61 0.0937831
4739.25 0.132621
4740.89 0.202185
4741.71 0.259807
4742.53 0.346109
4743.35 0.483963
4744.17 0.724195
4744.99 1.19955
4745.40 1.63385
4745.81 2.35183
4746.22 3.66118
4746.42 4.75831
4746.63 6.41478
4746.83 9.06349
4747.04 13.6075
4747.24 22.0454
4747.45 38.5363
4747.62 61.7203
4747.80 77.1995
4747.98 61.7157
4748.15 38.5338
4748.27 28.1115
4748.38 20.9549
4748.60 12.5018
4748.83 8.14670
4749.05 5.69025
4749.28 4.17664
4749.50 3.18883
4749.95 2.02883
4750.40 1.39982
4750.85 1.02355
4751.75 0.614780
4752.65 0.409442
4753.55 0.292276
4754.45 0.219067
4755.34 0.170397
4757.14 0.111624
4758.94 0.0789035
4762.53 0.0456313
4766.13 0.0299063
4769.72 0.0212546
4776.91 0.0125480
4791.29 0.00623628
4805.66 0.00399771
4834.42 0.00239404
4863.17 0.00187684
4891.93 0.00176720
4920.68 0.00211341
4935.06 0.00276274
4942.25 0.00344325
4949.44 0.00470902
4956.63 0.00744308
4960.22 0.0101756
4963.82 0.0151561
4965.62 0.0193501
4967.41 0.0257411
4969.21 0.0361857
4971.01 0.0550020
4971.91 0.0706672
4972.80 0.0942609
4973.70 0.132290
4974.60 0.199247
4975.50 0.334336
4975.95 0.460097
4976.40 0.672507
4976.85 1.07404
4977.07 1.42276
4977.30 1.96585
4977.52 2.88307
4977.63 3.58793
4977.75 4.56972
4977.86 5.99556
4977.97 8.09638
4978.08 11.2992
4978.19 16.1911
4978.35 25.9045
4978.50 32.3792
4978.65 25.9027
4978.81 16.1892
4978.97 9.58183
4979.14 6.05584
4979.30 4.09734
4979.47 2.93678
4979.64 2.19475
4979.80 1.70058
4980.13 1.10180
4980.46 0.769013
4980.79 0.566961
4981.46 0.344236
4982.12 0.230806
4982.78 0.165565
4983.44 0.124598
4984.11 0.0972119
4985.43 0.0640101
4986.75 0.0454492
4988.08 0.0340209
4989.40 0.0264996
4992.05 0.0175159
4994.70 0.0125657
4997.35 0.00955032
5000.00 0.00757857
5004.92 0.00536371
5009.84 0.00410703
5019.68 0.00280784
5029.52 0.00218575
5039.36 0.00184237
5059.03 0.00150276
5078.71 0.00135720
5118.07 0.00127907
5157.42 0.00133234
5236.14 0.00175710
5275.49 0.00235343
5285.33 0.00270187
5295.17 0.00347051
5305.01 0.00693757
5309.93 0.0197517
5311.16 0.0324864
5312.39 0.0671144
5313.00 0.112648
5313.62 0.230763
5313.93 0.377192
5314.23 0.722580
5314.39 1.10495
5314.54 1.87240
5314.62 2.58313
5314.69 3.74707
5314.77 5.76797
5314.85 9.31549
5314.92 14.9037
5315.00 18.6294
5315.08 14.9037
5315.15 9.31561
5315.20 6.76396
5315.25 5.03804
5315.35 2.99502
5315.45 1.94765
5315.55 1.35682
5315.75 0.760138
5315.95 0.483606
5316.34 0.244846
5316.74 0.148031
5317.53 0.0715925
5318.32 0.0427876
5321.49 0.0133604
5327.82 0.00570695
5340.48 0.00405726
5365.81 0.00454307
5391.13 0.00605883
5416.46 0.00887945
5429.12 0.0112056
5441.78 0.0146644
5454.45 0.0201222
5467.11 0.0294681
5479.77 0.0474762
5486.10 0.0634805
5492.44 0.0891721
5498.77 0.134053
5501.93 0.170045
5505.10 0.222072
5508.26 0.300569
5511.43 0.424685
5514.60 0.630306
5517.76 0.976541
5521.28 1.56103
5524.80 1.94934
5528.32 1.55857
5531.84 0.974290
5535.01 0.628642
5538.17 0.423648
5541.34 0.299938
5544.50 0.221780
5550.83 0.134268
5557.16 0.0898368
5563.49 0.0646009
5569.82 0.0491228
5582.48 0.0326258
5595.14 0.0263048
5601.47 0.0261949
5607.80 0.0291316
5614.13 0.0384894
5617.30 0.0487654
5620.46 0.0679662
5623.63 0.108778
5625.21 0.148518
5626.79 0.218550
5628.37 0.359367
5629.17 0.489923
5629.96 0.709217
5630.75 1.11953
5631.14 1.47223
5631.54 2.01704
5631.94 2.92203
5632.33 4.55311
5632.53 5.89184
5632.73 7.83920
5632.92 10.7342
5633.12 15.0052
5633.41 24.0214
5633.70 30.0029
5633.99 23.9842
5634.28 15.0025
5634.46 10.9483
5634.65 8.14298
5635.02 4.85327
5635.39 3.16186
5635.76 2.20589
5636.13 1.62060
5636.50 1.23879
5637.24 0.789868
5637.98 0.547180
5638.72 0.401726
5640.20 0.243809
5641.68 0.164548
5643.16 0.119220
5644.64 0.0908813
5646.12 0.0719860
5649.08 0.0490709
5652.04 0.0361956
5657.96 0.0228893
5663.88 0.0164012
5669.80 0.0126887
5681.63 0.00870434
5693.47 0.00664005
5705.31 0.00539326
5728.99 0.00400887
5752.67 0.00339862
5776.34 0.00352818
5788.18 0.00426238
5800.02 0.00675219
5805.94 0.0103717
5811.86 0.0207206
5814.82 0.0350318
5817.78 0.0748938
5819.26 0.128863
5820.00 0.181506
5820.74 0.275095
5821.48 0.466253
5821.85 0.647025
5822.22 0.957432
5822.59 1.55756
5822.77 2.09232
5822.96 2.95289
5823.14 4.46027
5823.33 7.42839
5823.42 10.1026
5823.51 14.3014
5823.60 21.2671
5823.70 33.0265
5823.80 52.8583
5823.90 66.0856
5824.00 52.8568
5824.10 33.0257
5824.17 24.0007
5824.24 17.8644
5824.37 10.6584
5824.50 6.94641
5824.63 4.84541
5824.76 3.54986
5824.89 2.71178
5825.15 1.72521
5825.41 1.18973
5825.67 0.870096
5826.19 0.522402
5826.71 0.348073
5827.23 0.248531
5828.27 0.145164
5829.31 0.0952929
5830.36 0.0675165
5832.44 0.0392870
5836.61 0.0185930
5840.77 0.0111891
5849.11 0.00579629
5857.44 0.00385552
5874.11 0.00240261
5890.78 0.00184491
5924.11 0.00138344
5957.45 0.00119295
5990.78 0.00112305
6024.12 0.00119617
6057.45 0.00193501
6074.12 0.00499111
6082.46 0.0168947
6084.54 0.0288788
6086.62 0.0617914
6087.67 0.105627
6088.71 0.221293
6089.23 0.367798
6089.75 0.726546
6090.01 1.14038
6090.27 2.02176
6090.40 2.88431
6090.53 4.39303
6090.66 7.27660
6090.72 9.69446
6090.79 13.1411
6090.90 21.0668
6091.00 26.2846
6091.11 20.9867
6091.21 13.1410
6091.30 8.85520
6091.38 6.16891
6091.47 4.47187
6091.55 3.37230
6091.72 2.08458
6091.89 1.40530
6092.23 0.755700
6092.57 0.470074
6093.24 0.231628
6093.92 0.137511
6095.27 0.0648315
6096.63 0.0378057
6099.34 0.0177349
6102.04 0.0104951
6112.87 0.00335736
6134.54 0.00158330
6156.20 0.00149846
6167.03 0.00236780
6172.45 0.00594963
6175.16 0.0195166
6176.51 0.0677789
6177.19 0.220727
6177.53 0.611968
6177.69 1.32929
6177.78 2.20930
6177.86 3.97836
6177.93 6.38338
6178.00 7.95582
6178.07 6.34626
6178.14 3.97843
6178.21 2.39183
6178.28 1.53761
6178.42 0.756304
6178.71 0.287427
6179.28 0.0911989
6180.42 0.0264712
6182.71 0.00783237
6187.28 0.00282785
6196.41 0.00153412
6214.69 0.00123136
6251.24 0.00128525
6287.79 0.00154579
6324.34 0.00207389
6360.89 0.00322575
6379.17 0.00436999
6397.44 0.00643889
6406.58 0.00816631
6415.72 0.0107803
6424.85 0.0150119
6433.99 0.0225324
6438.56 0.0287077
6443.13 0.0379000
6447.70 0.0524436
6452.27 0.0774365
6456.83 0.125854
6459.12 0.169102
6461.40 0.238832
6463.69 0.361464
6464.83 0.460378
6465.97 0.604233
6467.11 0.822863
6468.26 1.17219
6469.40 1.75863
6470.54 2.76306
6471.77 4.41748
6473.00 5.51831
6474.23 4.41534
6475.46 2.76099
6476.56 1.78390
6477.66 1.20306
6478.77 0.851380
6479.87 0.628962
6482.07 0.379127
6484.27 0.251674
6486.48 0.178704
6488.68 0.133274
6493.08 0.0822085
6497.49 0.0557471
6501.90 0.0403240
6506.30 0.0305657
6510.71 0.0240086
6519.52 0.0160213
6528.33 0.0115344
6537.14 0.00876981
6545.95 0.00695065
6563.57 0.00479169
6581.20 0.00362311
6616.44 0.00251962
6651.69 0.00213570
6686.93 0.00217682
6722.18 0.00311893
6739.80 0.00643487
6744.21 0.00967929
6748.61 0.0186152
6750.82 0.0306821
6753.02 0.0634554
6754.12 0.106546
6754.67 0.147516
6755.22 0.218134
6755.77 0.356159
6756.05 0.480142
6756.32 0.681669
6756.60 1.04174
6756.74 1.33628
6756.87 1.76654
6757.01 2.43585
6757.15 3.52061
6757.29 5.41113
6757.42 8.74867
6757.56 14.0189
6757.70 17.4991
6757.84 13.9777
6757.98 8.74821
6758.07 6.19815
6758.17 4.49713
6758.27 3.36278
6758.36 2.59498
6758.56 1.65334
6758.75 1.13851
6758.95 0.827497
6759.14 0.628336
6759.52 0.396884
6759.91 0.272910
6760.30 0.199240
6761.07 0.119979
6761.85 0.0804603
6762.62 0.0580294
6764.16 0.0348224
6767.26 0.0175330
6770.35 0.0113386
6776.54 0.00697839
6782.73 0.00563902
6795.10 0.00532121
6807.47 0.00643255
6819.85 0.00939344
6826.03 0.0123956
6832.22 0.0178164
6835.31 0.0223238
6838.41 0.0291118
6841.50 0.0400356
6844.59 0.0592782
6847.69 0.0980838
6849.24 0.134286
6850.78 0.195488
6852.33 0.311205
6853.10 0.411784
6853.87 0.569539
6854.65 0.836191
6855.04 1.04286
6855.42 1.33121
6855.81 1.74888
6856.19 2.37128
6856.58 3.33062
6856.97 4.80596
6857.48 7.68915
6858.00 9.60504
6858.52 7.68178
6859.03 4.80460
6859.38 3.45494
6859.73 2.53793
6860.42 1.48728
6861.11 0.958813
6861.80 0.664362
6862.49 0.485819
6863.18 0.370150
6864.56 0.235079
6865.95 0.162512
6867.33 0.119265
6870.09 0.0725461
6872.86 0.0492372
6875.62 0.0359992
6878.39 0.0277834
6881.15 0.0223571
6886.68 0.0159031
6892.21 0.0124185
6903.27 0.00916927
6914.32 0.00804414
6925.38 0.00791559
6947.50 0.00964015
6958.56 0.0116332
6969.61 0.0148657
6980.67 0.0202803
6991.73 0.0301017
6997.26 0.0382628
7002.79 0.0505257
7008.32 0.0701587
7013.85 0.104476
7019.37 0.172716
7022.14 0.235425
7024.90 0.339703
7027.67 0.531783
7029.05 0.694306
7030.43 0.942204
7031.81 1.34428
7033.20 2.04850
7034.58 3.39749
7035.27 4.53147
7035.96 6.15205
7037.08 9.86941
7038.20 12.3559
7039.32 9.86390
7040.44 6.14858
7041.70 3.56936
7042.96 2.22679
7044.22 1.49429
7045.48 1.06370
7046.73 0.792447
7047.99 0.611969
7050.51 0.395690
7053.03 0.276567
7055.55 0.204392
7060.58 0.125372
7065.61 0.0856314
7070.65 0.0631748
7075.68 0.0495899
7080.72 0.0411925
7090.79 0.0342013
7095.82 0.0351998
7100.86 0.0408901
7105.89 0.0567177
7108.41 0.0735307
7110.92 0.104539
7112.18 0.130553
7113.44 0.169845
7114.70 0.233016
7115.96 0.343688
7117.22 0.564472
7117.85 0.767433
7118.48 1.10528
7119.11 1.72909
7119.42 2.25781
7119.74 3.06211
7120.05 4.37181
7120.36 6.66005
7120.68 11.0618
7120.84 14.7525
7120.99 20.0221
7121.25 32.0451
7121.50 40.0124
7121.75 31.9912
7122.01 19.9804
7122.23 13.0348
7122.45 8.86972
7122.67 6.32097
7122.89 4.69320
7123.34 2.84676
7123.78 1.89958
7124.22 1.35323
7124.66 1.01264
7125.55 0.627866
7126.43 0.427814
7127.32 0.310886
7128.20 0.236722
7129.09 0.186759
7130.86 0.125696
7132.63 0.0911857
7134.40 0.0697669
7136.17 0.0555483
7139.71 0.0383609
7143.25 0.0287116
7150.33 0.0187104
7157.41 0.0138051
7164.49 0.0109911
7178.64 0.00800810
7206.96 0.00584030
7235.28 0.00563919
7263.60 0.00708053
7277.76 0.00891119
7291.92 0.0124016
7306.07 0.0198068
7313.15 0.0269435
7320.23 0.0393615
7327.31 0.0637870
7330.85 0.0859232
7334.39 0.122165
7337.93 0.187322
7339.70 0.241100
7341.47 0.321016
7343.24 0.446209
7345.01 0.654658
7345.90 0.812210
7346.78 1.02525
7347.67 1.31561
7348.55 1.70751
7350.23 2.72836
7351.90 3.40708
7353.58 2.72349
7355.26 1.70086
7356.81 1.08380
7358.37 0.723231
7359.92 0.508241
7361.47 0.373574
7364.58 0.223909
7367.68 0.148286
7370.79 0.105221
7373.90 0.0785126
7380.11 0.0485936
7386.32 0.0331365
7392.53 0.0241419
7398.74 0.0184543
7404.95 0.0146321
7417.37 0.00997562
7429.80 0.00735795
7454.64 0.00468696
7479.49 0.00344681
7504.33 0.00281083
7554.02 0.00239120
7603.71 0.00277682
7628.56 0.00341809
7653.40 0.00471062
7665.83 0.00583494
7678.25 0.00756904
7690.67 0.0104194
7703.09 0.0155621
7709.31 0.0198398
7715.52 0.0262855
7721.73 0.0366641
7727.94 0.0550023
7731.05 0.0700025
7734.15 0.0922919
7737.26 0.127562
7740.36 0.188420
7743.47 0.307909
7745.02 0.416740
7746.57 0.596695
7748.13 0.927078
7748.90 1.20681
7749.68 1.63361
7750.46 2.32956
7751.23 3.55620
7752.01 5.93640
7752.40 7.96349
7752.78 10.8911
7753.39 17.3985
7754.00 21.7436
7754.61 17.4186
7755.22 10.9378
7755.73 7.27481
7756.25 5.04903
7756.77 3.68582
7757.28 2.82466
7758.32 1.89252
7759.35 1.51307
7760.38 1.49672
7760.90 1.65085
7761.42 1.98782
7761.93 2.67098
7762.45 4.13174
7762.71 5.51003
7762.97 7.77388
7763.22 11.7140
7763.48 18.7532
7763.74 29.7793
7764.00 37.1248
7764.26 29.7445
7764.52 18.6870
7764.70 13.3705
7764.88 9.80173
7765.06 7.40752
7765.23 5.76415
7765.59 3.75904
7765.95 2.65025
7766.31 1.97594
7766.66 1.53884
7767.38 1.02275
7768.09 0.740227
7768.81 0.567491
7770.24 0.373100
7771.67 0.269646
7773.10 0.206760
7775.96 0.135589
7778.82 0.0972441
7781.68 0.0737683
7787.40 0.0471898
7793.12 0.0330412
7798.84 0.0245410
7810.28 0.0151970
7821.72 0.0104141
7833.16 0.00763156
7856.05 0.00467694
7878.93 0.00321697
7901.81 0.00238721
7947.57 0.00152458
7993.34 0.00110782
8039.10 0.000877653
8130.63 0.000663674
8222.16 0.000626681
8267.92 0.000674237
8313.68 0.000800317
8359.45 0.00109977
8382.33 0.00139933
8405.21 0.00193104
8428.09 0.00300415
8439.53 0.00400764
8450.97 0.00572193
8462.41 0.00906198
8468.14 0.0121174
8473.86 0.0172742
8479.58 0.0272808
8482.44 0.0364773
8485.30 0.0521539
8488.16 0.0829903
8489.59 0.111567
8491.02 0.160241
8492.45 0.254425
8493.16 0.339101
8493.88 0.477308
8494.59 0.725443
8494.95 0.930772
8495.31 1.23585
8495.66 1.71659
8496.02 2.51921
8496.20 3.13093
8496.38 3.96270
8496.56 5.10378
8496.74 6.64659
8497.07 10.6168
8497.40 13.2634
8497.73 10.6181
8498.06 6.65029
8498.33 4.50346
8498.60 3.15467
8498.86 2.30111
8499.13 1.74218
8499.66 1.09397
8500.19 0.753821
8500.72 0.556468
8501.26 0.433349
8502.32 0.297343
8503.38 0.232087
8504.45 0.201023
8506.58 0.195016
8508.70 0.252907
8509.77 0.319026
8510.83 0.433661
8511.90 0.645293
8512.43 0.821617
8512.96 1.08470
8513.49 1.49728
8514.02 2.18426
8514.56 3.40402
8515.09 5.64078
8515.59 9.01674
8516.10 11.2676
8516.61 9.01308
8517.11 5.63594
8517.53 3.77151
8517.95 2.61671
8518.36 1.89106
8518.78 1.42020
8519.61 0.876284
8520.45 0.591391
8521.28 0.425377
8522.11 0.320669
8523.78 0.201319
8525.44 0.138517
8527.11 0.101429
8530.44 0.0615493
8533.77 0.0415847
8537.11 0.0301291
8540.44 0.0229241
8543.77 0.0180859
8550.43 0.0121661
8557.10 0.00880457
8563.76 0.00670558
8570.42 0.00530409
8583.75 0.00360273
8597.08 0.00264637
8623.73 0.00166527
8650.38 0.00120071
8677.04 0.000949772
8730.34 0.000722607
8783.65 0.000674789
8836.95 0.000782444
8863.61 0.000954912
8876.94 0.00111553
8890.26 0.00138771
8903.59 0.00192367
8910.25 0.00242925
8916.91 0.00332109
8923.58 0.00517469
8926.91 0.00699295
8930.24 0.0102789
8931.91 0.0130348
8933.57 0.0172319
8935.24 0.0240939
8936.90 0.0364741
8938.57 0.0624500
8939.40 0.0877562
8940.24 0.132705
8941.07 0.224413
8941.90 0.459643
8942.32 0.746946
8942.74 1.41141
8942.94 2.12620
8943.05 2.69895
8943.15 3.52637
8943.26 4.77277
8943.36 6.74057
8943.46 9.99156
8943.52 12.3783
8943.57 15.4724
8943.68 24.7837
8943.80 30.9408
8943.92 24.7830
8944.03 15.4717
8944.12 10.7476
8944.21 7.68082
8944.29 5.65766
8944.38 4.31701
8944.55 2.71185
8944.72 1.84678
8944.90 1.33372
8945.07 1.00645
8945.42 0.630722
8945.76 0.431061
8946.11 0.313061
8946.45 0.237666
8946.80 0.186742
8947.49 0.124029
8948.18 0.0885344
8948.87 0.0664713
8949.56 0.0518714
8950.95 0.0343291
8952.33 0.0246131
8953.71 0.0186859
8955.10 0.0148141
8957.86 0.0102537
8960.63 0.00780207
8966.16 0.00548193
8971.69 0.00459346
8977.22 0.00433972
8988.29 0.00495285
8999.35 0.00730116
9010.41 0.0144594
9015.94 0.0243809
9021.47 0.0519651
9024.24 0.0892933
9025.62 0.125728
9027.01 0.190583
9028.39 0.323355
9029.08 0.449369
9029.77 0.666108
9030.46 1.08787
9030.81 1.46590
9031.16 2.07578
9031.50 3.15601
9031.85 5.30469
9032.02 7.26059
9032.19 10.4143
9032.37 15.7751
9032.54 25.0301
9032.72 40.1182
9032.90 50.1133
9033.08 40.0281
9033.26 25.0292
9033.38 18.0638
9033.50 13.3096
9033.74 7.84130
9033.98 5.06156
9034.22 3.51310
9034.46 2.56750
9034.70 1.95628
9035.18 1.23930
9035.66 0.853545
9036.14 0.623103
9037.09 0.373925
9038.05 0.249165
9039.01 0.178073
9040.93 0.104399
9042.84 0.0689942
9044.76 0.0493692
9048.59 0.0296172
9056.25 0.0158885
9063.91 0.0124097
9071.57 0.0137230
9079.23 0.0229258
9083.06 0.0368903
9084.98 0.0509002
9086.89 0.0762684
9088.81 0.129310
9089.77 0.180620
9090.72 0.270777
9091.20 0.344052
9091.68 0.451933
9092.16 0.620038
9092.64 0.901908
9093.12 1.43001
9093.36 1.88556
9093.60 2.58923
9093.84 3.76293
9094.08 5.88225
9094.20 7.63053
9094.31 10.1570
9094.43 13.9539
9094.55 19.5574
9094.73 31.3216
9094.90 39.1012
9095.07 31.2478
9095.25 19.5564
9095.37 13.6870
9095.50 9.83039
9095.63 7.29286
9095.75 5.57899
9096.00 3.52536
9096.25 2.41339
9096.51 1.74726
9096.76 1.32094
9097.26 0.829586
9097.77 0.567978
9098.27 0.413278
9098.77 0.314043
9099.28 0.246892
9100.28 0.164236
9101.29 0.117306
9103.30 0.0687885
9105.32 0.0454822
9107.33 0.0325225
9111.36 0.0193555
9115.39 0.0131276
9119.41 0.00969894
9127.47 0.00626413
9143.58 0.00393771
9159.69 0.00354870
9175.80 0.00435822
9183.85 0.00549382
9191.91 0.00772410
9199.96 0.0126186
9203.99 0.0175021
9208.02 0.0263347
9210.03 0.0337000
9212.04 0.0448188
9214.06 0.0627398
9216.07 0.0943468
9217.08 0.120108
9218.09 0.158158
9219.09 0.217712
9220.10 0.318352
9221.11 0.508646
9221.61 0.674323
9222.11 0.933642
9222.62 1.37205
9223.12 2.18468
9223.37 2.87017
9223.62 3.88922
9223.87 5.46026
9224.13 7.86985
9224.46 12.6048
9224.80 15.7505
9225.14 12.5883
9225.48 7.86888
9225.76 5.22003
9226.04 3.59204
9226.32 2.58037
9226.61 1.92678
9227.17 1.17816
9227.74 0.789417
9228.30 0.563635
9228.87 0.422107
9230.00 0.261520
9231.13 0.177678
9232.26 0.128556
9233.39 0.0973586
9234.52 0.0763288
9236.79 0.0506316
9239.05 0.0361339
9241.31 0.0271660
9243.57 0.0212394
9248.10 0.0141523
9252.62 0.0102610
9261.67 0.00646016
9270.72 0.00502143
9279.77 0.00527718
9288.81 0.0115633
9293.34 0.0380722
9294.47 0.0647561
9295.60 0.137562
9296.17 0.233625
9296.73 0.482945
9297.01 0.792698
9297.30 1.52944
9297.44 2.35136
9297.58 4.01570
9297.65 5.57368
9297.72 8.10651
9297.79 12.6171
9297.86 20.7675
9297.93 33.1761
9298.00 41.5481
9298.07 33.1758
9298.14 20.7674
9298.20 13.1372
9298.27 8.74731
9298.33 6.13639
9298.39 4.50373
9298.52 2.68243
9298.65 1.77246
9298.91 0.931242
9299.16 0.572376
9299.68 0.278324
9300.19 0.164424
9301.22 0.0773016
9302.25 0.0451651
9304.30 0.0213935
9306.35 0.0128188
9314.57 0.00424333
9331.00 0.00183904
9363.86 0.00102145
9429.59 0.000707131
9495.32 0.000692193
9561.04 0.000826026
9626.77 0.00117981
9659.63 0.00152810
9692.49 0.00213038
9725.36 0.00330853
9741.79 0.00438667
9758.22 0.00620633
9774.65 0.00973848
9791.08 0.0185565
9799.30 0.0296122
9803.41 0.0400018
9807.51 0.0580299
9811.62 0.0940730
9813.68 0.127721
9815.73 0.185032
9817.78 0.295003
9818.81 0.392476
9819.84 0.548679
9820.87 0.820887
9821.89 1.35310
9822.41 1.82668
9822.92 2.57177
9823.43 3.79965
9823.95 5.85574
9824.52 9.36607
9825.10 11.7007
9825.68 9.35854
9826.26 5.85100
9826.88 3.47938
9827.50 2.20982
9828.13 1.50298
9828.75 1.08206
9829.37 0.814209
9829.99 0.635140
9831.24 0.419144
9832.48 0.299941
9833.73 0.227897
9836.22 0.150178
9838.71 0.112992
9841.20 0.0943174
9846.18 0.0845107
9851.16 0.100148
9853.65 0.119783
9856.14 0.152635
9858.63 0.208459
9861.12 0.308559
9862.37 0.388830
9863.61 0.502807
9864.86 0.667035
9866.10 0.902322
9868.10 1.43629
9870.10 1.79168
9872.10 1.43425
9874.10 0.898994
9875.85 0.588960
9877.60 0.402131
9879.34 0.287885
9881.09 0.214975
9884.59 0.132331
9888.08 0.0897488
9891.58 0.0651866
9895.07 0.0498232
9902.06 0.0325147
9909.05 0.0236470
9916.04 0.0187033
9930.02 0.0145681
9944.00 0.0154511
9950.99 0.0183206
9957.98 0.0244933
9964.98 0.0383771
9968.47 0.0521628
9971.97 0.0767200
9975.46 0.126573
9977.21 0.173254
9978.96 0.252345
9980.70 0.402208
9981.58 0.532811
9982.45 0.737781
9983.32 1.08490
9984.20 1.73239
9984.64 2.27996
9985.07 3.10114
9985.51 4.36951
9985.95 6.33039
9986.52 10.1342
9987.10 12.6645
9987.68 10.1251
9988.26 6.32897
9988.62 4.62571
9988.99 3.44488
9989.72 2.05817
9990.46 1.34212
9991.19 0.937206
9991.92 0.688622
9992.66 0.526531
9994.12 0.335615
9995.59 0.232311
9997.06 0.170357
9999.99 0.103067
10000.0 0.174776
12500.0 0.146921
15000.0 0.127040
17000.0 0.114818
20000.0 0.100584
25000.0 0.0838335
30000.0 0.0723339
35000.0 0.0639892
40000.0 0.0576866
50000.0 0.0488450
60000.0 0.0429680
70000.0 0.0387798
80000.0 0.0356311
90000.0 0.0331621
93000.0 0.0325616
97000.0 0.0317610
99999.9 0.0311605
100000 0.0249904
105000 0.0242094
110000 0.0235051
115000 0.0228675
120000 0.0222882
125000 0.0217601
130000 0.0212966
135000 0.0208330
140000 0.0204395
145000 0.0200460
150000 0.0197256
155000 0.0194052
160000 0.0190848
165000 0.0188206
170000 0.0185564
175000 0.0182922
180000 0.0180722
185000 0.0178523
190000 0.0176323
195000 0.0174413
200000 0.0172503
210000 0.0169071
220000 0.0166128
230000 0.0163184
240000 0.0160737
250000 0.0158290
260000 0.0156220
270000 0.0154149
280000 0.0152425
290000 0.0150702
300000 0.0148978
310000 0.0147568
320000 0.0146158
330000 0.0144748
340000 0.0143584
350000 0.0142419
360000 0.0141255
370000 0.0140329
380000 0.0139404
390000 0.0138478
400000 0.0137552
410000 0.0136858
420000 0.0136164
430000 0.0135469
440000 0.0134775
450000 0.0134081
460000 0.0133576
470000 0.0133072
480000 0.0132567
490000 0.0132063
500000 0.0131558
520000 0.0130880
530000 0.0130541
540000 0.0130202
550000 0.0129863
560000 0.0129524
570000 0.0129320
580000 0.0129116
600000 0.0128707
620000 0.0128299
640000 0.0128151
660000 0.0128002
680000 0.0127854
700000 0.0127942
720000 0.0128029
740000 0.0128117
760000 0.0128204
770000 0.0128374
771466 0.0128398
780000 0.0128543
800000 0.0128882
820000 0.0129221
840000 0.0129712
860000 0.0130202
880000 0.0130693
930600 0.0132518
930601 0.0132518
940000 0.0132858
960000 0.0133579
980000 0.0134393
1.00000E+06 0.0135206
1.05000E+06 0.0137654
1.10000E+06 0.0140515
1.15000E+06 0.0143375
1.20000E+06 0.0146797
1.21815E+06 0.0148039
1.21815E+06 0.0148039
1.21830E+06 0.0148049
1.25000E+06 0.0149027
1.30000E+06 0.0151334
1.31400E+06 0.0152283
1.33321E+06 0.0153585
1.35000E+06 0.0154723
1.39500E+06 0.0157773
1.39800E+06 0.0157976
1.40000E+06 0.0158112
1.43173E+06 0.0160336
1.45000E+06 0.0161617
1.47610E+06 0.0163754
1.48277E+06 0.0163768
1.48277E+06 0.0163768
1.50000E+06 0.0163802
1.53000E+06 0.0163863
1.60000E+06 0.0165312
1.70748E+06 0.0170321
1.80000E+06 0.0174633
1.90000E+06 0.0182663
1.90308E+06 0.0182522
1.90309E+06 0.0182521
1.97152E+06 0.0179381
2.00000E+06 0.0178074
2.06501E+06 0.0177561
2.06501E+06 0.0177561
2.07300E+06 0.0177498
2.09134E+06 0.0172678
2.15514E+06 0.0155911
2.15514E+06 0.0155910
2.19423E+06 0.0145637
2.21379E+06 0.0140497
2.21380E+06 0.0140495
2.22492E+06 0.0137572
2.22492E+06 0.0137572
2.28500E+06 0.0121783
2.28500E+06 0.0121782
2.28600E+06 0.0121519
2.30000E+06 0.0115709
2.40000E+06 0.00967382
2.50000E+06 0.00820310
2.60000E+06 0.00701620
2.90000E+06 0.00533182
3.00000E+06 0.00526476
3.20000E+06 0.00453823
3.40000E+06 0.00361111
3.60000E+06 0.00328840
3.80000E+06 0.00298805
4.00000E+06 0.00274771
4.20000E+06 0.00246225
4.40000E+06 0.00221712
4.50000E+06 0.00211199
4.60000E+06 0.00201783
4.80000E+06 0.00185616
4.99380E+06 0.00168219
5.00000E+06 0.00167662
5.20000E+06 0.00143820
5.40000E+06 0.00134242
5.49834E+06 0.00126559
5.50000E+06 0.00126429
5.60000E+06 0.00120739
5.80000E+06 0.00112294
5.89115E+06 0.00108445
5.89118E+06 0.00108444
6.00000E+06 0.00103849
6.53977E+06 0.000873913
6.80000E+06 0.000794568
7.00000E+06 0.000757053
7.14642E+06 0.000715524
7.14643E+06 0.000715522
7.22903E+06 0.000692093
7.27000E+06 0.000680473
7.27382E+06 0.000679890
7.27382E+06 0.000679889
8.00000E+06 0.000569010
8.06551E+06 0.000562779
8.60000E+06 0.000511936
9.00000E+06 0.000497623
9.50000E+06 0.000486988
1.00000E+07 0.000493601
1.02000E+07 0.000503172
1.10000E+07 0.000549109
1.16000E+07 0.000603400
1.20000E+07 0.000628472
1.24000E+07 0.000658401
1.30000E+07 0.000685550
1.35000E+07 0.000698521
1.40000E+07 0.000696272
1.40188E+07 0.000696050
1.45000E+07 0.000690373
1.50000E+07 0.000681297
1.60000E+07 0.000598970
1.70000E+07 0.000482300
1.80000E+07 0.000369010
1.90000E+07 0.000268673
2.00000E+07 0.000201098