Nb-93(n,g) ENDF/B-VII.1
Energy(eV) XS(b)
1.00000E-05 57.6221
1.25350E-05 51.4673
1.50700E-05 46.9398
2.00000E-05 40.7464
2.27100E-05 38.2384
2.78700E-05 34.5180
3.42100E-05 31.1562
4.20000E-05 28.1193
5.00000E-05 25.7723
5.15500E-05 25.3819
5.74150E-05 24.0509
6.32800E-05 22.9095
7.76800E-05 20.6779
9.53600E-05 18.6635
0.000100000 18.2255
0.000117100 16.8427
0.000143700 15.2048
0.000176400 13.7240
0.000200000 12.8892
0.000216500 12.3886
0.000265800 11.1815
0.000326200 10.0940
0.000400500 9.11043
0.000491600 8.22380
0.000500000 8.15448
0.000525850 7.95171
0.000551700 7.76337
0.000603400 7.42367
0.000740700 6.70115
0.000909300 6.04884
0.00100000 5.76838
0.00111600 5.46081
0.00137000 4.92947
0.00168200 4.44968
0.00200000 4.08135
0.00206400 4.01771
0.00229900 3.80730
0.00253400 3.62690
0.00311100 3.27421
0.00381900 2.95608
0.00468700 2.66929
0.00500000 2.58470
0.00575400 2.41008
0.00706300 2.17629
0.00867000 1.96528
0.0100000 1.83064
0.0106400 1.77506
0.0130600 1.60323
0.0160400 1.44772
0.0196900 1.30776
0.0200000 1.29767
0.0210400 1.26547
0.0220800 1.23558
0.0241600 1.18171
0.0253000 1.15504
0.0296600 1.06767
0.0364100 0.964796
0.0447000 0.871922
0.0500000 0.825083
0.0548700 0.788189
0.0673500 0.712647
0.0826700 0.644479
0.100000 0.587149
0.101500 0.582892
0.107275 0.567339
0.113050 0.552998
0.124600 0.527381
0.152900 0.477376
0.187700 0.432173
0.200000 0.419092
0.230400 0.391408
0.282900 0.354577
0.347200 0.321425
0.426200 0.291483
0.500000 0.270194
0.523200 0.264460
0.582700 0.251327
0.642200 0.240080
0.788300 0.218083
0.967700 0.198222
1.00000 0.195221
1.09400 0.187267
1.18800 0.180288
1.45800 0.164118
1.79000 0.149488
2.00000 0.142169
2.19700 0.136297
2.69700 0.124354
3.31100 0.113563
4.06400 0.103813
4.98900 0.0949856
5.00000 0.0948952
5.03513 0.0946083
5.07025 0.0943246
5.14050 0.0937660
5.28100 0.0926834
5.56200 0.0906463
6.12400 0.0870152
7.51700 0.0798120
9.22800 0.0733075
10.0000 0.0709312
11.3300 0.0674636
13.9000 0.0622767
17.0700 0.0576943
20.0000 0.0546437
20.9500 0.0538649
23.3350 0.0522751
25.7200 0.0513644
28.6450 0.0517428
31.5700 0.0579167
32.6264 0.0661490
33.1546 0.0744356
33.6828 0.0894469
34.2109 0.120766
34.4750 0.150976
34.7391 0.203939
35.0032 0.309648
35.1353 0.407078
35.2673 0.569625
35.3994 0.870145
35.4654 1.12547
35.5314 1.51637
35.5974 2.15369
35.6635 3.27768
35.7295 5.45276
35.7625 7.29824
35.7955 9.95416
35.8478 15.9067
35.9000 19.8835
35.9523 15.9238
36.0046 9.97366
36.0475 6.69309
36.0904 4.65405
36.1333 3.37496
36.1762 2.54277
36.2620 1.58235
36.3478 1.07947
36.4336 0.786646
36.5194 0.602230
36.6910 0.392608
36.8625 0.282898
37.0341 0.218579
37.3773 0.150348
37.7205 0.117161
38.0637 0.0989775
38.7500 0.0823676
39.6098 0.0796399
40.0396 0.0848570
40.4695 0.0976259
40.8994 0.127027
41.1143 0.155991
41.3293 0.206642
41.5442 0.306065
41.6517 0.395625
41.7591 0.541109
41.8666 0.799147
41.9741 1.31693
42.0278 1.78967
42.0815 2.55549
42.1353 3.86576
42.1890 6.16394
42.2445 9.83791
42.3000 12.2918
42.3556 9.84699
42.4111 6.17403
42.4514 4.33711
42.4917 3.13003
42.5320 2.33526
42.5723 1.79838
42.6529 1.15460
42.7335 0.804678
42.8142 0.595905
42.8948 0.462137
43.0560 0.307503
43.2172 0.225167
43.3784 0.176259
43.7008 0.123485
44.0233 0.0970593
44.3457 0.0819063
44.9906 0.0659640
45.6354 0.0580748
46.2803 0.0535257
47.5700 0.0486206
50.0000 0.0446204
58.3900 0.0406473
71.6800 0.0391333
79.8350 0.0395136
83.9125 0.0406303
87.9900 0.0444806
89.5450 0.0488932
90.3224 0.0531908
91.0999 0.0608982
91.8774 0.0770195
92.2661 0.0927505
92.6549 0.120811
93.0436 0.178559
93.2380 0.233669
93.4323 0.329309
93.6267 0.517356
93.7239 0.688002
93.8211 0.967995
93.9183 1.47293
93.9669 1.89106
94.0154 2.51493
94.0640 3.49635
94.1126 5.14114
94.1612 8.09293
94.2098 13.6005
94.2549 21.7371
94.3000 27.1639
94.3452 21.7377
94.3903 13.5984
94.4341 8.49710
94.4780 5.59293
94.5218 3.89713
94.5656 2.85118
94.6094 2.16995
94.6533 1.70529
94.7409 1.13388
94.8286 0.811280
94.9162 0.612353
95.0915 0.390675
95.2668 0.276766
95.4421 0.210730
95.7927 0.141232
96.1433 0.107428
96.4939 0.0885713
97.1952 0.0696051
97.8964 0.0610613
98.5976 0.0568940
100.000 0.0546766
101.429 0.0582313
102.144 0.0631975
102.858 0.0727367
103.573 0.0931768
103.930 0.113222
104.287 0.148965
104.644 0.222425
104.823 0.292386
105.002 0.413587
105.180 0.651551
105.270 0.866978
105.359 1.21983
105.448 1.85452
105.493 2.37959
105.537 3.15954
105.582 4.38578
105.627 6.42826
105.671 10.0830
105.716 16.8434
105.758 26.9645
105.800 33.7277
105.842 26.9539
105.884 16.8302
105.917 11.4382
105.950 8.02896
105.983 5.85839
106.016 4.43319
106.082 2.76579
106.149 1.88258
106.215 1.36401
106.281 1.03640
106.413 0.662327
106.545 0.465613
106.678 0.350029
106.942 0.226795
107.207 0.166167
107.471 0.132088
108.000 0.0975011
108.696 0.0784720
109.392 0.0705029
110.784 0.0669367
112.176 0.0718925
113.568 0.0858542
114.264 0.0986371
114.960 0.118666
115.656 0.151993
116.352 0.212944
116.700 0.264246
117.048 0.342401
117.396 0.469959
117.744 0.699278
117.918 0.889666
118.092 1.17616
118.266 1.63616
118.440 2.44394
118.527 3.09896
118.614 4.06211
118.701 5.56056
118.788 8.07473
118.875 12.7647
118.919 16.7886
118.962 23.0121
119.006 33.3052
119.049 51.8563
119.071 67.0461
119.093 88.9700
119.114 121.582
119.136 169.526
119.152 216.667
119.168 270.378
119.200 337.249
119.232 270.302
119.264 169.432
119.290 113.825
119.316 79.1869
119.342 57.2741
119.368 43.0251
119.420 26.4993
119.472 17.8247
119.525 12.7676
119.577 9.57994
119.681 5.95448
119.785 4.05570
119.889 2.94110
119.993 2.23231
120.098 1.75450
120.306 1.16949
120.514 0.839168
120.723 0.634681
120.931 0.499461
121.348 0.337280
121.765 0.247529
122.181 0.192709
122.598 0.156813
123.432 0.114214
124.265 0.0908786
125.099 0.0767345
125.932 0.0675264
127.599 0.0566831
129.266 0.0508111
132.600 0.0450737
136.363 0.0423571
140.125 0.0412028
147.650 0.0408897
155.175 0.0421836
162.700 0.0453922
170.254 0.0527322
174.031 0.0601641
177.808 0.0737907
179.697 0.0853171
181.585 0.102988
183.474 0.132111
185.362 0.185288
186.306 0.230174
187.251 0.298849
188.195 0.411739
189.139 0.616944
189.611 0.789354
190.083 1.05181
190.555 1.48012
191.028 2.25047
191.264 2.89062
191.500 3.85469
191.736 5.40444
191.972 8.12897
192.090 10.3439
192.208 13.6033
192.326 18.6847
192.444 27.2358
192.503 33.8943
192.562 43.2794
192.621 57.1045
192.680 78.5984
192.739 114.412
192.769 141.808
192.798 179.688
192.828 233.609
192.857 312.668
192.887 431.373
192.916 609.600
192.958 975.851
193.000 1220.15
193.042 975.571
193.084 609.281
193.110 447.159
193.137 334.523
193.189 200.827
193.242 131.380
193.294 91.9230
193.346 67.5986
193.399 51.6817
193.504 32.9247
193.609 22.7452
193.714 16.6398
193.924 10.0017
194.133 6.66672
194.343 4.76107
194.553 3.57162
194.763 2.78033
195.183 1.82546
195.603 1.29380
196.022 0.967705
196.442 0.753531
197.282 0.498589
198.121 0.358497
198.961 0.273393
199.800 0.217878
200.000 0.207514
200.686 0.177939
201.371 0.155353
202.742 0.123694
205.485 0.0888950
208.227 0.0712611
210.969 0.0611714
216.454 0.0508437
221.938 0.0462924
227.423 0.0446630
232.907 0.0462781
235.649 0.0502317
237.020 0.0545019
238.392 0.0625037
239.763 0.0797593
240.448 0.0968819
241.134 0.127776
241.477 0.153490
241.819 0.192245
242.162 0.254573
242.505 0.364181
242.848 0.584294
243.019 0.788547
243.191 1.13197
243.362 1.77454
243.448 2.32756
243.533 3.18559
243.619 4.61107
243.705 7.19765
243.748 9.32750
243.790 12.4294
243.833 17.0599
243.876 23.9680
243.938 38.3873
244.000 48.0278
244.062 38.3966
244.124 23.9798
244.191 14.1925
244.259 8.98420
244.326 6.08856
244.393 4.36764
244.460 3.27380
244.528 2.54262
244.662 1.65982
244.797 1.17067
244.931 0.872717
245.200 0.544466
245.418 0.402139
245.636 0.312349
246.072 0.209790
246.508 0.155656
246.944 0.123658
247.816 0.0892841
248.688 0.0721738
249.559 0.0624270
250.431 0.0563466
252.175 0.0494594
253.919 0.0458439
255.663 0.0437098
259.150 0.0414252
266.125 0.0397198
273.100 0.0392653
287.050 0.0397704
294.025 0.0406528
301.000 0.0423243
305.472 0.0443434
309.945 0.0486814
312.181 0.0536550
313.299 0.0581999
314.417 0.0660498
315.535 0.0820042
316.094 0.0973616
316.653 0.124617
317.212 0.180713
317.492 0.234453
317.771 0.328332
318.051 0.515136
318.190 0.687061
318.330 0.973331
318.470 1.50222
318.540 1.95121
318.610 2.63692
318.679 3.75502
318.749 5.72506
318.819 9.53238
318.854 12.7537
318.889 17.3838
318.945 27.8115
319.000 34.7756
319.056 27.8162
319.111 17.3899
319.175 10.0187
319.238 6.22434
319.302 4.17203
319.366 2.97217
319.430 2.22024
319.493 1.72147
319.621 1.12572
319.748 0.798296
319.875 0.600246
320.130 0.383304
320.385 0.273753
320.639 0.211030
321.149 0.145986
321.658 0.115056
322.168 0.0983344
323.186 0.0827873
324.205 0.0775125
325.224 0.0770893
327.262 0.0860059
328.281 0.0961267
329.300 0.112554
330.318 0.140254
331.337 0.191154
331.847 0.234073
332.356 0.299504
332.866 0.406408
333.375 0.598895
333.630 0.759039
333.884 1.00034
334.139 1.38864
334.394 2.07275
334.521 2.62958
334.649 3.45030
334.776 4.73374
334.903 6.89877
335.031 10.9793
335.094 14.5164
335.158 20.0345
335.222 29.3106
335.285 46.4127
335.317 60.7312
335.349 81.8903
335.381 114.076
335.413 163.110
335.435 208.882
335.456 260.948
335.500 326.164
335.544 260.909
335.587 163.064
335.614 120.466
335.641 90.6263
335.694 54.9014
335.748 36.1325
335.801 25.3723
335.855 18.7199
335.908 14.3503
336.015 9.17794
336.122 6.36210
336.228 4.66967
336.442 2.82606
336.656 1.89819
336.869 1.36759
337.083 1.03609
337.297 0.815327
337.724 0.548861
338.151 0.400430
338.578 0.309433
339.006 0.249707
339.860 0.178749
340.715 0.139964
341.569 0.116612
342.424 0.101593
344.133 0.0844496
345.842 0.0759148
349.260 0.0698694
352.678 0.0710638
356.096 0.0776507
359.514 0.0928441
361.223 0.112469
361.651 0.124337
362.078 0.150106
362.292 0.179948
362.398 0.206756
362.505 0.251291
362.612 0.334572
362.665 0.406869
362.719 0.520584
362.772 0.713874
362.826 1.07811
362.852 1.38983
362.879 1.86311
362.906 2.60602
362.932 3.77992
362.966 5.97308
363.000 7.43567
363.034 5.97542
363.068 3.78420
363.097 2.53007
363.126 1.77134
363.155 1.30447
363.184 1.00526
363.242 0.665367
363.300 0.491265
363.358 0.391707
363.416 0.330567
363.532 0.264371
363.764 0.220762
363.996 0.223753
364.228 0.263040
364.345 0.305771
364.461 0.380639
364.577 0.524680
364.635 0.651100
364.693 0.850159
364.751 1.18900
364.809 1.82373
364.838 2.36351
364.867 3.17742
364.896 4.44330
364.925 6.42167
364.962 10.1873
365.000 12.6961
365.038 10.1760
365.075 6.41281
365.110 4.14719
365.145 2.81873
365.179 2.02455
365.214 1.52737
365.283 0.972163
365.352 0.691778
365.421 0.532065
365.490 0.433387
365.628 0.323489
365.767 0.267569
365.905 0.235893
366.182 0.204588
366.735 0.187236
367.288 0.188959
369.500 0.252256
370.596 0.313138
371.691 0.407585
372.787 0.563304
373.882 0.845883
374.430 1.08244
374.978 1.44112
375.525 2.02322
376.073 3.06096
376.347 3.91566
376.621 5.19154
376.895 7.21781
377.169 10.7180
377.306 13.5131
377.442 17.5565
377.579 23.7208
377.716 33.7526
377.785 41.3071
377.853 51.6546
377.922 66.3152
377.990 87.9114
378.059 121.419
378.127 176.312
378.196 272.062
378.264 443.699
378.332 710.968
378.400 889.532
378.468 710.767
378.536 443.482
378.591 298.965
378.645 208.495
378.700 151.186
378.754 113.735
378.863 70.2127
378.972 47.2921
379.082 33.8998
379.191 25.4447
379.409 15.8161
379.627 10.7625
379.845 7.79298
380.063 5.90330
380.281 4.62818
380.718 3.06704
381.154 2.18524
381.591 1.63904
382.027 1.27776
382.900 0.844782
383.772 0.605532
384.645 0.460059
385.518 0.365673
387.263 0.257962
389.008 0.213307
389.881 0.216531
390.754 0.266299
391.190 0.347177
391.408 0.427943
391.627 0.570684
391.845 0.854747
391.954 1.11388
392.063 1.53974
392.172 2.30974
392.227 2.94893
392.281 3.90180
392.336 5.40522
392.390 7.92351
392.445 12.4482
392.499 20.9029
392.550 33.3782
392.600 41.6702
392.651 33.3548
392.701 20.8852
392.761 11.8968
392.820 7.34421
392.880 4.91082
392.939 3.50127
392.998 2.62088
393.058 2.03914
393.177 1.34663
393.296 0.966937
393.415 0.737372
393.653 0.485349
393.891 0.357135
394.128 0.282800
394.604 0.203596
395.080 0.163646
395.556 0.140095
396.507 0.113719
398.410 0.0895465
400.313 0.0773926
404.120 0.0642470
407.926 0.0570091
415.538 0.0493551
423.151 0.0456366
430.763 0.0437803
438.375 0.0432665
445.988 0.0449792
449.794 0.0485202
451.697 0.0524875
453.600 0.0604296
454.427 0.0665500
455.254 0.0759409
456.081 0.0914030
456.908 0.119520
457.321 0.143128
457.735 0.179038
458.148 0.237544
458.562 0.342448
458.769 0.429379
458.975 0.559823
459.182 0.768562
459.389 1.13329
459.595 1.85861
459.699 2.52465
459.802 3.63045
459.906 5.66533
459.957 7.38512
460.009 9.99807
460.061 14.2328
460.112 21.6234
460.164 35.7000
460.190 47.4351
460.216 64.1028
460.237 82.0937
460.258 102.545
460.300 128.071
460.342 102.438
460.385 64.0149
460.424 40.7602
460.463 27.1818
460.502 19.0917
460.541 14.0375
460.620 8.41189
460.698 5.56893
460.776 3.94916
460.855 2.94622
461.011 1.82268
461.168 1.24223
461.325 0.904813
461.481 0.691450
461.638 0.548249
461.951 0.373854
462.264 0.275819
462.578 0.215309
462.891 0.175373
463.518 0.127580
464.144 0.101176
464.771 0.0850703
465.397 0.0745319
466.650 0.0620358
467.904 0.0551993
470.410 0.0483830
472.916 0.0452666
475.422 0.0436539
480.435 0.0424271
485.448 0.0428620
487.954 0.0439045
490.460 0.0461131
492.967 0.0511409
494.220 0.0562490
495.473 0.0656155
496.099 0.0735162
496.726 0.0855703
497.353 0.105272
497.979 0.140734
498.292 0.170210
498.606 0.214596
498.919 0.285921
499.232 0.411280
499.389 0.513045
499.546 0.662676
499.702 0.895790
499.859 1.28704
500.016 2.01833
500.094 2.64621
500.172 3.61850
500.251 5.22929
500.329 8.13992
500.368 10.5267
500.407 13.9880
500.446 19.1442
500.485 26.7744
500.543 42.8134
500.600 53.5060
500.657 42.7880
500.715 26.7568
500.770 16.8192
500.824 11.1124
500.879 7.75720
500.934 5.68009
500.989 4.31983
501.043 3.38941
501.153 2.24319
501.263 1.59378
501.372 1.19292
501.591 0.745189
501.810 0.514736
502.029 0.380937
502.248 0.296489
502.467 0.239842
502.906 0.170896
503.344 0.132163
503.782 0.108260
504.220 0.0924837
505.097 0.0735993
505.973 0.0631582
507.725 0.0526025
509.478 0.0476336
511.231 0.0449012
514.736 0.0421486
521.747 0.0401517
528.757 0.0394610
542.779 0.0390586
556.800 0.0391021
577.964 0.0397996
583.254 0.0403248
588.545 0.0414747
591.191 0.0427571
593.836 0.0457008
595.159 0.0491409
596.482 0.0575442
597.143 0.0680312
597.804 0.0952089
598.135 0.130220
598.300 0.163389
598.466 0.220750
598.631 0.333609
598.714 0.436288
598.796 0.605209
598.879 0.912218
598.920 1.16805
598.962 1.55257
599.003 2.16559
599.044 3.20646
599.086 5.11549
599.127 8.78275
599.164 14.0245
599.200 17.5046
599.237 14.0104
599.273 8.77264
599.310 5.43805
599.346 3.56284
599.382 2.47845
599.419 1.81420
599.455 1.38397
599.491 1.09164
599.564 0.733789
599.636 0.532793
599.709 0.409375
599.854 0.272792
599.999 0.203383
600.144 0.163866
600.435 0.124168
600.725 0.107461
601.015 0.101277
601.596 0.107063
602.177 0.138736
602.467 0.173385
602.757 0.236709
602.903 0.289224
603.048 0.367660
603.193 0.491924
603.338 0.705228
603.483 1.11748
603.556 1.48426
603.628 2.07234
603.701 3.10037
603.774 5.11466
603.810 6.90804
603.846 9.73962
603.883 14.4175
603.919 22.2448
603.959 35.5899
604.000 44.4609
604.041 35.5570
604.081 22.2474
604.108 16.1815
604.134 12.0042
604.186 7.14084
604.239 4.65264
604.291 3.25079
604.344 2.39433
604.396 1.83647
604.501 1.18152
604.607 0.827706
604.712 0.616099
604.922 0.386572
605.132 0.271459
605.342 0.205746
605.762 0.137394
606.182 0.104413
606.602 0.0860230
607.442 0.0673374
608.282 0.0585901
609.123 0.0539187
610.803 0.0498499
612.483 0.0495351
614.164 0.0539434
615.004 0.0612645
615.844 0.0822467
616.264 0.110600
616.474 0.138051
616.684 0.186336
616.894 0.283341
616.999 0.373321
617.104 0.524596
617.209 0.807619
617.262 1.05118
617.314 1.42907
617.367 2.05684
617.419 3.19590
617.446 4.13457
617.472 5.49945
617.498 7.54523
617.524 10.5851
617.562 16.9056
617.600 21.1170
617.638 16.8868
617.676 10.5699
617.721 5.97112
617.766 3.66628
617.812 2.44078
617.857 1.73253
617.902 1.29221
617.947 1.00182
618.038 0.656714
618.128 0.468083
618.219 0.354439
618.399 0.230339
618.580 0.167726
618.761 0.131865
619.123 0.0944724
619.846 0.0663047
620.569 0.0560364
622.016 0.0485539
623.463 0.0459875
626.356 0.0445658
629.249 0.0449821
632.142 0.0470816
633.589 0.0493828
635.036 0.0536582
636.482 0.0628244
637.206 0.0719258
637.929 0.0884358
638.652 0.123292
639.014 0.157497
639.376 0.218721
639.557 0.269382
639.737 0.345285
639.918 0.466509
640.099 0.677731
640.280 1.09597
640.370 1.47795
640.461 2.10949
640.551 3.26132
640.596 4.22658
640.641 5.68413
640.687 8.01511
640.732 12.0147
640.777 19.4427
640.822 33.9570
640.861 54.3160
640.900 67.8340
640.939 54.2568
640.978 33.9093
641.008 23.1986
641.039 16.3627
641.069 11.9765
641.099 9.07205
641.159 5.66194
641.220 3.84849
641.280 2.77918
641.340 2.10086
641.461 1.32506
641.582 0.915932
641.703 0.675022
641.823 0.521368
641.944 0.417471
642.186 0.290073
642.427 0.217984
642.669 0.173290
642.910 0.143705
643.393 0.108195
643.876 0.0885379
644.842 0.0687012
645.808 0.0594453
646.774 0.0544409
648.705 0.0496190
650.637 0.0476403
652.569 0.0468755
656.432 0.0472562
660.296 0.0500688
662.228 0.0531745
664.160 0.0589149
666.091 0.0711282
667.057 0.0831833
668.023 0.104950
668.506 0.123132
668.989 0.150673
669.472 0.195361
669.955 0.275074
670.196 0.340806
670.438 0.439069
670.679 0.595461
670.921 0.866488
671.162 1.39885
671.283 1.88103
671.404 2.67102
671.525 4.09390
671.585 5.27015
671.645 7.01860
671.706 9.76604
671.766 14.3448
671.826 22.5303
671.887 37.6662
671.943 60.2397
672.000 75.2900
672.057 60.2442
672.113 37.6722
672.161 24.9595
672.209 17.1633
672.257 12.3278
672.305 9.20857
672.400 5.64125
672.496 3.78917
672.591 2.71690
672.687 2.04421
672.878 1.28257
673.069 0.885416
673.261 0.653033
673.452 0.505684
673.643 0.406623
674.025 0.286114
674.408 0.219027
674.790 0.178628
675.172 0.153427
675.937 0.130267
676.319 0.130056
676.702 0.140553
677.084 0.172893
677.275 0.207573
677.466 0.270799
677.658 0.400390
677.753 0.521636
677.849 0.726238
677.944 1.11003
677.992 1.44076
678.040 1.95433
678.088 2.80822
678.136 4.35892
678.160 5.63482
678.183 7.49825
678.207 10.2820
678.231 14.4153
678.266 23.0234
678.300 28.7347
678.335 22.9973
678.369 14.3948
678.409 8.25272
678.449 5.11446
678.489 3.42639
678.529 2.44314
678.570 1.82850
678.610 1.42151
678.690 0.936239
678.770 0.669619
678.850 0.508223
679.010 0.331315
679.171 0.241474
679.331 0.189648
679.652 0.134932
679.973 0.107897
680.293 0.0923944
680.935 0.0758782
682.217 0.0624600
683.500 0.0568759
685.861 0.0523828
688.221 0.0505511
692.942 0.0497061
697.663 0.0507125
702.384 0.0533417
707.105 0.0587148
709.465 0.0635670
711.825 0.0716906
714.186 0.0875744
715.366 0.102492
716.546 0.128663
717.727 0.182445
718.317 0.234434
718.907 0.326736
719.202 0.402689
719.497 0.516126
719.792 0.696767
720.087 1.01029
720.382 1.62798
720.530 2.18961
720.677 3.11375
720.825 4.78896
720.899 6.18325
720.972 8.27073
721.046 11.5810
721.120 17.1735
721.194 27.3626
721.267 46.6975
721.334 74.6989
721.400 93.3301
721.467 74.6592
721.533 46.6702
721.611 26.6722
721.688 16.4748
721.765 10.9848
721.843 7.79248
721.920 5.79504
721.997 4.47462
722.152 2.89935
722.307 2.03552
722.461 1.51339
722.771 0.942690
723.080 0.654778
723.389 0.490138
724.008 0.319553
724.627 0.238536
725.245 0.194813
726.482 0.154381
727.720 0.141053
728.957 0.140701
731.432 0.166975
732.669 0.196218
733.906 0.243598
735.144 0.323375
736.381 0.469493
737.000 0.592115
737.618 0.778055
738.237 1.07947
738.856 1.61543
739.165 2.05559
739.474 2.71037
739.784 3.74556
740.093 5.52284
740.248 6.93226
740.402 8.95979
740.557 12.0225
740.712 16.9476
740.866 25.5796
740.944 32.5150
741.021 42.5650
741.098 57.7901
741.176 81.9356
741.253 122.121
741.330 190.220
741.415 304.248
741.500 380.211
741.585 304.036
741.670 190.037
741.731 133.852
741.792 96.6456
741.852 71.9934
741.913 55.2728
742.034 35.0937
742.155 24.0678
742.276 17.4643
742.397 13.2293
742.639 8.32703
742.882 5.71539
743.124 4.16635
743.366 3.17340
743.608 2.49999
744.093 1.67143
744.577 1.20084
745.062 0.908339
745.546 0.714273
746.515 0.481001
747.484 0.351636
748.453 0.272712
749.422 0.221304
751.360 0.162000
753.298 0.135604
754.267 0.134532
755.236 0.153809
755.721 0.187263
755.963 0.220916
756.205 0.280294
756.448 0.397528
756.569 0.503293
756.690 0.675140
756.811 0.979739
756.932 1.58987
756.993 2.14626
757.053 3.04418
757.114 4.57834
757.174 7.25401
757.237 11.5559
757.300 14.4171
757.363 11.5488
757.426 7.24808
757.466 5.32517
757.506 3.99295
757.585 2.42095
757.665 1.60864
757.745 1.14837
757.824 0.865379
757.904 0.680566
758.063 0.462446
758.223 0.343966
758.382 0.272669
758.701 0.194608
759.019 0.154792
759.338 0.131549
759.975 0.106354
761.250 0.0851751
762.524 0.0756207
765.074 0.0659725
767.623 0.0606929
772.721 0.0547656
777.820 0.0515297
788.016 0.0483270
798.213 0.0470260
818.607 0.0466826
839.000 0.0479355
857.350 0.0503508
875.699 0.0549126
884.874 0.0588453
894.049 0.0652448
903.223 0.0783072
905.517 0.0848791
907.811 0.0969196
908.958 0.109496
910.105 0.139345
910.678 0.176653
910.965 0.211885
911.251 0.273159
911.538 0.395260
911.681 0.508266
911.825 0.697971
911.968 1.05331
912.040 1.35955
912.111 1.83472
912.183 2.62714
912.255 4.07110
912.291 5.26554
912.327 7.01139
912.362 9.63003
912.398 13.5564
912.449 21.6342
912.500 27.0028
912.551 21.6165
912.602 13.5426
912.645 9.01298
912.688 6.23560
912.731 4.50554
912.774 3.39053
912.860 2.11176
912.945 1.44706
913.031 1.06202
913.117 0.820454
913.288 0.547076
913.459 0.404779
913.631 0.321775
913.974 0.234359
914.316 0.192290
914.659 0.169407
915.345 0.147958
916.716 0.138371
918.087 0.143088
920.829 0.171643
923.572 0.229843
924.943 0.279277
926.314 0.354517
927.685 0.477047
929.056 0.696745
929.742 0.878830
930.427 1.15248
931.113 1.59128
931.799 2.36045
932.141 2.98334
932.484 3.89805
932.827 5.31871
933.170 7.69577
933.341 9.53369
933.512 12.1148
933.684 15.8917
933.855 21.7107
934.027 31.2823
934.198 48.3947
934.284 62.2578
934.369 82.2132
934.455 111.502
934.541 154.308
934.671 246.837
934.800 308.411
934.930 246.687
935.060 154.175
935.198 92.0147
935.337 58.5295
935.475 39.7823
935.614 28.5584
935.752 21.4062
935.890 16.6042
936.167 10.7949
936.444 7.56661
936.721 5.59782
937.274 3.42591
937.828 2.32040
938.382 1.68359
938.935 1.28401
939.489 1.01722
940.596 0.694912
941.704 0.515918
942.811 0.407345
943.918 0.337754
946.133 0.262747
948.347 0.245845
949.454 0.270015
950.008 0.302225
950.562 0.365398
951.115 0.502153
951.392 0.635308
951.669 0.868590
951.946 1.33077
952.084 1.75237
952.223 2.44728
952.361 3.70794
952.430 4.75816
952.499 6.33437
952.569 8.83375
952.638 13.0700
952.707 20.7972
952.776 35.5314
952.838 56.7540
952.900 70.9006
952.962 56.7198
953.024 35.5056
953.070 24.7280
953.116 17.7059
953.162 13.1190
953.208 10.0443
953.300 6.37227
953.391 4.39121
953.483 3.21309
953.575 2.46150
953.758 1.59506
953.942 1.13552
954.125 0.863381
954.492 0.570907
954.859 0.425258
955.226 0.342225
955.960 0.255689
956.694 0.213599
957.428 0.189901
958.896 0.165649
961.832 0.149294
964.768 0.147255
970.640 0.161014
976.512 0.194853
982.384 0.259721
988.256 0.391213
991.192 0.511601
994.128 0.710292
997.064 1.07248
998.532 1.37711
1000.00 1.84117
1001.04 2.33288
1002.07 3.05735
1003.11 4.18887
1004.15 6.09839
1005.18 9.69819
1005.70 12.8158
1006.22 17.6888
1006.74 25.8724
1007.00 32.1818
1007.25 40.9698
1007.51 53.5967
1007.77 72.3340
1008.03 100.900
1008.29 144.552
1008.65 231.769
1009.00 290.093
1009.36 231.641
1009.71 144.425
1010.10 85.3832
1010.48 54.0180
1010.86 36.5671
1011.25 26.2150
1011.63 19.6365
1012.02 15.2553
1012.79 10.0126
1013.55 7.21444
1014.32 5.82131
1014.71 5.69285
1015.09 6.44560
1015.28 7.71588
1015.48 10.7907
1015.57 14.0010
1015.67 19.8904
1015.76 31.8379
1015.81 42.4042
1015.86 58.1164
1015.93 91.0038
1016.00 112.881
1016.07 90.8920
1016.14 57.8906
1016.20 40.2678
1016.25 29.2290
1016.30 22.1134
1016.36 17.3781
1016.47 11.7380
1016.57 8.73032
1016.79 5.75327
1017.01 4.37031
1017.44 3.08974
1017.87 2.47903
1018.74 1.84501
1019.61 1.48710
1021.34 1.06354
1023.07 0.812810
1026.54 0.530167
1030.00 0.379935
1034.87 0.263670
1039.74 0.198758
1044.60 0.158868
1049.47 0.132656
1059.20 0.101621
1068.94 0.0849934
1078.67 0.0756610
1088.41 0.0711950
1093.27 0.0711164
1098.14 0.0746055
1100.57 0.0805215
1101.79 0.0865636
1103.01 0.0975865
1104.22 0.120909
1104.83 0.143814
1105.44 0.184759
1106.05 0.269602
1106.35 0.350880
1106.66 0.492713
1106.96 0.774054
1107.11 1.03182
1107.27 1.45928
1107.42 2.24256
1107.49 2.90213
1107.57 3.90293
1107.65 5.51427
1107.72 8.30593
1107.80 13.5651
1107.87 24.0439
1107.94 38.5155
1108.00 47.9485
1108.06 38.2762
1108.13 24.0462
1108.20 13.7603
1108.27 8.55775
1108.35 5.74021
1108.42 4.09119
1108.49 3.04559
1108.57 2.36270
1108.71 1.54534
1108.86 1.09350
1109.01 0.821941
1109.30 0.523340
1109.59 0.372437
1109.89 0.285887
1110.47 0.195716
1111.06 0.152308
1111.64 0.128294
1112.82 0.104444
1113.99 0.0940128
1115.16 0.0892717
1117.50 0.0881343
1119.85 0.0958082
1121.02 0.104995
1122.19 0.122070
1123.36 0.158158
1123.95 0.193406
1124.53 0.256298
1125.12 0.385954
1125.41 0.510079
1125.71 0.726432
1126.00 1.15509
1126.15 1.54913
1126.29 2.19752
1126.44 3.39275
1126.51 4.39165
1126.58 5.90330
1126.66 8.32816
1126.73 12.5070
1126.80 20.3177
1126.84 26.8325
1126.88 35.7105
1126.91 45.6635
1126.94 57.0258
1127.00 71.2089
1127.06 57.0226
1127.12 35.7067
1127.17 25.8100
1127.21 19.1820
1127.29 11.3679
1127.37 7.39060
1127.45 5.15765
1127.53 3.79681
1127.61 2.91205
1127.77 1.87534
1127.93 1.31687
1128.10 0.983059
1128.42 0.621843
1128.74 0.441435
1129.07 0.338886
1129.72 0.233395
1130.36 0.183543
1131.01 0.156850
1132.31 0.132479
1134.90 0.125384
1137.49 0.143492
1140.08 0.193860
1141.37 0.245622
1142.67 0.339910
1143.31 0.418941
1143.96 0.538590
1144.61 0.733043
1145.26 1.07937
1145.58 1.36518
1145.90 1.79236
1146.23 2.47199
1146.55 3.64488
1146.71 4.58532
1146.87 5.95004
1147.04 8.03583
1147.20 11.4483
1147.28 14.0276
1147.36 17.5745
1147.44 22.6251
1147.52 30.1273
1147.60 41.8577
1147.68 61.3482
1147.77 95.8912
1147.81 122.488
1147.85 158.221
1147.92 254.045
1148.00 316.944
1148.08 252.702
1148.16 158.188
1148.21 113.619
1148.26 83.3874
1148.31 62.9204
1148.36 48.7741
1148.47 31.4053
1148.57 21.7418
1148.68 15.8878
1148.78 12.0978
1148.99 7.68962
1149.19 5.30926
1149.40 3.89564
1149.82 2.36297
1150.23 1.59760
1150.65 1.16198
1151.06 0.891025
1151.48 0.711355
1152.31 0.495837
1153.14 0.377518
1154.80 0.261202
1156.46 0.211751
1158.12 0.191185
1161.44 0.195732
1163.10 0.217892
1164.76 0.258710
1166.42 0.331045
1168.08 0.466073
1168.91 0.580026
1169.74 0.752565
1170.57 1.03128
1171.40 1.52368
1171.82 1.92496
1172.23 2.51765
1172.65 3.44507
1173.06 5.01372
1173.48 7.97595
1173.68 10.5580
1173.89 14.5854
1174.10 21.4091
1174.20 26.6953
1174.31 34.0058
1174.41 44.6483
1174.51 60.5391
1174.62 84.9456
1174.72 122.088
1174.86 195.653
1175.00 244.242
1175.14 195.047
1175.28 122.042
1175.43 73.5093
1175.57 47.1884
1175.72 32.1996
1175.86 23.2261
1176.01 17.4388
1176.15 13.5658
1176.44 8.84390
1176.73 6.21110
1177.03 4.60088
1177.61 2.82255
1178.19 1.91344
1178.77 1.38888
1179.35 1.05935
1179.93 0.839438
1181.10 0.572945
1182.26 0.424956
1183.42 0.335278
1184.59 0.278351
1186.91 0.220547
1188.08 0.212927
1189.24 0.223206
1190.41 0.268538
1190.99 0.321011
1191.57 0.420434
1192.15 0.633880
1192.44 0.842429
1192.73 1.21097
1193.02 1.95315
1193.17 2.64596
1193.31 3.80403
1193.46 5.98962
1193.53 7.87682
1193.61 10.7636
1193.68 15.6269
1193.75 24.3225
1193.79 31.6811
1193.82 42.1524
1193.86 57.7362
1193.90 80.9017
1193.92 104.260
1193.95 129.937
1194.00 161.830
1194.05 128.942
1194.11 80.8923
1194.14 58.7912
1194.17 43.5816
1194.24 25.8632
1194.31 16.8145
1194.38 11.7226
1194.45 8.61430
1194.51 6.59089
1194.65 4.21670
1194.79 2.93569
1194.92 2.16888
1195.19 1.33725
1195.47 0.920192
1195.74 0.681758
1196.01 0.532678
1196.28 0.433490
1196.82 0.312670
1197.37 0.244660
1198.46 0.174135
1199.54 0.139462
1200.63 0.119472
1202.81 0.0977770
1207.16 0.0796781
1211.50 0.0728406
1215.85 0.0719706
1218.03 0.0743581
1220.20 0.0804961
1222.38 0.0954280
1223.47 0.110888
1224.55 0.139363
1225.10 0.163441
1225.64 0.200203
1226.19 0.260321
1226.73 0.368353
1227.00 0.458304
1227.27 0.593849
1227.55 0.811872
1227.82 1.19377
1227.95 1.50491
1228.09 1.96328
1228.22 2.67823
1228.36 3.88207
1228.50 6.13977
1228.56 8.08753
1228.63 11.1170
1228.70 16.1671
1228.77 25.3744
1228.80 32.9791
1228.84 44.1226
1228.87 60.8293
1228.90 84.9500
1228.95 136.204
1229.00 169.346
1229.05 135.083
1229.10 84.9418
1229.15 49.7082
1229.21 31.1700
1229.26 20.9856
1229.31 14.9685
1229.37 11.1702
1229.42 8.63757
1229.53 5.61516
1229.64 3.92759
1229.74 2.91082
1229.96 1.78581
1230.17 1.21270
1230.39 0.884791
1230.60 0.679071
1230.82 0.541664
1231.25 0.375116
1231.68 0.282436
1232.11 0.225628
1232.54 0.188441
1233.40 0.144719
1234.26 0.121716
1235.98 0.102864
1237.71 0.104689
1238.57 0.114628
1239.43 0.136480
1240.29 0.186123
1240.72 0.235584
1241.15 0.323982
1241.58 0.504891
1241.79 0.674866
1242.01 0.964706
1242.22 1.51852
1242.33 2.00851
1242.44 2.77899
1242.55 4.11457
1242.65 6.63822
1242.71 8.84217
1242.76 12.2318
1242.82 17.6387
1242.87 26.1392
1242.93 41.8604
1243.00 52.3720
1243.07 41.8619
1243.13 26.1412
1243.17 19.2390
1243.21 14.4176
1243.30 8.69545
1243.38 5.71590
1243.46 4.03360
1243.54 2.98201
1243.62 2.30051
1243.79 1.48858
1243.95 1.04720
1244.11 0.781677
1244.44 0.492427
1244.76 0.346794
1245.09 0.263353
1245.74 0.176254
1246.39 0.133986
1247.05 0.110248
1248.35 0.0857776
1249.65 0.0739276
1250.96 0.0672283
1253.57 0.0601989
1258.78 0.0547506
1264.00 0.0529641
1268.97 0.0530377
1273.94 0.0560479
1276.42 0.0610166
1278.91 0.0755097
1280.15 0.0955415
1280.77 0.115291
1281.39 0.150791
1282.02 0.224516
1282.33 0.295632
1282.64 0.419775
1282.95 0.668210
1283.10 0.896435
1283.26 1.27690
1283.41 1.98592
1283.49 2.59038
1283.57 3.50409
1283.65 5.01438
1283.72 7.64569
1283.80 12.8144
1283.84 17.2197
1283.88 23.3824
1283.94 37.3148
1284.00 46.5752
1284.06 37.3163
1284.12 23.3844
1284.19 14.0003
1284.25 8.98494
1284.32 6.15045
1284.38 4.44185
1284.44 3.33389
1284.51 2.60079
1284.64 1.70985
1284.77 1.20960
1284.89 0.906293
1285.15 0.569530
1285.41 0.397841
1285.66 0.298765
1286.18 0.194975
1286.69 0.144399
1287.20 0.116122
1288.23 0.0871894
1290.29 0.0658730
1292.34 0.0582302
1296.45 0.0527236
1300.56 0.0508717
1308.77 0.0499641
1316.99 0.0505357
1325.21 0.0525353
1333.42 0.0581185
1337.53 0.0653669
1339.59 0.0723143
1341.64 0.0846187
1343.70 0.110034
1344.72 0.134658
1345.75 0.178499
1346.26 0.214760
1346.78 0.269129
1347.29 0.356675
1347.80 0.510859
1348.06 0.637041
1348.32 0.824270
1348.57 1.11954
1348.83 1.62279
1349.09 2.59612
1349.22 3.46608
1349.34 4.85324
1349.47 7.29897
1349.60 12.0659
1349.67 16.3134
1349.73 23.0267
1349.79 34.1359
1349.86 52.8389
1349.93 84.8711
1350.00 105.891
1350.07 84.4010
1350.14 52.8484
1350.20 35.2871
1350.26 24.5653
1350.32 17.8136
1350.38 13.4058
1350.49 8.27293
1350.61 5.60718
1350.73 4.04185
1350.84 3.06594
1351.08 1.95579
1351.31 1.38226
1351.54 1.05504
1352.01 0.742514
1352.47 0.672687
1352.71 0.719942
1352.94 0.855368
1353.17 1.16772
1353.29 1.46369
1353.41 1.94565
1353.52 2.80708
1353.64 4.49535
1353.70 6.00149
1353.75 8.38002
1353.81 12.3064
1353.87 18.8873
1353.94 30.0408
1354.00 37.4520
1354.07 30.0333
1354.13 18.8715
1354.21 10.8373
1354.28 6.73644
1354.36 4.53244
1354.43 3.26203
1354.51 2.45465
1354.58 1.92563
1354.74 1.28651
1354.89 0.931751
1355.04 0.717022
1355.34 0.478321
1355.64 0.354168
1355.95 0.281034
1356.55 0.201019
1357.15 0.159418
1357.76 0.134574
1358.97 0.106931
1360.18 0.0924432
1361.39 0.0838925
1363.80 0.0750224
1368.64 0.0704687
1373.48 0.0741887
1378.31 0.0873055
1380.73 0.101215
1383.15 0.126796
1384.36 0.148348
1385.57 0.181199
1386.77 0.234892
1387.98 0.331715
1388.59 0.412481
1389.19 0.534303
1389.80 0.731374
1390.40 1.07985
1390.70 1.36594
1391.01 1.78901
1391.31 2.45480
1391.61 3.59045
1391.91 5.77379
1392.06 7.69476
1392.22 10.7523
1392.37 16.0223
1392.44 20.2238
1392.52 26.1396
1392.59 35.0274
1392.67 48.5748
1392.74 70.6142
1392.82 105.866
1392.91 169.606
1393.00 211.420
1393.09 168.838
1393.18 105.845
1393.24 77.6069
1393.30 57.9491
1393.41 34.7304
1393.52 22.7049
1393.64 15.9221
1393.75 11.7112
1393.86 8.95952
1394.09 5.72927
1394.32 3.97094
1394.55 2.92046
1395.00 1.77594
1395.46 1.20152
1395.91 0.873396
1396.37 0.668664
1396.82 0.532476
1397.73 0.368382
1398.64 0.277197
1399.55 0.221476
1400.46 0.185094
1402.28 0.142246
1404.10 0.119359
1407.74 0.0982174
1411.38 0.0909691
1415.02 0.0901918
1422.30 0.101526
1425.94 0.114619
1429.58 0.135918
1433.21 0.171757
1436.85 0.237167
1438.67 0.291849
1440.49 0.374463
1442.31 0.507690
1444.13 0.742805
1445.04 0.934600
1445.95 1.21816
1446.86 1.66262
1447.77 2.41536
1448.23 3.00537
1448.68 3.84431
1449.14 5.09221
1449.59 7.05836
1450.05 10.3978
1450.27 13.0081
1450.50 16.6655
1450.73 22.0146
1450.96 30.0524
1451.18 42.5592
1451.41 62.1248
1451.71 99.5677
1452.00 124.596
1452.30 99.5218
1452.59 62.0804
1452.81 42.7988
1453.04 30.3761
1453.26 22.3376
1453.48 16.9787
1453.93 10.6430
1454.37 7.24678
1454.82 5.23972
1455.27 3.96284
1456.16 2.49945
1457.05 1.72690
1457.94 1.27339
1458.83 0.986226
1459.72 0.795838
1461.51 0.579704
1463.29 0.516045
1464.18 0.568030
1464.63 0.644406
1465.07 0.796297
1465.52 1.12426
1465.74 1.43888
1465.97 1.97855
1466.19 3.01017
1466.30 3.91968
1466.41 5.34303
1466.52 7.78856
1466.63 12.3459
1466.69 16.2639
1466.75 22.0644
1466.80 31.2508
1466.86 45.3383
1466.93 72.3418
1467.00 90.3206
1467.07 72.3395
1467.14 45.3337
1467.21 30.0469
1467.27 20.8073
1467.33 14.9675
1467.39 11.2574
1467.51 6.96450
1467.63 4.74550
1467.75 3.44542
1467.87 2.63434
1468.11 1.70758
1468.35 1.21971
1468.59 0.933415
1469.07 0.625027
1469.56 0.469232
1470.04 0.378662
1471.00 0.279992
1471.97 0.227870
1472.93 0.195534
1474.86 0.156841
1478.72 0.118258
1482.58 0.0982535
1490.30 0.0777329
1498.01 0.0678970
1505.73 0.0630066
1513.45 0.0618215
1517.31 0.0634224
1521.17 0.0694177
1523.10 0.0777286
1525.03 0.100137
1525.99 0.129844
1526.47 0.158580
1526.96 0.209541
1527.44 0.314103
1527.68 0.413335
1527.92 0.584938
1528.16 0.920792
1528.28 1.22578
1528.40 1.71985
1528.52 2.61284
1528.58 3.34197
1528.64 4.42129
1528.70 6.13655
1528.76 8.93550
1528.82 13.8610
1528.88 22.8137
1528.94 36.3939
1529.00 45.4193
1529.06 36.3950
1529.12 22.8155
1529.16 16.0170
1529.20 11.5380
1529.24 8.58496
1529.28 6.58750
1529.37 4.19063
1529.45 2.88724
1529.54 2.10969
1529.62 1.61173
1529.79 1.03677
1529.96 0.731435
1530.12 0.550700
1530.46 0.357078
1530.80 0.261558
1531.13 0.207990
1531.80 0.154422
1532.48 0.131282
1533.15 0.121497
1534.49 0.123213
1535.84 0.151912
1536.51 0.184895
1537.18 0.246184
1537.51 0.297697
1537.85 0.375472
1538.19 0.500439
1538.52 0.719491
1538.86 1.15614
1539.03 1.55799
1539.19 2.22739
1539.36 3.46209
1539.45 4.50880
1539.53 6.10779
1539.61 8.70622
1539.70 13.2683
1539.78 22.0318
1539.82 29.4096
1539.87 39.6545
1539.93 63.5167
1540.00 79.0807
1540.07 63.1448
1540.14 39.6571
1540.18 28.1864
1540.23 20.6402
1540.28 15.4611
1540.32 11.9821
1540.41 7.68712
1540.51 5.33477
1540.60 3.89801
1540.69 2.97173
1540.88 1.89925
1541.06 1.32198
1541.25 0.980192
1541.62 0.610281
1541.99 0.425886
1542.36 0.321029
1542.73 0.255843
1543.10 0.212729
1543.84 0.160941
1544.59 0.132588
1546.07 0.105142
1547.55 0.0946077
1549.03 0.0927052
1550.52 0.0988028
1552.00 0.119831
1552.97 0.155520
1553.45 0.190757
1553.93 0.253547
1554.42 0.381732
1554.66 0.503078
1554.90 0.710172
1555.14 1.11116
1555.26 1.46787
1555.38 2.03481
1555.50 3.03071
1555.62 4.98051
1555.68 6.73243
1555.74 9.44920
1555.80 13.9085
1555.86 21.3350
1555.93 34.0251
1556.00 42.4562
1556.07 34.0236
1556.14 21.3333
1556.21 12.4036
1556.29 7.75329
1556.37 5.21816
1556.44 3.72835
1556.52 2.79144
1556.60 2.16843
1556.75 1.42206
1556.91 1.01132
1557.06 0.762345
1557.37 0.490017
1557.68 0.351766
1557.98 0.272587
1558.60 0.190571
1559.21 0.151548
1559.83 0.130572
1561.06 0.111422
1562.29 0.105646
1563.52 0.106526
1565.98 0.123194
1567.22 0.140946
1568.45 0.169546
1569.68 0.217633
1570.91 0.305710
1571.52 0.379715
1572.14 0.491806
1572.76 0.673852
1573.37 0.997212
1573.68 1.26319
1573.99 1.65925
1574.29 2.28596
1574.60 3.35861
1574.91 5.43980
1575.06 7.29656
1575.22 10.2884
1575.37 15.5388
1575.45 19.7677
1575.53 25.9074
1575.60 35.2157
1575.68 50.0366
1575.76 74.7908
1575.83 116.185
1575.92 185.695
1576.00 231.957
1576.08 185.677
1576.17 116.167
1576.25 73.9508
1576.32 49.2985
1576.40 34.6129
1576.48 25.5157
1576.63 15.3046
1576.79 10.1344
1576.94 7.18791
1577.10 5.35907
1577.41 3.30881
1577.72 2.24676
1578.03 1.63106
1578.34 1.24171
1578.65 0.980081
1579.27 0.661006
1579.89 0.481874
1580.51 0.371229
1581.13 0.298142
1582.37 0.210594
1583.61 0.162240
1584.85 0.132719
1586.09 0.113428
1588.57 0.0906261
1591.06 0.0783159
1596.02 0.0668350
1600.98 0.0637397
1603.46 0.0648088
1605.94 0.0687632
1608.42 0.0791458
1609.66 0.0900998
1610.90 0.110392
1612.14 0.153796
1612.76 0.196554
1613.38 0.273241
1613.70 0.336944
1614.01 0.432208
1614.32 0.584366
1614.63 0.849442
1614.94 1.37361
1615.09 1.85211
1615.25 2.64244
1615.40 4.08170
1615.48 5.29527
1615.56 7.10116
1615.63 10.0215
1615.71 14.9511
1615.79 24.1869
1615.87 41.8776
1615.93 67.1662
1616.00 83.6929
1616.07 66.7714
1616.14 41.8801
1616.21 24.6819
1616.28 15.5613
1616.36 10.5191
1616.43 7.55849
1616.50 5.65257
1616.58 4.37954
1616.73 2.85503
1616.87 2.00515
1617.02 1.49141
1617.32 0.923467
1617.61 0.634905
1617.91 0.468740
1618.20 0.364457
1618.50 0.294766
1619.09 0.210338
1619.68 0.163095
1620.86 0.114857
1622.04 0.0919742
1623.22 0.0793562
1625.57 0.0666935
1630.29 0.0579239
1635.01 0.0559517
1639.73 0.0576755
1642.09 0.0605962
1644.45 0.0665280
1646.81 0.0798020
1647.99 0.0932021
1649.17 0.117676
1649.76 0.138297
1650.35 0.169727
1650.94 0.221049
1651.53 0.313360
1651.83 0.390025
1652.12 0.505412
1652.42 0.690709
1652.71 1.01612
1652.86 1.28106
1653.01 1.66796
1653.15 2.27402
1653.30 3.28366
1653.45 5.17964
1653.52 6.80867
1653.60 9.28874
1653.67 13.4369
1653.74 20.7790
1653.78 26.8273
1653.82 35.5877
1653.85 48.5378
1653.89 67.0108
1653.92 86.1443
1653.95 107.213
1654.00 134.023
1654.03 125.863
1654.06 107.208
1654.11 67.0055
1654.16 44.1342
1654.20 30.4362
1654.25 21.7618
1654.30 16.2918
1654.39 9.95893
1654.48 6.67404
1654.58 4.77331
1654.67 3.58132
1654.85 2.23200
1655.04 1.52838
1655.23 1.11646
1655.41 0.855002
1655.60 0.679613
1655.97 0.464053
1656.34 0.342756
1656.71 0.267484
1657.08 0.217834
1657.83 0.158172
1658.57 0.125209
1659.31 0.105085
1660.06 0.0919138
1661.54 0.0763172
1663.03 0.0678531
1666.00 0.0597041
1668.97 0.0567420
1671.95 0.0575316
1673.43 0.0608608
1674.92 0.0715001
1675.66 0.0863603
1676.41 0.126865
1676.78 0.179826
1677.15 0.314704
1677.33 0.478522
1677.52 0.855177
1677.61 1.25661
1677.71 2.03363
1677.75 2.72544
1677.80 3.77976
1677.85 5.48036
1677.89 8.25461
1677.95 13.2227
1678.00 16.4536
1678.06 13.1268
1678.11 8.25507
1678.14 6.13490
1678.18 4.63776
1678.24 2.83769
1678.31 1.88786
1678.37 1.34176
1678.51 0.780971
1678.64 0.517213
1678.90 0.286971
1679.17 0.192598
1679.69 0.117833
1680.22 0.0894855
1681.28 0.0680780
1682.33 0.0602517
1686.55 0.0525962
1690.77 0.0517380
1694.99 0.0526939
1699.21 0.0558810
1703.44 0.0656132
1705.55 0.0791979
1706.60 0.0926960
1707.66 0.117183
1708.71 0.168835
1709.24 0.219493
1709.77 0.309828
1710.03 0.384496
1710.29 0.496208
1710.56 0.674150
1710.82 0.981403
1711.09 1.58677
1711.22 2.13559
1711.35 3.03530
1711.48 4.65520
1711.55 5.99453
1711.61 7.98958
1711.68 11.1205
1711.75 16.3485
1711.81 25.6755
1711.88 42.5654
1711.94 67.9186
1712.00 84.7555
1712.06 67.4836
1712.13 42.2269
1712.18 27.4547
1712.23 18.7334
1712.29 13.3054
1712.34 9.90737
1712.45 6.02052
1712.56 4.02353
1712.67 2.87493
1712.78 2.15753
1713.00 1.34852
1713.22 0.928141
1713.43 0.682592
1713.65 0.526970
1713.87 0.422229
1714.31 0.294436
1714.74 0.222440
1715.61 0.148582
1716.48 0.113343
1717.36 0.0938694
1719.10 0.0742501
1722.59 0.0601260
1726.07 0.0553046
1733.05 0.0523538
1740.02 0.0521195
1746.99 0.0532012
1753.96 0.0562088
1757.45 0.0597647
1760.94 0.0687428
1762.68 0.0804998
1764.42 0.112612
1765.30 0.156040
1765.73 0.198611
1766.17 0.274643
1766.60 0.432291
1766.82 0.583664
1767.04 0.848145
1767.26 1.37375
1767.37 1.85624
1767.48 2.65802
1767.58 4.13164
1767.64 5.39025
1767.69 7.27084
1767.75 10.3700
1767.80 15.6714
1767.86 25.6817
1767.88 33.9798
1767.91 45.7026
1767.96 73.1619
1768.00 91.4978
1768.05 73.1627
1768.09 45.7041
1768.13 29.0121
1768.17 19.3086
1768.22 13.5468
1768.26 9.94864
1768.34 5.96144
1768.43 3.96937
1768.51 2.82033
1768.59 2.11595
1768.76 1.32064
1768.93 0.907944
1769.09 0.669561
1769.43 0.417542
1769.76 0.293945
1770.10 0.224735
1770.77 0.153814
1771.44 0.120231
1772.10 0.101818
1773.44 0.0835852
1776.12 0.0713333
1778.79 0.0682034
1784.14 0.0692270
1789.49 0.0746880
1794.84 0.0848879
1800.19 0.105207
1802.87 0.125848
1804.21 0.143267
1805.54 0.171639
1806.88 0.226426
1807.55 0.277709
1808.22 0.367359
1808.89 0.550970
1809.22 0.727572
1809.56 1.03715
1809.89 1.66355
1810.06 2.24762
1810.23 3.23831
1810.39 5.11890
1810.48 6.77508
1810.56 9.35620
1810.64 13.8032
1810.69 17.2864
1810.73 22.0696
1810.77 29.2047
1810.81 40.0283
1810.85 56.9833
1810.89 82.8875
1810.95 132.877
1811.00 165.318
1811.05 131.885
1811.11 82.8822
1811.15 56.4788
1811.19 39.7099
1811.23 28.9991
1811.28 21.9326
1811.36 13.6674
1811.44 9.32247
1811.53 6.73421
1811.61 5.11232
1811.78 3.24314
1811.94 2.25915
1812.11 1.68000
1812.44 1.06270
1812.78 0.759482
1813.11 0.589695
1813.78 0.419141
1814.45 0.342980
1815.12 0.306094
1816.45 0.283247
1819.13 0.322360
1821.80 0.443173
1823.13 0.550478
1824.47 0.714421
1825.81 0.979503
1827.14 1.44606
1828.48 2.38085
1829.15 3.24401
1829.82 4.68771
1830.48 7.36699
1830.82 9.65308
1831.15 13.1688
1831.49 18.9367
1831.82 29.2094
1832.15 49.3947
1832.32 66.7835
1832.49 92.1323
1832.74 147.792
1833.00 184.799
1833.26 147.518
1833.51 92.1087
1833.79 54.3009
1834.07 34.2924
1834.35 23.2004
1834.63 16.6036
1834.91 12.4072
1835.19 9.61071
1835.75 6.23788
1836.31 4.36669
1836.86 3.22947
1837.98 1.97571
1839.10 1.33841
1840.22 0.971292
1841.33 0.740823
1842.45 0.586762
1844.68 0.400062
1846.92 0.295548
1849.15 0.231204
1851.39 0.188796
1855.85 0.138135
1860.32 0.110182
1864.79 0.0931533
1869.26 0.0820286
1878.19 0.0689007
1887.13 0.0618131
1896.07 0.0576453
1905.00 0.0550956
1925.44 0.0527709
1935.65 0.0541363
1938.21 0.0558542
1940.76 0.0606580
1942.04 0.0671696
1943.32 0.0849681
1943.95 0.108618
1944.59 0.170857
1944.91 0.249782
1945.23 0.442100
1945.39 0.663607
1945.55 1.13223
1945.63 1.59210
1945.71 2.39506
1945.79 3.92500
1945.83 5.20326
1945.87 6.96557
1945.94 11.1494
1946.00 13.8832
1946.07 11.0815
1946.13 6.96512
1946.20 4.23160
1946.27 2.73409
1946.34 1.88551
1946.40 1.37314
1946.54 0.823143
1946.67 0.555388
1946.95 0.312360
1947.22 0.210652
1947.76 0.128554
1948.30 0.0970381
1949.39 0.0731993
1950.47 0.0645424
1952.65 0.0583550
1954.82 0.0563746
1959.16 0.0555872
1963.50 0.0563146
1967.84 0.0581587
1972.19 0.0621895
1974.36 0.0666237
1976.53 0.0772583
1977.62 0.0906282
1978.70 0.125680
1979.24 0.171186
1979.79 0.288956
1980.06 0.435492
1980.19 0.568250
1980.33 0.783764
1980.47 1.17367
1980.53 1.49585
1980.60 1.96685
1980.67 2.71380
1980.74 3.95870
1980.80 6.17471
1980.87 10.1833
1980.94 16.3320
1981.00 20.3584
1981.07 16.2306
1981.13 10.1830
1981.17 7.56543
1981.21 5.75833
1981.28 3.54027
1981.36 2.36324
1981.44 1.69074
1981.51 1.26638
1981.59 0.989904
1981.74 0.658447
1981.90 0.476452
1982.05 0.367563
1982.36 0.248809
1982.97 0.155266
1983.58 0.120844
1984.81 0.0981014
1986.03 0.0954473
1987.26 0.104989
1987.87 0.117053
1988.48 0.139946
1989.10 0.189025
1989.40 0.237453
1989.71 0.323974
1990.02 0.503624
1990.17 0.675451
1990.32 0.975058
1990.48 1.56857
1990.55 2.11600
1990.63 3.01052
1990.71 4.66866
1990.74 6.04502
1990.78 8.12322
1990.82 11.5598
1990.86 17.3548
1990.88 21.8750
1990.90 28.1604
1990.92 37.0114
1990.94 49.3965
1990.95 63.9237
1990.97 79.5144
1991.00 98.7994
1991.02 92.4682
1991.03 78.5398
1991.07 49.3946
1991.10 29.3619
1991.14 18.6287
1991.17 12.6483
1991.21 9.07970
1991.24 6.81106
1991.28 5.29046
1991.35 3.45404
1991.42 2.43544
1991.49 1.81461
1991.62 1.13373
1991.76 0.784250
1991.90 0.584216
1992.18 0.373727
1992.46 0.271433
1992.74 0.214629
1993.30 0.157109
1993.86 0.130382
1994.42 0.116239
1995.53 0.103416
1997.77 0.0988589
2000.00 0.103986
2002.57 0.116981
2005.15 0.139003
2007.72 0.176203
2010.29 0.243974
2011.58 0.300620
2012.86 0.386121
2014.15 0.523984
2015.44 0.767429
2016.08 0.966283
2016.72 1.25985
2017.37 1.71987
2018.01 2.49964
2018.33 3.11110
2018.65 3.97729
2018.97 5.26875
2019.29 7.29463
2019.62 10.7404
2019.78 13.4237
2019.94 17.1678
2020.10 22.6376
2020.26 30.8730
2020.42 43.6558
2020.58 63.4299
2020.79 101.452
2021.00 126.788
2021.21 101.428
2021.42 63.4066
2021.61 40.7994
2021.80 27.4799
2021.99 19.4407
2022.18 14.3593
2022.56 8.65211
2022.93 5.75395
2023.31 4.09196
2023.69 3.06077
2024.45 1.90147
2025.20 1.30024
2025.96 0.950326
2026.72 0.728630
2027.47 0.579820
2028.99 0.398340
2030.50 0.296422
2032.01 0.233592
2033.53 0.192220
2036.55 0.143066
2039.58 0.116463
2042.61 0.100917
2045.63 0.0916410
2051.69 0.0845650
2054.71 0.0860345
2057.74 0.0923060
2060.77 0.108068
2062.28 0.123695
2063.79 0.151024
2065.31 0.205654
2066.06 0.256915
2066.82 0.345590
2067.58 0.523544
2067.95 0.690757
2068.33 0.979138
2068.71 1.54799
2068.90 2.06593
2069.09 2.92323
2069.28 4.49319
2069.37 5.82444
2069.47 7.82541
2069.56 11.0895
2069.66 16.7031
2069.70 21.2272
2069.75 27.4548
2069.80 36.3037
2069.84 48.8026
2069.88 62.3812
2069.92 77.8792
2070.00 97.2215
2070.04 91.5369
2070.08 77.8819
2070.16 48.8113
2070.25 28.2713
2070.33 17.6367
2070.42 11.8643
2070.51 8.48303
2070.60 6.36251
2070.69 4.95621
2070.87 3.28528
2071.05 2.36658
2071.22 1.81909
2071.58 1.23437
2071.93 0.963907
2072.29 0.839411
2073.00 0.826777
2073.71 1.09797
2074.06 1.41515
2074.42 1.99399
2074.77 3.15985
2074.95 4.23156
2075.13 5.98855
2075.31 9.18991
2075.40 11.8549
2075.48 15.7945
2075.57 22.0824
2075.66 32.6982
2075.71 40.9337
2075.75 51.9445
2075.79 67.0915
2075.84 87.7672
2075.92 140.426
2076.00 175.559
2076.08 140.412
2076.16 87.7495
2076.24 54.3313
2076.32 35.6706
2076.40 24.6858
2076.48 18.0187
2076.56 13.6323
2076.64 10.6829
2076.80 7.03584
2076.96 4.98049
2077.12 3.71400
2077.43 2.30306
2077.75 1.57750
2078.07 1.15598
2078.39 0.889504
2078.71 0.710735
2079.34 0.491536
2079.98 0.367499
2080.61 0.290327
2081.25 0.239001
2082.52 0.176680
2083.79 0.141633
2086.33 0.105419
2088.88 0.0880202
2091.42 0.0784560
2096.51 0.0695966
2101.59 0.0679058
2104.14 0.0696068
2106.68 0.0742948
2109.22 0.0857232
2110.49 0.0974814
2111.76 0.119011
2113.04 0.164658
2113.67 0.209433
2114.31 0.289298
2114.94 0.453949
2115.26 0.611045
2115.58 0.883502
2115.90 1.41859
2116.06 1.90351
2116.22 2.69814
2116.37 4.12812
2116.45 5.31883
2116.53 7.06950
2116.61 9.85169
2116.69 14.4367
2116.77 22.5850
2116.85 37.5995
2116.93 60.1858
2117.00 75.2682
2117.08 60.1857
2117.15 37.6005
2117.21 25.5718
2117.27 18.0557
2117.33 13.2299
2117.38 10.0317
2117.50 6.27236
2117.62 4.26815
2117.73 3.08764
2117.85 2.33815
2118.08 1.47972
2118.31 1.02710
2118.54 0.760244
2118.78 0.590021
2119.01 0.474917
2119.47 0.333616
2119.94 0.253894
2120.86 0.171835
2121.79 0.132752
2122.72 0.111336
2124.58 0.0902873
2128.29 0.0775003
2132.01 0.0776975
2135.72 0.0865189
2137.58 0.0960058
2139.43 0.112462
2141.29 0.144508
2142.22 0.173961
2143.15 0.224259
2144.08 0.324408
2144.54 0.418653
2145.01 0.582472
2145.47 0.911283
2145.70 1.21762
2145.93 1.73831
2146.17 2.73277
2146.28 3.60909
2146.40 5.00410
2146.51 7.41062
2146.63 12.0396
2146.69 16.0825
2146.75 22.3434
2146.80 32.4246
2146.86 48.8375
2146.93 78.0409
2147.00 97.5058
2147.07 78.0443
2147.14 48.8458
2147.20 32.0001
2147.26 21.8279
2147.32 15.5999
2147.38 11.6218
2147.50 7.11714
2147.62 4.81574
2147.74 3.47894
2147.86 2.64581
2148.10 1.71357
2148.34 1.23219
2148.58 0.957594
2149.05 0.681177
2149.53 0.566694
2150.01 0.528180
2150.97 0.586485
2151.45 0.682552
2151.92 0.844887
2152.40 1.11959
2152.88 1.61009
2153.36 2.59527
2153.60 3.49806
2153.84 4.99333
2153.96 6.14184
2154.08 7.73964
2154.20 10.0486
2154.32 13.5092
2154.44 19.0984
2154.56 28.6228
2154.62 36.1034
2154.68 46.5090
2154.74 61.1637
2154.80 81.2623
2154.90 130.182
2155.00 162.352
2155.10 129.662
2155.21 81.2469
2155.33 46.2909
2155.45 28.5035
2155.57 18.9658
2155.69 13.4226
2155.81 9.96309
2155.93 7.67515
2156.16 4.95659
2156.40 3.45983
2156.64 2.55832
2157.12 1.56868
2157.60 1.06730
2158.08 0.779918
2158.56 0.599657
2159.04 0.479158
2160.00 0.332874
2160.96 0.250890
2161.92 0.200212
2162.87 0.166744
2164.79 0.126588
2166.71 0.104393
2168.62 0.0909701
2170.54 0.0824343
2174.38 0.0737515
2178.21 0.0741632
2180.13 0.0810490
2182.04 0.104344
2183.00 0.137481
2183.48 0.170190
2183.96 0.228721
2184.44 0.349364
2184.68 0.464188
2184.92 0.661510
2185.16 1.04757
2185.28 1.39477
2185.40 1.95290
2185.52 2.95011
2185.58 3.76280
2185.64 4.95626
2185.70 6.79362
2185.76 9.78122
2185.82 14.9177
2185.88 23.7813
2185.94 38.2056
2186.00 47.6421
2186.06 37.9575
2186.12 23.7820
2186.17 16.8609
2186.21 12.2467
2186.25 9.17024
2186.29 7.11072
2186.38 4.54616
2186.47 3.15171
2186.55 2.30285
2186.64 1.76251
2186.81 1.13049
2186.98 0.792832
2187.15 0.592025
2187.49 0.375574
2187.83 0.267679
2188.18 0.206267
2188.86 0.142570
2190.23 0.0947152
2191.59 0.0771561
2194.33 0.0640045
2197.06 0.0591425
2202.53 0.0557171
2208.00 0.0553355
2213.48 0.0574065
2216.21 0.0601312
2218.95 0.0654665
2221.68 0.0772462
2223.05 0.0891055
2224.42 0.110767
2225.10 0.129031
2225.78 0.156895
2226.47 0.202467
2227.15 0.284468
2227.49 0.352800
2227.83 0.455880
2228.18 0.621937
2228.52 0.914903
2228.69 1.15357
2228.86 1.50605
2229.03 2.05771
2229.20 2.99115
2229.29 3.72546
2229.37 4.75493
2229.46 6.29976
2229.54 8.69420
2229.63 12.7834
2229.67 15.9584
2229.72 20.2857
2229.76 26.6693
2229.80 35.9456
2229.84 50.4769
2229.89 72.2187
2229.94 115.798
2230.00 144.132
2230.06 114.992
2230.12 72.2124
2230.15 51.7436
2230.19 37.8958
2230.23 28.5460
2230.27 22.0990
2230.35 14.2043
2230.43 9.82384
2230.51 7.17523
2230.58 5.46276
2230.74 3.46681
2230.90 2.39688
2231.05 1.75926
2231.36 1.07229
2231.67 0.728026
2231.99 0.532098
2232.30 0.410134
2232.61 0.329332
2233.23 0.231695
2233.86 0.177486
2234.48 0.144215
2235.10 0.122403
2236.35 0.0964213
2237.60 0.0821432
2240.09 0.0678081
2242.59 0.0611283
2245.08 0.0575026
2250.07 0.0539597
2260.04 0.0517525
2270.02 0.0515539
2289.97 0.0539811
2299.94 0.0575282
2304.93 0.0620340
2307.42 0.0713249
2308.67 0.100442
2308.98 0.127678
2309.29 0.197230
2309.45 0.282625
2309.61 0.482515
2309.68 0.700354
2309.76 1.13419
2309.84 2.15895
2309.88 3.22766
2309.92 5.01311
2309.96 8.03471
2310.00 9.99072
2310.04 7.95784
2310.08 5.01309
2310.13 2.86495
2310.18 1.79605
2310.23 1.21045
2310.28 0.877183
2310.37 0.527097
2310.47 0.361076
2310.67 0.215341
2310.86 0.155423
2311.63 0.0903529
2313.19 0.0735333
2316.29 0.0734429
2319.39 0.0796889
2322.49 0.0907137
2325.59 0.110463
2327.14 0.126889
2328.69 0.152153
2330.24 0.195721
2331.02 0.231971
2331.79 0.289224
2332.57 0.394068
2332.96 0.487389
2333.34 0.643434
2333.73 0.947532
2333.92 1.22738
2334.12 1.69750
2334.31 2.59880
2334.41 3.39643
2334.41 3.43760
2334.42 3.46900
2334.42 3.53319
2334.43 3.66742
2334.46 3.96156
2334.51 4.67476
2334.60 6.90523
2334.70 11.2788
2334.72 13.0784
2334.75 15.2283
2334.77 17.9244
2334.80 21.3460
2334.82 25.7367
2334.84 31.4189
2334.87 38.7909
2334.89 48.2619
2334.92 61.6364
2334.95 76.8968
2335.00 95.9373
2335.03 90.3444
2335.05 76.9051
2335.11 48.2807
2335.15 31.9910
2335.20 22.2090
2335.24 16.1056
2335.29 12.1502
2335.38 7.57267
2335.47 5.22317
2335.56 3.85039
2335.65 3.00286
2335.83 2.05199
2336.01 1.56774
2336.19 1.29987
2336.55 1.05895
2336.92 1.00145
2337.28 1.04270
2338.00 1.36461
2338.68 2.10213
2339.02 2.80166
2339.35 3.96619
2339.52 4.86451
2339.69 6.10689
2339.86 7.89884
2340.03 10.6045
2340.20 14.9284
2340.37 22.3374
2340.45 28.1331
2340.54 36.0671
2340.62 47.3245
2340.71 62.8152
2340.85 100.623
2341.00 125.609
2341.15 100.332
2341.29 62.7959
2341.44 38.7247
2341.58 25.2928
2341.73 17.4733
2341.88 12.7178
2342.02 9.61586
2342.17 7.52243
2342.46 4.95451
2342.75 3.50418
2343.04 2.61213
2343.62 1.62148
2344.20 1.11220
2344.78 0.817544
2345.36 0.631723
2345.94 0.507143
2347.11 0.355844
2348.27 0.271465
2349.43 0.220233
2350.60 0.187592
2352.92 0.153918
2355.25 0.153061
2356.41 0.175264
2356.99 0.201477
2357.57 0.251423
2358.15 0.359017
2358.45 0.464365
2358.74 0.650003
2359.03 1.02556
2359.17 1.37385
2359.32 1.96014
2359.46 3.06944
2359.54 4.02984
2359.61 5.50292
2359.68 7.99414
2359.75 12.4741
2359.79 16.2873
2359.83 21.7433
2359.86 29.9169
2359.90 42.1553
2359.92 54.0494
2359.95 67.6298
2360.00 84.1674
2360.05 67.1055
2360.10 42.1525
2360.14 31.0472
2360.17 23.4810
2360.23 14.3541
2360.29 9.51776
2360.35 6.72820
2360.42 4.97383
2360.48 3.83958
2360.60 2.49129
2360.73 1.75014
2360.85 1.30717
2361.10 0.822805
2361.35 0.577356
2361.60 0.437109
2362.09 0.290160
2362.59 0.218761
2363.09 0.178626
2364.08 0.137221
2365.08 0.117176
2366.07 0.105895
2368.06 0.0942828
2372.03 0.0863696
2376.01 0.0855466
2383.96 0.0949172
2387.94 0.109778
2388.93 0.118755
2389.93 0.138788
2390.43 0.163080
2390.92 0.225222
2391.17 0.303971
2391.42 0.499265
2391.54 0.732358
2391.67 1.24797
2391.73 1.77720
2391.79 2.75615
2391.82 3.57704
2391.85 4.79806
2391.89 6.66449
2391.92 9.52345
2391.96 15.1556
2392.00 18.9050
2392.04 15.1557
2392.08 9.52384
2392.11 6.97037
2392.14 5.26047
2392.19 3.22312
2392.24 2.14230
2392.29 1.53885
2392.40 0.917179
2392.50 0.627315
2392.71 0.376328
2392.92 0.274892
2393.34 0.195747
2393.76 0.167185
2394.60 0.148797
2395.44 0.145638
2398.79 0.165054
2402.14 0.208578
2405.50 0.287978
2407.17 0.353133
2408.85 0.449626
2410.53 0.600995
2412.20 0.857579
2413.04 1.05874
2413.88 1.34436
2414.72 1.76893
2415.56 2.43721
2416.40 3.57230
2416.82 4.45510
2417.23 5.69565
2417.65 7.49813
2418.07 10.2110
2418.49 14.4193
2418.91 20.9728
2419.46 33.4300
2420.00 41.6879
2420.55 33.2897
2421.10 20.7647
2421.63 13.0016
2422.16 8.57680
2422.69 5.98402
2423.21 4.38020
2423.74 3.33221
2424.27 2.61776
2425.33 1.73793
2426.38 1.24018
2427.44 0.933323
2429.55 0.591236
2431.66 0.415524
2433.78 0.313932
2435.89 0.250265
2438.00 0.208094
2442.23 0.158893
2446.45 0.136905
2448.57 0.135370
2450.68 0.147985
2451.74 0.170425
2452.26 0.193368
2452.79 0.235024
2453.32 0.321903
2453.58 0.405716
2453.85 0.552864
2454.11 0.847683
2454.24 1.12084
2454.38 1.57958
2454.51 2.43667
2454.57 3.17334
2454.64 4.31492
2454.71 6.20821
2454.77 9.63501
2454.81 12.4455
2454.84 16.5382
2454.87 22.6308
2454.90 31.6882
2454.95 50.5928
2455.00 63.1803
2455.05 50.5919
2455.10 31.6875
2455.14 21.3321
2455.17 14.9936
2455.21 10.9566
2455.25 8.29785
2455.33 5.19250
2455.40 3.54715
2455.48 2.57210
2455.55 1.96454
2455.71 1.27020
2455.86 0.903279
2456.01 0.689276
2456.32 0.461002
2456.62 0.349603
2456.93 0.287937
2457.54 0.228182
2458.15 0.205133
2458.76 0.199197
2459.98 0.219898
2461.20 0.294797
2461.81 0.374567
2462.42 0.520339
2462.72 0.641648
2463.03 0.823708
2463.33 1.11418
2463.64 1.61852
2463.94 2.60914
2464.09 3.51015
2464.25 4.97576
2464.40 7.62796
2464.48 9.80341
2464.55 13.0337
2464.63 18.0819
2464.70 26.4639
2464.78 41.3061
2464.86 68.5052
2464.93 109.689
2465.00 136.574
2465.07 109.088
2465.15 68.5055
2465.23 38.8059
2465.32 23.9252
2465.40 15.9384
2465.49 11.2926
2465.57 8.39138
2465.66 6.47168
2465.83 4.18274
2466.00 2.92302
2466.17 2.16681
2466.51 1.33890
2466.85 0.919345
2467.19 0.679270
2467.53 0.528785
2467.87 0.428265
2468.55 0.306327
2469.23 0.238109
2470.59 0.168128
2471.95 0.134667
2473.31 0.116088
2476.04 0.0973302
2478.76 0.0889130
2481.48 0.0851243
2486.93 0.0854502
2492.37 0.0968398
2495.09 0.110536
2497.82 0.136661
2499.18 0.158998
2500.54 0.193184
2501.90 0.249092
2503.26 0.349509
2503.94 0.432734
2504.62 0.557370
2505.30 0.756789
2505.98 1.10374
2506.66 1.79106
2507.00 2.41779
2507.34 3.45284
2507.68 5.34508
2507.85 6.92523
2508.02 9.30782
2508.19 13.1106
2508.36 19.6173
2508.53 31.6528
2508.70 55.0487
2508.85 88.1277
2509.00 110.208
2509.15 88.1170
2509.30 55.0427
2509.43 35.1728
2509.57 23.5899
2509.70 16.6415
2509.84 12.2689
2510.11 7.37476
2510.38 4.90233
2510.65 3.48649
2510.92 2.61042
2511.46 1.62670
2512.00 1.11685
2512.54 0.820462
2513.08 0.632632
2513.62 0.506632
2514.70 0.352858
2515.78 0.266461
2516.87 0.213124
2517.95 0.177931
2520.11 0.135922
2522.27 0.112940
2526.60 0.0907045
2530.92 0.0826999
2535.24 0.0853070
2537.41 0.0951267
2538.49 0.106006
2539.57 0.126509
2540.65 0.170749
2541.19 0.214628
2541.73 0.293469
2542.27 0.457643
2542.54 0.615428
2542.81 0.891583
2543.08 1.44462
2543.22 1.95255
2543.35 2.79937
2543.49 4.36358
2543.56 5.70386
2543.62 7.72475
2543.69 11.0693
2543.76 16.8798
2543.79 21.5902
2543.83 28.3062
2543.86 38.0474
2543.89 51.6260
2543.92 66.2917
2543.95 83.0867
2544.00 103.631
2544.03 97.3799
2544.05 82.4616
2544.11 51.6233
2544.14 38.0449
2544.17 28.7813
2544.24 17.5971
2544.30 11.6628
2544.36 8.23626
2544.43 6.10695
2544.49 4.70295
2544.62 3.03459
2544.75 2.12347
2544.88 1.57377
2545.13 0.973505
2545.39 0.669898
2545.65 0.496724
2545.90 0.388356
2546.16 0.316086
2546.67 0.228594
2547.18 0.179853
2548.21 0.130157
2549.23 0.106594
2550.26 0.0936174
2552.31 0.0806206
2556.40 0.0716845
2560.50 0.0696602
2564.60 0.0709524
2568.70 0.0774070
2570.75 0.0865346
2571.78 0.0955187
2572.80 0.111694
2573.83 0.145724
2574.34 0.179038
2574.85 0.238695
2575.36 0.362565
2575.62 0.481453
2575.87 0.689412
2576.13 1.10349
2576.26 1.48442
2576.39 2.11898
2576.51 3.28967
2576.58 4.28247
2576.64 5.79974
2576.71 8.26716
2576.77 12.6044
2576.80 16.0590
2576.83 20.9538
2576.87 28.0008
2576.90 38.0938
2576.92 48.9086
2576.95 60.7484
2577.00 75.7845
2577.05 60.7468
2577.10 38.0921
2577.16 21.5086
2577.22 13.1662
2577.29 8.73220
2577.35 6.20361
2577.41 4.60051
2577.47 3.54462
2577.59 2.29890
2577.71 1.61249
2577.83 1.20182
2578.07 0.752398
2578.32 0.524626
2578.56 0.394212
2579.04 0.258635
2579.53 0.193103
2580.02 0.156733
2580.99 0.119959
2581.96 0.102863
2582.93 0.0937477
2584.87 0.0853134
2588.75 0.0815029
2592.63 0.0832263
2600.40 0.0941850
2608.17 0.116830
2612.05 0.136010
2615.93 0.164919
2619.82 0.211149
2623.70 0.291566
2627.58 0.449938
2629.52 0.593873
2631.46 0.830265
2633.41 1.25770
2634.38 1.61258
2635.35 2.14283
2636.32 2.98071
2637.29 4.39223
2638.26 6.94425
2638.75 8.97228
2639.23 11.7442
2640.12 18.7283
2641.00 23.3647
2641.89 18.7134
2642.77 11.7307
2643.65 7.24920
2644.54 4.73700
2645.42 3.28693
2646.30 2.40033
2647.19 1.82734
2648.07 1.43923
2649.84 0.968562
2651.60 0.714854
2653.37 0.591028
2654.25 0.587435
2655.13 0.691199
2655.58 0.872174
2655.80 1.05571
2656.02 1.38077
2656.24 2.03351
2656.35 2.63491
2656.46 3.61904
2656.57 5.42355
2656.63 6.91491
2656.68 9.14919
2656.74 12.6829
2656.79 18.6496
2656.85 29.4752
2656.90 49.9821
2656.95 79.9436
2657.00 99.9897
2657.05 79.9380
2657.10 49.9728
2657.13 36.4957
2657.16 27.4310
2657.23 16.6597
2657.29 11.0383
2657.35 7.82763
2657.41 5.82158
2657.47 4.53032
2657.60 3.00125
2657.72 2.16295
2657.85 1.66209
2658.10 1.11299
2658.34 0.832401
2658.59 0.669361
2659.09 0.494466
2660.09 0.350087
2661.08 0.286640
2663.07 0.223384
2665.06 0.188411
2669.04 0.147546
2673.02 0.124082
2676.99 0.110060
2680.97 0.104624
2682.96 0.108199
2684.95 0.126696
2685.95 0.155537
2686.44 0.184889
2686.94 0.238581
2687.44 0.352393
2687.69 0.463770
2687.94 0.661038
2688.19 1.06548
2688.31 1.44614
2688.43 2.09818
2688.56 3.36842
2688.62 4.49081
2688.68 6.29157
2688.74 9.43200
2688.81 15.5743
2688.84 21.0338
2688.87 29.6413
2688.90 43.8398
2688.93 68.1514
2688.97 108.637
2689.00 136.131
2689.04 108.635
2689.07 68.0508
2689.09 49.5520
2689.11 36.9791
2689.16 21.9280
2689.20 14.2452
2689.25 9.99875
2689.29 7.33607
2689.34 5.63738
2689.43 3.61187
2689.52 2.51659
2689.60 1.86009
2689.78 1.14745
2689.96 0.789980
2690.14 0.585770
2690.32 0.458287
2690.49 0.373405
2690.85 0.270703
2691.21 0.213572
2691.92 0.155221
2692.63 0.127383
2693.34 0.111927
2694.77 0.0961334
2697.62 0.0848631
2700.47 0.0828547
2703.32 0.0878395
2706.17 0.109600
2707.59 0.141916
2708.31 0.174358
2709.02 0.233042
2709.73 0.355873
2710.09 0.474486
2710.44 0.682955
2710.80 1.10248
2710.98 1.49044
2711.16 2.14163
2711.34 3.35684
2711.42 4.39980
2711.51 6.01343
2711.60 8.68341
2711.69 13.4989
2711.74 17.4871
2711.78 23.1457
2711.83 31.7286
2711.87 44.1434
2711.94 70.7802
2712.00 88.1678
2712.07 70.3495
2712.13 44.1436
2712.17 32.1971
2712.22 23.9384
2712.30 14.2663
2712.38 9.30045
2712.47 6.52222
2712.55 4.79737
2712.63 3.68448
2712.80 2.36500
2712.97 1.64776
2713.14 1.22078
2713.47 0.756829
2713.80 0.523363
2714.14 0.390389
2714.81 0.251811
2715.48 0.184891
2716.15 0.147499
2717.48 0.109258
2720.16 0.0806507
2722.83 0.0699299
2725.51 0.0645488
2728.18 0.0613410
2733.53 0.0576551
2744.24 0.0543178
2749.59 0.0543976
2752.26 0.0584790
2753.60 0.0754120
2754.27 0.136695
2754.44 0.193363
2754.60 0.333254
2754.69 0.497175
2754.77 0.848221
2754.85 1.83556
2754.90 3.09230
2754.94 5.76769
2754.97 9.14997
2755.00 11.4817
2755.03 9.14985
2755.06 5.76754
2755.10 3.17875
2755.14 1.94209
2755.22 0.916200
2755.30 0.537743
2755.38 0.361222
2755.54 0.208090
2755.70 0.145643
2756.33 0.0776728
2757.59 0.0584419
2760.12 0.0530805
2765.17 0.0512493
2775.27 0.0501062
2795.49 0.0491000
2805.59 0.0489784
2815.70 0.0493823
2820.75 0.0501952
2823.28 0.0510601
2825.80 0.0526771
2828.33 0.0561824
2829.59 0.0596902
2830.86 0.0660954
2832.12 0.0797350
2833.38 0.117615
2834.01 0.168793
2834.64 0.306658
2834.96 0.486247
2835.12 0.655422
2835.28 0.944676
2835.43 1.50017
2835.51 1.99163
2835.59 2.77651
2835.67 4.13591
2835.75 6.76515
2835.79 9.10970
2835.83 12.6665
2835.87 18.3929
2835.91 27.7174
2835.93 35.7601
2835.95 44.5626
2836.00 55.4961
2836.05 44.1792
2836.09 27.7163
2836.13 19.1552
2836.16 13.7505
2836.20 10.2041
2836.23 7.81275
2836.30 4.95098
2836.37 3.39818
2836.44 2.46224
2836.50 1.87363
2836.64 1.19355
2836.78 0.829964
2836.91 0.616343
2837.18 0.386615
2837.73 0.207124
2838.28 0.140133
2838.82 0.107962
2839.37 0.0901385
2840.46 0.0720575
2841.55 0.0635465
2842.64 0.0588777
2844.82 0.0542051
2847.00 0.0520393
2849.18 0.0508749
2853.55 0.0497657
2862.27 0.0491832
2871.00 0.0493507
2884.94 0.0506581
2891.92 0.0520770
2898.89 0.0546134
2905.86 0.0597766
2909.35 0.0647024
2912.83 0.0733882
2916.32 0.0913087
2918.06 0.108713
2919.80 0.139842
2920.67 0.165702
2921.55 0.204682
2922.42 0.267729
2923.29 0.379564
2923.72 0.471497
2924.16 0.608469
2924.60 0.825517
2925.03 1.19844
2925.47 1.92488
2925.69 2.57644
2925.90 3.62615
2926.12 5.48997
2926.23 7.00386
2926.34 9.21995
2926.45 12.6172
2926.56 18.1095
2926.67 27.4788
2926.77 43.6529
2926.89 69.9964
2927.00 87.3775
2927.11 69.7443
2927.23 43.6476
2927.35 25.8547
2927.47 16.3621
2927.60 11.0895
2927.72 7.97001
2927.84 5.97029
2927.96 4.63196
2928.21 3.02294
2928.46 2.12733
2928.70 1.58405
2929.19 0.984221
2929.68 0.679546
2930.17 0.504329
2930.66 0.394627
2931.16 0.321586
2932.14 0.233851
2933.12 0.185749
2935.08 0.139564
2937.05 0.122258
2939.01 0.119612
2940.97 0.133287
2941.96 0.169089
2942.45 0.272989
2942.69 0.570809
2942.82 1.26039
2942.88 2.35445
2942.91 3.53670
2942.94 5.55131
2942.97 8.84758
2943.00 10.9627
2943.03 8.84832
2943.06 5.55287
2943.10 3.21040
2943.14 2.00470
2943.21 1.01234
2943.29 0.638140
2943.36 0.462046
2943.66 0.248010
2944.26 0.189817
2945.46 0.203169
2946.66 0.254379
2947.86 0.352219
2948.47 0.433883
2949.07 0.555764
2949.67 0.748874
2950.27 1.08064
2950.87 1.72151
2951.17 2.29174
2951.47 3.20777
2951.77 4.80798
2951.92 6.09101
2952.07 7.94559
2952.22 10.7414
2952.37 15.1597
2952.52 22.4689
2952.67 34.7664
2952.83 55.6984
2953.00 69.5552
2953.17 55.5581
2953.34 34.7590
2953.47 23.6264
2953.60 16.6220
2953.73 12.1450
2953.86 9.18887
2954.12 5.71844
2954.39 3.88437
2954.65 2.80326
2954.91 2.12107
2955.43 1.34063
2955.96 0.928940
2956.48 0.686884
2957.01 0.532238
2957.53 0.427874
2958.58 0.299667
2959.63 0.227128
2960.68 0.182090
2961.73 0.152218
2963.83 0.116288
2965.93 0.0963691
2968.02 0.0842429
2970.12 0.0764146
2974.32 0.0678395
2978.52 0.0657408
2980.61 0.0683806
2982.71 0.0792155
2983.76 0.0951974
2984.81 0.140081
2985.34 0.200528
2985.86 0.361634
2986.12 0.569229
2986.25 0.761745
2986.38 1.08618
2986.52 1.69550
2986.58 2.22697
2986.65 3.04250
2986.71 4.42783
2986.78 6.92674
2986.81 9.03236
2986.84 12.1455
2986.88 16.8674
2986.91 23.9284
2986.93 30.4634
2986.95 38.1380
2987.00 47.7726
2987.05 38.1373
2987.09 23.9016
2987.12 17.2225
2987.15 12.6168
2987.21 7.42525
2987.28 4.80851
2987.34 3.34822
2987.40 2.45026
2987.46 1.87925
2987.58 1.21116
2987.70 0.849502
2987.83 0.635619
2988.07 0.403448
2988.56 0.221880
2989.05 0.154149
2990.03 0.105410
2991.01 0.0917258
2991.99 0.0937907
2992.97 0.119611
2993.46 0.159610
2993.95 0.271109
2994.20 0.417804
2994.44 0.794650
2994.56 1.25654
2994.69 2.31654
2994.75 3.45159
2994.81 5.66247
2994.84 7.65885
2994.87 10.6909
2994.90 15.8362
2994.93 24.4129
2994.95 31.1803
2994.97 38.8221
2995.00 48.7182
2995.04 38.8215
2995.07 24.3769
2995.10 16.7179
2995.12 11.7742
2995.15 8.61040
2995.18 6.52009
2995.23 4.07174
2995.28 2.78936
2995.34 2.01837
2995.39 1.53037
2995.50 0.976746
2995.71 0.510238
2995.93 0.325874
2996.36 0.182077
2996.79 0.128423
2997.65 0.0882129
2998.50 0.0737459
3000.22 0.0664394
3001.08 0.0791042
3001.51 0.129769
3001.72 0.278279
3001.83 0.601418
3001.88 1.08696
3001.94 2.36313
3002.00 4.66771
3002.06 2.35916
3002.13 0.915631
3002.20 0.474246
3002.33 0.212162
3002.60 0.104170
3003.14 0.0682794
3004.22 0.0570800
3006.37 0.0528833
3010.68 0.0505176
3019.29 0.0487835
3036.52 0.0474826
3053.75 0.0469471
3070.98 0.0467128
3088.21 0.0466884
3105.44 0.0469903
3114.06 0.0474886
3118.36 0.0479903
3122.67 0.0488991
3126.98 0.0508127
3129.13 0.0526935
3131.29 0.0560858
3133.44 0.0632453
3134.52 0.0703042
3135.59 0.0830518
3136.67 0.109947
3137.21 0.136389
3137.75 0.183763
3138.29 0.282384
3138.56 0.377324
3138.82 0.543953
3139.09 0.877539
3139.23 1.18770
3139.36 1.70390
3139.50 2.67360
3139.56 3.49920
3139.63 4.77309
3139.70 6.91416
3139.77 10.7187
3139.80 13.8721
3139.83 18.2992
3139.87 25.0401
3139.90 34.6834
3139.93 44.4270
3139.95 55.5872
3140.00 69.5744
3140.05 55.5861
3140.10 34.6822
3140.14 24.5632
3140.17 17.9797
3140.20 13.4381
3140.24 10.4155
3140.31 6.67345
3140.38 4.61015
3140.45 3.36770
3140.51 2.56668
3140.65 1.63563
3140.79 1.13786
3140.93 0.841754
3141.20 0.522624
3141.48 0.363719
3141.76 0.273474
3142.31 0.180421
3142.86 0.136293
3143.41 0.112448
3144.52 0.0908838
3145.62 0.0870473
3146.72 0.103135
3147.27 0.131658
3147.83 0.213510
3148.10 0.322617
3148.38 0.606406
3148.52 0.957069
3148.65 1.78439
3148.72 2.69351
3148.79 4.52244
3148.83 6.22772
3148.86 8.91970
3148.90 13.5083
3148.93 21.6158
3148.97 34.6826
3149.00 43.1638
3149.04 34.6820
3149.07 21.6150
3149.11 12.8253
3149.15 8.06775
3149.19 5.44841
3149.23 3.89904
3149.30 2.26740
3149.38 1.48265
3149.54 0.786116
3149.69 0.496703
3150.01 0.265216
3150.32 0.176584
3150.94 0.109214
3151.57 0.0842715
3152.81 0.0654085
3154.06 0.0583032
3156.56 0.0527113
3159.05 0.0504761
3164.04 0.0486388
3169.03 0.0479081
3179.01 0.0474024
3188.99 0.0473714
3198.97 0.0476473
3208.95 0.0484983
3213.94 0.0495945
3216.43 0.0506432
3218.93 0.0525094
3221.42 0.0564196
3222.67 0.0602735
3223.92 0.0672493
3225.16 0.0820321
3226.41 0.122883
3227.03 0.177919
3227.66 0.325729
3227.97 0.517618
3228.13 0.697855
3228.28 1.00504
3228.44 1.59208
3228.52 2.10877
3228.59 2.92949
3228.67 4.33986
3228.75 7.03487
3228.79 9.37176
3228.83 12.9641
3228.87 18.6921
3228.90 27.8793
3228.93 35.4311
3228.95 44.4130
3229.00 55.7183
3229.05 44.4122
3229.10 27.8783
3229.13 20.4531
3229.15 15.4130
3229.21 9.37115
3229.27 6.19035
3229.33 4.36363
3229.39 3.21728
3229.45 2.47870
3229.56 1.60262
3229.68 1.12186
3229.79 0.835153
3230.03 0.521259
3230.49 0.273061
3230.96 0.179069
3231.43 0.133733
3231.89 0.108480
3232.82 0.0828576
3233.75 0.0707890
3234.69 0.0642084
3236.55 0.0577248
3240.27 0.0535260
3244.00 0.0528824
3247.73 0.0540926
3251.45 0.0586043
3253.32 0.0647603
3255.18 0.0815011
3256.11 0.103974
3257.04 0.165058
3257.51 0.246055
3257.97 0.459486
3258.21 0.729142
3258.32 0.978000
3258.44 1.38799
3258.56 2.14859
3258.61 2.78617
3258.67 3.75522
3258.73 5.31909
3258.79 8.03799
3258.85 13.1878
3258.88 17.4691
3258.90 23.5557
3258.93 30.1141
3258.95 37.6422
3259.00 47.0595
3259.05 37.6415
3259.10 23.5551
3259.13 17.2942
3259.16 12.8253
3259.22 7.61630
3259.28 4.95702
3259.34 3.48009
3259.40 2.56101
3259.47 1.96363
3259.59 1.26788
3259.71 0.889365
3259.84 0.664753
3260.08 0.420862
3260.58 0.228359
3261.07 0.156216
3262.06 0.102827
3263.04 0.0844248
3265.02 0.0740427
3266.99 0.0762469
3268.96 0.0892811
3269.95 0.103685
3270.94 0.130353
3271.92 0.187034
3272.42 0.242684
3272.91 0.341889
3273.41 0.546541
3273.65 0.741925
3273.90 1.07925
3274.15 1.74432
3274.27 2.34462
3274.39 3.32711
3274.52 5.11181
3274.58 6.59138
3274.64 8.75721
3274.70 12.2093
3274.76 17.8712
3274.79 22.2236
3274.82 28.1313
3274.85 36.2161
3274.88 46.7774
3274.91 59.8598
3274.94 74.8115
3275.00 93.5008
3275.03 88.0030
3275.06 74.8096
3275.12 46.7755
3275.16 33.6009
3275.19 24.8521
3275.27 14.7067
3275.35 9.49707
3275.42 6.62024
3275.50 4.84674
3275.58 3.71048
3275.73 2.37028
3275.88 1.64925
3276.03 1.21859
3276.34 0.753829
3276.65 0.520739
3276.95 0.388236
3277.56 0.251859
3278.17 0.187418
3278.79 0.153197
3280.01 0.124487
3281.23 0.125637
3282.45 0.168182
3283.06 0.235243
3283.68 0.420737
3283.98 0.662292
3284.13 0.888387
3284.29 1.26830
3284.44 1.99029
3284.52 2.62352
3284.59 3.60405
3284.67 5.28190
3284.75 8.35861
3284.78 10.9415
3284.82 14.7879
3284.86 20.6781
3284.90 29.8413
3284.92 38.1656
3284.95 47.8310
3285.00 59.6424
3285.05 47.8297
3285.10 29.8396
3285.14 21.2601
3285.17 15.4232
3285.21 11.5350
3285.25 8.88325
3285.32 5.67412
3285.39 3.91435
3285.46 2.85865
3285.53 2.17984
3285.68 1.39284
3285.82 0.973028
3285.97 0.723584
3286.25 0.454858
3286.54 0.320906
3286.83 0.244609
3287.41 0.165420
3287.98 0.127017
3288.56 0.105465
3289.71 0.0832432
3290.86 0.0724556
3292.01 0.0663519
3294.31 0.0599672
3296.62 0.0568409
3298.92 0.0550965
3303.52 0.0534267
3312.73 0.0529141
3321.94 0.0542357
3331.16 0.0577334
3335.76 0.0611376
3340.37 0.0670781
3344.97 0.0791317
3347.27 0.0907113
3349.58 0.111302
3350.73 0.128386
3351.88 0.154167
3353.03 0.195946
3354.18 0.270633
3354.76 0.332510
3355.33 0.425489
3355.91 0.574626
3356.48 0.835728
3357.06 1.35914
3357.35 1.84366
3357.64 2.65273
3357.92 4.16475
3358.07 5.46096
3358.21 7.46407
3358.36 10.7729
3358.43 13.2825
3358.50 16.7249
3358.57 21.5755
3358.64 28.5953
3358.72 38.9631
3358.79 53.9788
3358.89 86.2193
3359.00 107.666
3359.05 101.248
3359.11 86.2148
3359.21 53.9743
3359.29 38.6126
3359.36 28.2428
3359.43 21.2554
3359.51 16.4453
3359.65 10.5655
3359.80 7.30891
3359.94 5.34224
3360.09 4.07180
3360.38 2.59600
3360.67 1.80223
3360.97 1.32972
3361.55 0.820865
3362.13 0.566959
3362.72 0.423094
3363.30 0.333765
3363.88 0.274915
3365.05 0.205076
3366.22 0.167756
3368.55 0.134979
3370.88 0.130121
3372.05 0.136904
3373.22 0.153950
3374.38 0.193502
3374.97 0.233106
3375.55 0.304137
3376.14 0.451422
3376.43 0.592903
3376.72 0.839268
3377.01 1.33127
3377.16 1.78433
3377.30 2.53323
3377.45 3.92383
3377.52 5.10477
3377.59 6.91223
3377.67 9.85747
3377.70 12.0969
3377.74 15.0496
3377.78 19.2639
3377.81 25.0866
3377.85 33.4498
3377.88 45.4038
3377.91 58.0874
3377.94 72.5832
3378.00 90.7029
3378.03 85.3728
3378.06 72.5818
3378.12 45.4026
3378.18 25.8720
3378.25 16.0509
3378.32 10.6878
3378.39 7.61197
3378.45 5.66033
3378.52 4.38774
3378.66 2.85650
3378.79 2.01767
3378.93 1.51075
3379.20 0.956762
3379.47 0.677651
3379.74 0.518233
3380.28 0.353881
3380.82 0.276420
3381.35 0.235482
3382.43 0.199933
3384.59 0.198254
3386.75 0.244740
3387.83 0.289941
3388.91 0.359833
3389.99 0.472343
3391.07 0.666895
3392.15 1.04315
3392.69 1.37780
3393.23 1.91305
3393.77 2.84602
3394.04 3.59117
3394.30 4.65931
3394.57 6.26585
3394.84 8.78630
3395.11 12.9146
3395.38 19.7415
3395.69 31.5708
3396.00 39.4195
3396.31 31.5229
3396.62 19.7344
3396.84 13.8268
3397.06 9.95942
3397.29 7.40107
3397.51 5.67979
3397.96 3.61029
3398.40 2.48752
3398.85 1.81608
3399.30 1.38699
3400.19 0.890778
3401.08 0.627034
3401.98 0.471241
3403.76 0.305183
3405.55 0.226132
3407.34 0.191609
3408.23 0.192955
3409.12 0.228446
3409.57 0.287612
3410.02 0.453154
3410.24 0.667745
3410.46 1.19436
3410.58 1.80446
3410.69 3.09559
3410.74 4.36948
3410.80 6.60257
3410.85 10.8825
3410.88 14.4786
3410.91 19.5024
3410.96 31.1920
3411.00 38.8672
3411.05 31.1907
3411.09 19.4788
3411.12 14.3238
3411.15 10.6692
3411.21 6.38967
3411.26 4.19374
3411.32 2.95447
3411.44 1.70234
3411.55 1.12158
3411.79 0.619221
3412.02 0.414822
3412.48 0.251457
3412.94 0.188062
3413.87 0.137627
3414.80 0.116921
3416.65 0.0985611
3418.50 0.0906179
3420.35 0.0884859
3422.20 0.0958967
3423.13 0.110445
3424.06 0.153894
3424.52 0.213177
3424.98 0.371130
3425.21 0.572366
3425.44 1.06386
3425.56 1.63260
3425.68 2.85347
3425.73 4.05499
3425.79 6.16965
3425.85 10.2476
3425.88 13.6947
3425.91 18.5169
3425.95 29.6704
3426.00 36.9814
3426.05 29.6698
3426.09 18.5161
3426.13 12.4852
3426.17 8.66302
3426.21 6.26777
3426.24 4.74428
3426.32 2.95016
3426.39 2.00698
3426.54 1.10912
3426.69 0.713624
3426.99 0.384272
3427.29 0.254170
3427.89 0.153366
3428.49 0.115525
3429.69 0.0867491
3430.89 0.0757904
3433.30 0.0668501
3435.70 0.0629196
3440.50 0.0590701
3445.30 0.0570898
3454.90 0.0552333
3464.51 0.0548469
3474.11 0.0556121
3483.71 0.0579349
3493.31 0.0636441
3498.12 0.0705353
3500.52 0.0810288
3501.72 0.108018
3502.32 0.193005
3502.62 0.437174
3502.77 0.979901
3502.84 1.80717
3502.88 2.66174
3502.92 4.10969
3502.96 6.50191
3503.00 8.14365
3503.04 6.50205
3503.08 4.11001
3503.12 2.57700
3503.17 1.70936
3503.25 0.897904
3503.41 0.396588
3503.74 0.180529
3504.39 0.109895
3505.70 0.0932925
3508.31 0.0998120
3510.93 0.118312
3513.54 0.152341
3516.16 0.221304
3517.46 0.285503
3518.77 0.393881
3520.08 0.598594
3520.73 0.776906
3521.39 1.05734
3522.04 1.53646
3522.69 2.44951
3523.02 3.25096
3523.35 4.51479
3523.67 6.65247
3523.84 8.29702
3524.00 10.5754
3524.24 15.7269
3524.48 24.3932
3524.74 39.0068
3525.00 48.6882
3525.26 38.9409
3525.53 24.3403
3525.79 15.0704
3526.05 9.86362
3526.31 6.83373
3526.56 4.98185
3526.82 3.77600
3527.08 2.95892
3527.60 1.95645
3528.12 1.39091
3528.64 1.04345
3529.68 0.656463
3530.71 0.457798
3531.75 0.342856
3532.79 0.270434
3533.82 0.221908
3535.90 0.162975
3537.97 0.129987
3540.05 0.109707
3542.12 0.0963869
3546.27 0.0806175
3550.42 0.0721251
3558.72 0.0642400
3567.01 0.0618031
3575.31 0.0630337
3579.46 0.0659717
3583.61 0.0738286
3585.68 0.0838445
3586.72 0.0933914
3587.76 0.110301
3588.79 0.145375
3589.31 0.179573
3589.83 0.240574
3590.35 0.367206
3590.61 0.488954
3590.87 0.702534
3591.13 1.13250
3591.26 1.53170
3591.39 2.19667
3591.52 3.44872
3591.58 4.52685
3591.65 6.16826
3591.71 8.92736
3591.78 13.9300
3591.81 18.1159
3591.84 24.0349
3591.87 32.8097
3591.91 46.2488
3591.93 58.9125
3591.95 73.9589
3592.00 92.3675
3592.02 86.7366
3592.05 73.9575
3592.09 46.1985
3592.13 32.8086
3592.16 23.8123
3592.19 17.8149
3592.23 13.8252
3592.29 8.87240
3592.36 6.13676
3592.42 4.46743
3592.49 3.40978
3592.62 2.17816
3592.75 1.51468
3592.88 1.12322
3593.14 0.700620
3593.40 0.489314
3593.66 0.369810
3594.18 0.246365
3594.70 0.187755
3595.22 0.156016
3596.26 0.125874
3597.31 0.114556
3598.35 0.111813
3600.43 0.122129
3602.52 0.158081
3603.56 0.195987
3604.60 0.264955
3605.65 0.408650
3606.17 0.546479
3606.69 0.786710
3607.21 1.26317
3607.47 1.69879
3607.73 2.41580
3607.99 3.72769
3608.12 4.82217
3608.25 6.47205
3608.38 9.13048
3608.51 13.6532
3608.58 17.1632
3608.64 22.0215
3608.71 28.8262
3608.77 38.2925
3608.89 61.2457
3609.00 76.5527
3609.11 61.2418
3609.23 38.2886
3609.34 23.3906
3609.46 15.1339
3609.57 10.4130
3609.69 7.54448
3609.80 5.69709
3609.92 4.44700
3610.15 2.92754
3610.38 2.07217
3610.60 1.54957
3611.06 0.968325
3611.52 0.670953
3611.98 0.498998
3612.44 0.390799
3612.90 0.318381
3613.82 0.230522
3614.74 0.181496
3616.57 0.131852
3618.41 0.109082
3620.25 0.0980981
3622.08 0.0983113
3623.00 0.122317
3623.46 0.206890
3623.69 0.436221
3623.80 0.887109
3623.86 1.47070
3623.92 2.76934
3623.96 4.39396
3624.00 5.45666
3624.04 4.39377
3624.08 2.76900
3624.14 1.42700
3624.20 0.846280
3624.32 0.411118
3624.57 0.195496
3625.05 0.115744
3626.01 0.0905957
3627.94 0.0828208
3631.80 0.0814314
3639.51 0.0894284
3647.22 0.111097
3651.08 0.131954
3653.01 0.148265
3653.97 0.163413
3654.46 0.189876
3654.70 0.256640
3654.82 0.407592
3654.88 0.645836
3654.94 1.34031
3655.00 2.51440
3655.06 1.33981
3655.14 0.570929
3655.21 0.356263
3655.36 0.238308
3655.65 0.194642
3656.24 0.187369
3657.43 0.201262
3659.79 0.249993
3662.15 0.329547
3664.51 0.468431
3666.88 0.743239
3668.06 0.993900
3669.24 1.40760
3670.42 2.16092
3671.01 2.79071
3671.60 3.73735
3672.19 5.24797
3672.78 7.82098
3673.37 12.5693
3673.96 21.7331
3674.48 34.7942
3675.00 43.5132
3675.52 34.7517
3676.04 21.7022
3676.38 15.7316
3676.72 11.6397
3677.39 6.89918
3678.07 4.48678
3678.75 3.13218
3679.43 2.30545
3680.10 1.76874
3681.46 1.13952
3682.81 0.800136
3684.17 0.597305
3686.88 0.377481
3689.58 0.267452
3692.29 0.204711
3695.00 0.165623
3697.71 0.139664
3703.13 0.108499
3708.55 0.0913536
3713.97 0.0811141
3719.38 0.0747648
3730.22 0.0689958
3735.64 0.0690141
3741.05 0.0718248
3746.47 0.0805194
3749.18 0.0900427
3751.89 0.107932
3753.24 0.123165
3754.60 0.146463
3755.95 0.184616
3757.31 0.253195
3757.99 0.310171
3758.66 0.395662
3759.34 0.532553
3760.02 0.771875
3760.69 1.24774
3761.03 1.68556
3761.37 2.41125
3761.71 3.75013
3761.88 4.87885
3762.05 6.59724
3762.22 9.39811
3762.30 11.4855
3762.39 14.2647
3762.47 18.1412
3762.56 23.5357
3762.64 31.3393
3762.72 42.3015
3762.86 67.6190
3763.00 84.4825
3763.14 67.6138
3763.28 42.2962
3763.38 29.7448
3763.47 21.4527
3763.57 15.9706
3763.67 12.2540
3763.87 7.78318
3764.07 5.34579
3764.27 3.88916
3764.46 2.95505
3764.86 1.87489
3765.26 1.30019
3765.65 0.959355
3766.05 0.741037
3766.44 0.593254
3767.24 0.410960
3768.03 0.307531
3768.82 0.243130
3769.61 0.200428
3771.19 0.148968
3772.78 0.120364
3774.36 0.102819
3775.94 0.0912802
3779.11 0.0775093
3782.28 0.0699186
3788.61 0.0623093
3794.94 0.0589005
3801.27 0.0573789
3807.61 0.0573391
3810.77 0.0591970
3812.35 0.0659265
3813.15 0.0899560
3813.54 0.169689
3813.74 0.393238
3813.84 0.862642
3813.89 1.51743
3813.94 3.13130
3813.97 4.99053
3814.00 6.20345
3814.03 4.99050
3814.06 3.13127
3814.12 1.35237
3814.18 0.725580
3814.30 0.321564
3814.53 0.142740
3814.99 0.0818676
3815.92 0.0642941
3817.78 0.0600723
3821.50 0.0606922
3825.22 0.0638115
3828.93 0.0701233
3832.65 0.0840284
3834.51 0.0979719
3836.37 0.123380
3838.23 0.177205
3839.16 0.230159
3840.09 0.325010
3840.55 0.403627
3841.02 0.521629
3841.48 0.710419
3841.95 1.03921
3842.41 1.69292
3842.65 2.29386
3842.88 3.28675
3843.11 5.11609
3843.23 6.65187
3843.34 8.98234
3843.46 12.7349
3843.57 19.2378
3843.69 31.4945
3843.75 41.6368
3843.81 55.9442
3843.90 89.5387
3844.00 111.957
3844.10 89.5352
3844.19 55.9425
3844.27 38.4732
3844.34 27.2492
3844.42 20.0058
3844.49 15.1876
3844.64 9.50417
3844.79 6.46434
3844.93 4.67025
3845.08 3.52970
3845.38 2.22173
3845.67 1.53129
3845.97 1.12389
3846.27 0.863857
3846.56 0.688430
3847.15 0.472420
3847.74 0.350256
3848.93 0.224065
3850.11 0.163649
3851.29 0.130135
3853.66 0.0961982
3856.03 0.0802344
3858.39 0.0714973
3863.12 0.0627991
3872.59 0.0568229
3882.05 0.0552573
3891.52 0.0553867
3900.98 0.0570440
3905.72 0.0589083
3910.45 0.0625722
3912.81 0.0661632
3915.18 0.0735058
3916.36 0.0814716
3917.55 0.100209
3918.14 0.123262
3918.73 0.182280
3919.02 0.257311
3919.32 0.446409
3919.47 0.673881
3919.62 1.19348
3919.69 1.74390
3919.76 2.80220
3919.84 5.15535
3919.88 7.45405
3919.91 11.1384
3919.96 17.8047
3920.00 22.1958
3920.04 17.8051
3920.09 11.1394
3920.12 8.29642
3920.14 6.25977
3920.20 3.85385
3920.25 2.57755
3920.30 1.84103
3920.41 1.08235
3920.51 0.724816
3920.73 0.412214
3920.94 0.286009
3921.36 0.189037
3921.79 0.156665
3922.64 0.145775
3923.49 0.167711
3924.33 0.230371
3924.76 0.294544
3925.18 0.409564
3925.61 0.645911
3925.82 0.868971
3926.03 1.25142
3926.25 1.99377
3926.35 2.65163
3926.46 3.70773
3926.56 5.55114
3926.67 9.16146
3926.72 12.3749
3926.78 17.4482
3926.80 21.1762
3926.83 25.8311
3926.86 32.1199
3926.88 40.0906
3926.91 51.2480
3926.94 64.2204
3927.00 80.1302
3927.03 75.3052
3927.06 64.2190
3927.12 40.0891
3927.16 29.5923
3927.19 22.3127
3927.26 13.4892
3927.34 8.87525
3927.41 6.23890
3927.48 4.61288
3927.56 3.54667
3927.70 2.28682
3927.85 1.60263
3927.99 1.19143
3928.29 0.745128
3928.58 0.519956
3928.87 0.391725
3929.45 0.258366
3930.03 0.194534
3930.62 0.159485
3931.78 0.125328
3932.95 0.111294
3934.12 0.106100
3936.45 0.110229
3938.78 0.134012
3939.95 0.159924
3941.11 0.207382
3942.28 0.306501
3942.86 0.402029
3943.45 0.569453
3944.03 0.903803
3944.32 1.21309
3944.61 1.72848
3944.90 2.68853
3945.05 3.50877
3945.19 4.76110
3945.34 6.82980
3945.41 8.39063
3945.49 10.5216
3945.56 13.5067
3945.63 17.7958
3945.71 24.0764
3945.78 33.0936
3945.89 53.0575
3946.00 66.2305
3946.11 52.8643
3946.22 33.0909
3946.34 19.7588
3946.46 12.6250
3946.58 8.61759
3946.70 6.21208
3946.82 4.66574
3946.93 3.63630
3947.17 2.38849
3947.41 1.69166
3947.64 1.26817
3948.12 0.799725
3948.59 0.561447
3949.06 0.424347
3950.01 0.281433
3950.95 0.213022
3951.90 0.175740
3953.79 0.140482
3955.68 0.127757
3957.58 0.125562
3961.36 0.141649
3963.25 0.161082
3965.14 0.192793
3967.03 0.245925
3968.93 0.341870
3969.87 0.421087
3970.82 0.539266
3971.76 0.726499
3972.71 1.04865
3973.66 1.67314
3974.13 2.23118
3974.60 3.13193
3974.84 3.80556
3975.08 4.71690
3975.31 6.00034
3975.55 7.86095
3975.79 10.7050
3976.02 15.2380
3976.26 22.8583
3976.49 35.9324
3976.75 57.4811
3977.00 71.7605
3977.25 57.3833
3977.51 35.9258
3977.80 20.5835
3978.10 12.7294
3978.39 8.49971
3978.68 6.04106
3978.98 4.49749
3979.27 3.47858
3979.86 2.26062
3980.44 1.59401
3981.03 1.19256
3982.20 0.760407
3983.38 0.559940
3984.55 0.497086
3985.14 0.540702
3985.73 0.740754
3986.02 1.02972
3986.17 1.30678
3986.31 1.77690
3986.46 2.67613
3986.54 3.46719
3986.61 4.69281
3986.68 6.79224
3986.76 10.6391
3986.79 13.9193
3986.83 18.6659
3986.87 26.1278
3986.90 37.2446
3986.95 59.6647
3987.00 74.2049
3987.05 59.1818
3987.10 37.1986
3987.14 25.6240
3987.18 18.1779
3987.21 13.3814
3987.25 10.1955
3987.33 6.44273
3987.40 4.43775
3987.48 3.25477
3987.56 2.50247
3987.71 1.64252
3987.86 1.18308
3988.01 0.912051
3988.31 0.617276
3988.62 0.467543
3988.92 0.380425
3989.53 0.285367
3990.13 0.235088
3990.74 0.203932
3991.95 0.166558
3994.38 0.129173
3996.80 0.109698
4001.66 0.0897716
4006.51 0.0805018
4011.36 0.0762912
4016.21 0.0756522
4021.06 0.0810830
4022.28 0.0861002
4023.49 0.0988223
4024.10 0.115217
4024.70 0.158452
4025.01 0.214264
4025.31 0.356542
4025.46 0.530114
4025.61 0.928169
4025.69 1.35764
4025.76 2.19770
4025.84 4.12003
4025.88 6.05547
4025.91 9.17918
4025.96 14.6387
4026.00 18.2785
4026.04 14.6387
4026.09 9.17927
4026.12 6.60737
4026.14 4.86489
4026.20 2.87322
4026.26 1.87572
4026.32 1.32878
4026.43 0.775220
4026.55 0.520746
4026.78 0.302491
4027.01 0.214508
4027.47 0.146013
4027.93 0.121032
4029.77 0.100202
4031.61 0.104257
4033.45 0.118503
4035.30 0.150323
4036.22 0.181424
4037.14 0.236763
4038.06 0.350689
4038.52 0.460030
4038.98 0.650739
4039.44 1.03169
4039.67 1.38212
4039.90 1.96707
4040.13 3.05661
4040.25 3.98186
4040.36 5.40248
4040.48 7.72805
4040.54 9.49427
4040.59 11.8565
4040.65 15.2119
4040.71 19.9271
4040.77 26.9153
4040.82 36.8763
4040.91 58.9296
4041.00 73.6224
4041.09 58.9275
4041.18 36.8746
4041.28 20.8433
4041.39 12.8306
4041.50 8.51621
4041.60 6.04273
4041.71 4.48819
4041.81 3.47202
4042.02 2.25678
4042.23 1.59292
4042.44 1.19249
4042.87 0.756360
4043.29 0.536334
4043.71 0.410847
4044.55 0.281613
4045.40 0.220853
4046.24 0.188753
4047.93 0.160870
4049.61 0.154480
4051.30 0.159102
4054.67 0.194303
4056.36 0.228678
4058.05 0.282103
4059.74 0.368649
4061.42 0.519742
4063.11 0.816465
4063.95 1.08469
4064.80 1.52168
4065.64 2.30324
4066.06 2.94434
4066.48 3.88909
4066.91 5.35877
4067.33 7.77698
4067.75 12.0047
4067.96 15.2675
4068.17 19.6033
4068.59 31.3311
4069.00 39.1458
4069.42 31.2932
4069.83 19.5720
4070.12 13.9722
4070.40 10.2064
4070.69 7.67659
4070.97 5.94418
4071.54 3.82558
4072.11 2.65396
4072.68 1.94708
4073.25 1.49078
4074.38 0.959981
4075.52 0.676453
4076.66 0.510362
4077.80 0.418345
4078.37 0.437168
4078.65 0.603615
4078.80 1.04890
4078.87 1.83488
4078.90 2.76177
4078.94 4.49083
4078.97 7.03300
4079.00 8.65678
4079.03 6.94489
4079.06 4.48406
4079.12 2.06714
4079.18 1.21872
4079.30 0.661949
4079.53 0.408091
4080.00 0.305086
4080.93 0.247564
4082.80 0.193518
4086.53 0.138042
4090.27 0.109576
4094.00 0.0929355
4097.73 0.0824326
4101.47 0.0756276
4105.20 0.0725702
4107.07 0.0783002
4108.00 0.105920
4108.47 0.202858
4108.70 0.487226
4108.82 1.13139
4108.88 2.11647
4108.91 3.12279
4108.94 4.86045
4108.97 7.71287
4109.00 9.64456
4109.03 7.71276
4109.06 4.85274
4109.10 2.90883
4109.13 1.85170
4109.20 0.923737
4109.34 0.384865
4109.62 0.164624
4110.18 0.0928549
4111.30 0.0716910
4113.54 0.0648247
4118.02 0.0612372
4126.98 0.0589036
4131.46 0.0596351
4133.70 0.0610782
4135.94 0.0641995
4138.18 0.0714603
4139.30 0.0789142
4140.42 0.0926518
4141.54 0.122017
4142.10 0.151059
4142.66 0.203402
4143.22 0.312555
4143.50 0.418094
4143.78 0.603848
4144.06 0.977197
4144.20 1.32411
4144.34 1.90830
4144.48 3.00407
4144.55 3.94961
4144.62 5.42067
4144.69 7.87400
4144.76 12.3511
4144.80 16.0531
4144.83 21.4854
4144.87 29.6474
4144.90 41.7350
4144.95 66.5609
4145.00 83.3699
4145.03 78.4178
4145.05 66.5596
4145.10 41.6917
4145.14 27.4720
4145.18 18.8902
4145.23 13.4699
4145.27 10.0716
4145.35 6.14754
4145.44 4.11983
4145.52 2.94945
4145.61 2.21675
4145.78 1.39208
4145.95 0.959455
4146.12 0.707746
4146.46 0.439345
4146.80 0.307368
4147.13 0.232916
4147.81 0.156360
4148.49 0.119762
4149.17 0.0995092
4150.53 0.0789625
4151.88 0.0692291
4153.24 0.0638386
4155.95 0.0583159
4158.66 0.0556261
4161.38 0.0540731
4166.80 0.0523642
4177.65 0.0508350
4188.50 0.0501097
4210.21 0.0497071
4215.63 0.0500009
4221.06 0.0510818
4223.77 0.0526801
4226.48 0.0572703
4227.84 0.0636279
4229.20 0.0813390
4229.87 0.105314
4230.55 0.170272
4230.89 0.255190
4231.23 0.473415
4231.40 0.741234
4231.57 1.36051
4231.65 2.03391
4231.74 3.36476
4231.78 4.57801
4231.82 6.46612
4231.87 9.60475
4231.91 14.9843
4231.95 24.0135
4232.00 29.9323
4232.05 24.0132
4232.09 14.9839
4232.12 10.8529
4232.15 7.97911
4232.22 4.72126
4232.28 3.05025
4232.34 2.13338
4232.46 1.20673
4232.58 0.783469
4232.83 0.416698
4233.07 0.269075
4233.57 0.152926
4234.06 0.109261
4235.04 0.0764868
4236.02 0.0645990
4237.98 0.0558927
4239.94 0.0527835
4243.87 0.0505303
4247.80 0.0497372
4255.65 0.0492111
4263.50 0.0491560
4271.35 0.0494396
4279.20 0.0505131
4283.13 0.0520601
4287.05 0.0564350
4289.01 0.0624613
4290.98 0.0792789
4291.96 0.102221
4292.94 0.165127
4293.43 0.248911
4293.92 0.469596
4294.17 0.750077
4294.41 1.43398
4294.53 2.22396
4294.66 3.89570
4294.72 5.56077
4294.78 8.43141
4294.84 13.9041
4294.87 18.5741
4294.90 25.1858
4294.93 32.0596
4294.95 40.1505
4295.00 50.3143
4295.05 40.1499
4295.10 25.1598
4295.15 15.9498
4295.19 10.6589
4295.24 7.50338
4295.28 5.52592
4295.38 3.31073
4295.47 2.20608
4295.56 1.57104
4295.65 1.18190
4295.84 0.743501
4296.21 0.385884
4296.58 0.247090
4297.32 0.141157
4298.06 0.102228
4299.54 0.0737098
4301.02 0.0640166
4303.98 0.0619270
4305.46 0.0808705
4306.20 0.154434
4306.57 0.395883
4306.66 0.600632
4306.75 1.04789
4306.84 2.32609
4306.89 4.00521
4306.93 7.82608
4306.97 12.4460
4307.00 15.6026
4307.03 12.4459
4307.07 7.82588
4307.10 4.64477
4307.14 2.97172
4307.21 1.47526
4307.35 0.588033
4307.63 0.219499
4308.19 0.0985434
4309.31 0.0634955
4311.55 0.0536664
4316.03 0.0507189
4325.00 0.0500911
4330.97 0.0507250
4333.96 0.0515245
4336.95 0.0530568
4339.94 0.0563873
4341.43 0.0597132
4342.92 0.0657640
4344.42 0.0786215
4345.91 0.114242
4346.66 0.162357
4347.40 0.292228
4347.78 0.462200
4348.15 0.896974
4348.34 1.42853
4348.43 1.89871
4348.52 2.65249
4348.62 3.98479
4348.71 6.57063
4348.76 8.90012
4348.80 12.4950
4348.85 18.5607
4348.87 22.9218
4348.90 28.7437
4348.92 36.8307
4348.95 46.0004
4349.00 57.4481
4349.05 45.9997
4349.10 28.7429
4349.14 19.9509
4349.18 14.3329
4349.22 10.5630
4349.26 8.09627
4349.34 5.11100
4349.41 3.49897
4349.49 2.54165
4349.57 1.93045
4349.72 1.22990
4349.87 0.855602
4350.03 0.635484
4350.33 0.398306
4350.64 0.280647
4350.95 0.213951
4351.56 0.145206
4352.18 0.112449
4352.79 0.0945814
4354.02 0.0775424
4356.48 0.0766497
4357.09 0.0877658
4357.70 0.121313
4358.01 0.166911
4358.32 0.287410
4358.47 0.439582
4358.63 0.804814
4358.70 1.22053
4358.78 2.09168
4358.82 2.93980
4358.86 4.34938
4358.89 6.92290
4358.93 11.8546
4358.97 18.9158
4359.00 23.6385
4359.03 18.9155
4359.07 11.8369
4359.09 8.49603
4359.11 6.31686
4359.16 3.73505
4359.20 2.43024
4359.25 1.70095
4359.34 0.970230
4359.43 0.636537
4359.61 0.346756
4359.79 0.229154
4360.14 0.136353
4360.50 0.101313
4361.22 0.0747126
4361.94 0.0648109
4363.37 0.0571891
4364.80 0.0542082
4367.67 0.0517417
4370.53 0.0507003
4376.27 0.0498359
4382.00 0.0495674
4387.73 0.0496367
4393.47 0.0502628
4396.33 0.0512238
4399.20 0.0539725
4400.63 0.0577728
4402.06 0.0684129
4402.78 0.0829548
4403.50 0.122885
4403.86 0.176300
4404.21 0.317497
4404.39 0.496793
4404.57 0.937904
4404.66 1.45239
4404.75 2.54896
4404.80 3.64554
4404.84 5.59493
4404.89 9.41146
4404.91 12.5971
4404.93 17.2552
4404.97 27.5361
4405.00 34.4710
4405.04 27.5358
4405.07 17.2549
4405.11 10.1661
4405.15 6.36421
4405.19 4.28531
4405.23 3.06139
4405.30 1.77798
4405.38 1.16878
4405.54 0.623215
4405.69 0.396552
4406.00 0.215064
4406.31 0.146051
4406.93 0.0938214
4407.55 0.0747459
4408.80 0.0607638
4410.04 0.0557988
4412.52 0.0522940
4415.00 0.0512231
4419.97 0.0518263
4422.45 0.0572026
4423.69 0.0778930
4424.32 0.151331
4424.63 0.381857
4424.78 0.964713
4424.86 2.02741
4424.90 3.30809
4424.94 5.84676
4424.97 9.34891
4425.00 11.6457
4425.03 9.34884
4425.06 5.84667
4425.12 2.74532
4425.17 1.51963
4425.27 0.656590
4425.48 0.251406
4425.90 0.108414
4426.74 0.0655846
4428.42 0.0539068
4431.78 0.0509873
4438.49 0.0509896
4441.84 0.0519711
4445.20 0.0548844
4446.88 0.0589120
4448.55 0.0701541
4449.39 0.0854567
4450.23 0.127367
4450.65 0.183058
4451.07 0.329083
4451.28 0.513180
4451.49 0.956869
4451.60 1.46291
4451.70 2.52819
4451.75 3.56642
4451.81 5.31505
4451.86 8.54553
4451.91 14.9007
4451.96 23.8572
4452.00 29.7382
4452.05 23.8570
4452.09 14.8840
4452.14 9.26033
4452.18 6.04433
4452.23 4.18701
4452.27 3.05061
4452.36 1.81582
4452.45 1.20971
4452.63 0.654233
4452.81 0.418775
4453.17 0.227979
4453.52 0.154308
4454.24 0.0982043
4454.96 0.0776287
4456.39 0.0624759
4457.82 0.0570746
4460.69 0.0532203
4463.55 0.0519326
4469.28 0.0511979
4475.01 0.0512044
4480.74 0.0515628
4486.47 0.0524364
4489.34 0.0534340
4492.20 0.0559381
4493.63 0.0592212
4495.07 0.0682104
4495.78 0.0804089
4496.50 0.113835
4496.86 0.158373
4497.22 0.276403
4497.39 0.426471
4497.57 0.796452
4497.66 1.22914
4497.75 2.15483
4497.80 3.08457
4497.84 4.74589
4497.89 8.02502
4497.91 10.7844
4497.93 14.9128
4497.97 23.8731
4498.00 29.7492
4498.03 23.8729
4498.07 14.8909
4498.09 10.7842
4498.11 8.02483
4498.16 4.74575
4498.20 3.08447
4498.25 2.15477
4498.34 1.22245
4498.43 0.796472
4498.61 0.426549
4498.79 0.276530
4499.14 0.158588
4499.50 0.114132
4500.22 0.0808647
4500.93 0.0688331
4502.37 0.0601435
4503.80 0.0571747
4506.66 0.0553108
4509.53 0.0549869
4520.99 0.0571515
4526.71 0.0597852
4532.44 0.0650212
4535.31 0.0705124
4536.74 0.0752591
4538.17 0.0831370
4539.60 0.0985822
4540.32 0.113168
4541.04 0.138854
4541.75 0.191699
4542.47 0.332759
4542.83 0.515866
4543.18 0.984376
4543.36 1.55502
4543.45 2.06596
4543.54 2.87740
4543.63 4.31171
4543.72 7.09293
4543.77 9.59893
4543.81 13.5730
4543.86 20.1754
4543.88 24.9216
4543.90 31.1754
4543.93 39.7397
4543.95 49.7356
4544.00 62.2754
4544.03 58.5817
4544.05 49.7350
4544.10 31.1750
4544.15 19.2581
4544.20 12.5154
4544.25 8.64004
4544.30 6.31455
4544.35 4.77650
4544.40 3.75227
4544.50 2.48265
4544.60 1.76331
4544.70 1.32633
4544.89 0.840467
4545.09 0.590572
4545.29 0.446990
4545.69 0.296280
4546.08 0.223793
4546.48 0.184050
4547.28 0.145844
4548.07 0.131068
4548.86 0.126882
4550.45 0.137395
4552.04 0.176936
4552.83 0.218637
4553.63 0.294238
4554.42 0.450392
4554.82 0.599110
4555.21 0.856160
4555.61 1.35803
4555.81 1.81135
4556.01 2.54532
4556.21 3.85944
4556.31 4.92897
4556.41 6.50334
4556.50 8.93505
4556.60 12.9076
4556.65 15.8911
4556.70 19.7840
4556.75 25.1052
4556.80 32.0260
4556.85 41.0193
4556.90 51.2925
4557.00 63.9618
4557.05 60.1693
4557.10 51.0856
4557.20 32.0245
4557.28 21.7250
4557.36 15.2885
4557.44 11.1336
4557.51 8.43245
4557.67 5.25422
4557.83 3.57925
4557.98 2.58935
4558.14 1.96640
4558.45 1.25179
4558.77 0.875020
4559.08 0.654158
4559.71 0.418487
4560.33 0.302217
4560.96 0.236880
4562.21 0.170316
4563.46 0.139526
4564.72 0.123505
4567.22 0.110185
4572.23 0.111684
4577.25 0.133465
4582.26 0.184955
4584.76 0.234371
4587.27 0.318469
4589.77 0.477626
4591.03 0.615858
4592.28 0.831976
4593.53 1.19553
4594.16 1.47629
4594.79 1.86692
4595.41 2.42939
4596.04 3.26309
4596.66 4.53394
4597.29 6.47452
4598.15 10.3246
4599.00 12.8873
4599.86 10.3196
4600.71 6.46962
4601.64 3.85298
4602.56 2.45577
4603.49 1.67784
4604.41 1.21478
4605.34 0.920351
4606.26 0.723358
4608.11 0.485553
4609.96 0.353641
4611.81 0.273306
4615.52 0.184744
4619.22 0.139692
4622.92 0.113746
4626.62 0.0974669
4630.32 0.0866058
4637.72 0.0735534
4645.13 0.0666223
4652.53 0.0644704
4654.38 0.0660354
4656.23 0.0720574
4657.15 0.0810338
4658.08 0.106551
4658.54 0.141277
4659.00 0.234821
4659.24 0.356887
4659.47 0.665914
4659.58 1.04004
4659.70 1.88373
4659.76 2.77958
4659.81 4.49419
4659.87 8.27490
4659.90 11.9335
4659.93 17.6720
4659.97 28.3381
4660.00 35.2902
4660.04 28.3379
4660.07 17.6716
4660.11 10.8825
4660.14 7.11899
4660.18 4.94043
4660.21 3.60459
4660.28 2.14962
4660.35 1.42781
4660.49 0.771667
4660.63 0.493639
4660.91 0.268364
4661.19 0.181344
4661.75 0.115021
4662.31 0.0905396
4663.43 0.0723074
4664.55 0.0655937
4666.79 0.0604150
4669.03 0.0583201
4673.51 0.0564496
4677.99 0.0556703
4682.48 0.0556642
4686.96 0.0573156
4689.20 0.0602074
4691.44 0.0688524
4692.56 0.0809497
4693.68 0.114734
4694.24 0.160403
4694.80 0.283672
4695.08 0.443953
4695.36 0.852411
4695.50 1.34630
4695.64 2.47776
4695.71 3.67883
4695.78 5.99272
4695.81 8.01650
4695.85 11.1547
4695.88 16.2165
4695.92 24.5047
4695.94 31.4099
4695.96 39.3327
4696.00 48.9300
4696.04 38.9550
4696.08 24.4747
4696.12 15.1614
4696.16 10.0081
4696.21 6.92815
4696.25 5.07825
4696.33 3.02391
4696.41 2.00124
4696.57 1.06920
4696.73 0.673468
4697.06 0.352427
4697.38 0.228590
4698.03 0.133966
4698.67 0.0991070
4699.97 0.0733313
4701.26 0.0640243
4703.85 0.0571651
4706.44 0.0546430
4711.61 0.0526742
4716.79 0.0518605
4727.15 0.0511334
4737.50 0.0508532
4747.85 0.0508774
4758.21 0.0514447
4763.38 0.0523322
4765.97 0.0532190
4768.56 0.0548245
4771.15 0.0582226
4773.74 0.0676831
4775.03 0.0806281
4776.33 0.116558
4776.97 0.165143
4777.62 0.296828
4777.94 0.469559
4778.27 0.912917
4778.43 1.45784
4778.51 1.94518
4778.59 2.73250
4778.67 4.11953
4778.75 6.87586
4778.79 9.40544
4778.83 13.3618
4778.87 19.9914
4778.89 24.9208
4778.91 31.5132
4778.94 40.2667
4778.96 50.5066
4779.00 62.9747
4779.04 50.5059
4779.09 31.5125
4779.12 22.0448
4779.15 15.7537
4779.18 11.6453
4779.21 8.88762
4779.28 5.60506
4779.34 3.83412
4779.41 2.78312
4779.47 2.11243
4779.60 1.34054
4779.73 0.931725
4779.85 0.689994
4780.11 0.430846
4780.37 0.302371
4780.62 0.229538
4781.13 0.154456
4781.65 0.118422
4782.16 0.0984545
4783.18 0.0783009
4784.20 0.0688731
4785.23 0.0637731
4787.27 0.0588448
4789.32 0.0568119
4791.37 0.0560230
4795.46 0.0564384
4799.55 0.0594770
4803.65 0.0691152
4805.69 0.0824177
4807.74 0.119015
4808.77 0.168033
4809.79 0.299095
4810.30 0.468317
4810.56 0.626629
4810.81 0.893921
4811.07 1.40266
4811.20 1.84716
4811.32 2.54778
4811.45 3.73840
4811.58 5.97439
4811.64 7.87852
4811.71 10.7534
4811.77 15.2315
4811.83 22.1066
4811.92 35.4051
4812.00 44.2984
4812.08 35.4048
4812.17 22.1067
4812.22 16.0413
4812.27 11.8790
4812.38 7.07603
4812.49 4.61719
4812.60 3.23094
4812.70 2.37726
4812.81 1.82713
4813.02 1.18065
4813.24 0.830153
4813.45 0.621427
4813.88 0.395033
4814.74 0.217070
4815.60 0.150629
4817.31 0.103134
4819.02 0.0904527
4820.74 0.0939685
4821.59 0.103351
4822.45 0.123149
4823.31 0.167438
4824.17 0.290324
4824.59 0.452049
4825.02 0.866308
4825.24 1.37388
4825.34 1.82338
4825.45 2.54444
4825.56 3.80153
4825.67 6.25882
4825.72 8.46675
4825.77 11.8803
4825.83 17.6151
4825.85 21.8317
4825.88 27.1992
4825.91 34.8583
4825.94 43.5194
4826.00 54.3234
4826.06 43.5185
4826.12 27.1755
4826.17 18.6032
4826.21 13.0931
4826.26 9.56941
4826.31 7.28318
4826.40 4.53887
4826.49 3.09527
4826.59 2.23689
4826.68 1.69847
4826.87 1.07849
4827.06 0.751967
4827.24 0.559564
4827.62 0.354249
4827.99 0.252307
4828.36 0.194672
4829.11 0.134977
4829.86 0.106262
4830.60 0.0902284
4832.10 0.0737981
4833.59 0.0659001
4835.09 0.0614665
4838.07 0.0568622
4841.06 0.0546082
4844.05 0.0533295
4850.03 0.0520236
4861.98 0.0514525
4867.96 0.0529211
4870.95 0.0592483
4872.44 0.0834048
4873.19 0.170549
4873.56 0.455342
4873.66 0.697081
4873.75 1.22611
4873.84 2.74325
4873.89 4.77541
4873.93 9.25610
4873.97 14.7590
4874.00 18.4563
4874.03 14.7589
4874.07 9.25597
4874.10 5.61395
4874.14 3.58540
4874.21 1.77065
4874.28 1.04787
4874.35 0.697037
4874.49 0.383518
4874.62 0.253205
4875.18 0.107589
4876.30 0.0657839
4878.53 0.0546347
4883.00 0.0519643
4887.47 0.0525031
4889.70 0.0563300
4890.82 0.0708622
4891.38 0.121934
4891.66 0.279303
4891.80 0.667472
4891.87 1.34108
4891.94 3.52759
4892.00 7.00402
4892.06 3.52754
4892.11 1.67774
4892.16 0.945183
4892.27 0.423044
4892.47 0.175380
4892.87 0.0873013
4893.68 0.0609102
4895.29 0.0537313
4898.52 0.0520177
4904.99 0.0524114
4908.22 0.0534939
4911.45 0.0564905
4913.06 0.0605185
4914.68 0.0715808
4915.49 0.0865240
4916.29 0.127150
4916.70 0.180827
4917.10 0.321125
4917.30 0.496403
4917.50 0.917446
4917.61 1.39062
4917.71 2.37111
4917.76 3.31039
4917.81 4.86073
4917.86 7.64483
4917.91 12.9042
4917.95 20.6741
4918.00 25.7672
4918.05 20.6738
4918.09 12.9040
4918.12 9.34924
4918.15 6.87630
4918.22 4.04151
4918.28 2.61828
4918.34 1.82642
4918.46 1.03629
4918.59 0.676062
4918.84 0.364405
4919.08 0.239136
4919.58 0.140729
4920.07 0.103844
4921.06 0.0763982
4922.05 0.0667077
4924.03 0.0604638
4926.01 0.0598693
4927.99 0.0629509
4929.96 0.0743168
4930.95 0.0905609
4931.94 0.135923
4932.44 0.197118
4932.93 0.360957
4933.18 0.573394
4933.43 1.10692
4933.55 1.74613
4933.67 3.16823
4933.73 4.65255
4933.80 7.43520
4933.83 9.79988
4933.86 13.3616
4933.89 18.8900
4933.92 27.1590
4933.94 35.0582
4933.96 43.6370
4934.00 54.2656
4934.02 50.8509
4934.04 43.2082
4934.08 27.1585
4934.11 18.2393
4934.15 12.8112
4934.18 9.35217
4934.21 7.07284
4934.28 4.37971
4934.34 2.97976
4934.47 1.62858
4934.60 1.03500
4934.85 0.535175
4935.11 0.338453
4935.63 0.185989
4936.14 0.129253
4937.17 0.0870827
4938.20 0.0718524
4940.26 0.0607486
4942.32 0.0568091
4946.44 0.0540160
4950.56 0.0531106
4958.80 0.0526904
4967.04 0.0528632
4983.52 0.0540812
4991.76 0.0554281
4995.88 0.0567311
5000.00 0.0596770
5001.98 0.0631955
5003.96 0.0725258
5004.95 0.0850229
5005.94 0.119287
5006.44 0.165185
5006.93 0.288167
5007.18 0.447364
5007.43 0.847252
5007.55 1.32665
5007.67 2.40805
5007.74 3.53513
5007.80 5.65766
5007.83 7.47012
5007.86 10.2135
5007.89 14.4997
5007.92 21.0678
5007.96 33.6040
5008.00 42.0728
5008.04 33.6036
5008.08 21.0674
5008.12 13.6688
5008.15 9.19551
5008.19 6.50354
5008.22 4.80647
5008.30 2.90924
5008.37 1.95517
5008.51 1.06043
5008.65 0.674414
5008.94 0.357787
5009.22 0.234374
5009.80 0.139844
5010.37 0.105102
5011.51 0.0796043
5012.66 0.0706842
5014.95 0.0647717
5017.24 0.0633839
5021.82 0.0644478
5026.40 0.0685540
5030.98 0.0777057
5033.27 0.0866554
5035.56 0.102658
5037.85 0.135979
5038.99 0.168374
5040.14 0.225973
5041.28 0.343999
5041.86 0.456297
5042.43 0.650019
5043.00 1.02924
5043.29 1.37057
5043.57 1.92658
5043.72 2.34511
5043.86 2.91843
5044.00 3.73084
5044.15 4.92997
5044.29 6.78891
5044.43 9.84135
5044.50 12.1369
5044.57 15.1634
5044.65 19.2942
5044.72 24.7276
5044.86 39.5953
5045.00 49.4180
5045.14 39.4812
5045.28 24.7253
5045.45 13.9493
5045.62 8.54077
5045.79 5.66899
5045.96 4.01854
5046.13 2.98580
5046.30 2.30861
5046.63 1.50077
5046.97 1.05854
5047.31 0.792747
5047.98 0.502572
5048.66 0.356231
5049.33 0.272690
5050.01 0.220544
5050.68 0.186020
5052.03 0.144788
5053.38 0.122513
5056.07 0.102421
5058.77 0.0987436
5061.47 0.112740
5062.82 0.137598
5063.49 0.163058
5064.17 0.209303
5064.84 0.306047
5065.52 0.562253
5065.85 0.886910
5066.02 1.18651
5066.19 1.68217
5066.36 2.60108
5066.44 3.37497
5066.53 4.55452
5066.61 6.49516
5066.70 9.86213
5066.74 12.5338
5066.78 16.3070
5066.82 21.7192
5066.86 29.4880
5066.93 47.0986
5067.00 58.8803
5067.03 55.4135
5067.07 47.0974
5067.14 29.4651
5067.19 19.6912
5067.25 13.6455
5067.31 9.80775
5067.36 7.36726
5067.47 4.53628
5067.59 3.06204
5067.70 2.20693
5067.81 1.66979
5068.04 1.06083
5068.27 0.742825
5068.49 0.556480
5068.94 0.358608
5069.39 0.260936
5069.85 0.205917
5070.75 0.149249
5071.65 0.122208
5072.56 0.107310
5074.36 0.0924392
5077.97 0.0824185
5081.59 0.0800641
5088.81 0.0820016
5096.04 0.0883775
5103.26 0.0991307
5110.49 0.116521
5117.71 0.146063
5121.33 0.169323
5123.13 0.185621
5124.04 0.200209
5124.49 0.226038
5124.71 0.291052
5124.83 0.433625
5124.94 1.24155
5125.00 2.28110
5125.06 1.24118
5125.16 0.471434
5125.26 0.316831
5125.46 0.244306
5125.85 0.222007
5126.63 0.223511
5128.20 0.243203
5131.34 0.301210
5134.47 0.390924
5137.61 0.538513
5140.75 0.805571
5142.32 1.02752
5143.89 1.35969
5145.46 1.88533
5147.02 2.77249
5147.81 3.45326
5148.59 4.38398
5149.38 5.67056
5150.16 7.43574
5151.58 11.8672
5153.00 14.8199
5154.42 11.8612
5155.84 7.43201
5157.20 4.68294
5158.56 3.10966
5159.92 2.18717
5161.29 1.61730
5164.01 0.996131
5166.73 0.696505
5169.45 0.550661
5172.17 0.528115
5173.53 0.602492
5174.22 0.693208
5174.90 0.862249
5175.58 1.20458
5175.92 1.51436
5176.26 2.01559
5176.60 2.89793
5176.94 4.62584
5177.11 6.16366
5177.28 8.58887
5177.45 12.5877
5177.62 19.2864
5177.81 30.7606
5178.00 38.3627
5178.19 30.6885
5178.38 19.2725
5178.61 11.1182
5178.83 6.94514
5179.05 4.69704
5179.27 3.39024
5179.49 2.56759
5179.71 2.02203
5180.16 1.37020
5180.60 1.00975
5181.04 0.790452
5181.93 0.546380
5182.82 0.419383
5183.71 0.343717
5185.48 0.259412
5187.25 0.213778
5189.03 0.184971
5192.57 0.149905
5199.67 0.114442
5206.76 0.0959831
5213.86 0.0846378
5220.95 0.0770445
5235.14 0.0677505
5249.33 0.0625494
5263.52 0.0596463
5270.61 0.0590504
5277.70 0.0598133
5281.25 0.0618321
5283.03 0.0640816
5284.80 0.0683659
5286.57 0.0777427
5287.46 0.0871425
5288.35 0.104234
5289.23 0.140387
5290.12 0.239101
5290.56 0.369483
5291.01 0.708011
5291.23 1.12925
5291.45 2.12565
5291.56 3.23574
5291.67 5.50176
5291.73 7.63442
5291.78 11.0982
5291.84 17.1661
5291.87 21.9584
5291.89 28.2752
5291.95 45.1104
5292.00 56.4682
5292.05 45.1096
5292.11 28.2481
5292.14 20.9913
5292.17 15.7799
5292.24 9.55472
5292.31 6.29366
5292.37 4.42817
5292.44 3.27669
5292.50 2.52123
5292.64 1.62807
5292.77 1.14273
5292.90 0.850914
5293.16 0.533259
5293.43 0.373533
5293.69 0.282162
5294.22 0.187056
5294.75 0.141147
5295.28 0.115537
5296.33 0.0894479
5297.39 0.0770761
5298.44 0.0702328
5300.55 0.0632770
5302.67 0.0599448
5304.78 0.0580622
5309.00 0.0560543
5316.06 0.0545265
5323.12 0.0537346
5337.23 0.0528498
5365.47 0.0520577
5393.70 0.0520050
5407.82 0.0524943
5414.88 0.0537359
5418.41 0.0578177
5420.17 0.0729161
5421.05 0.127922
5421.49 0.312584
5421.71 0.841491
5421.82 1.97769
5421.88 3.63757
5421.91 5.29611
5421.93 7.94388
5421.97 12.6487
5422.00 15.8371
5422.03 12.6487
5422.07 7.94379
5422.11 4.24887
5422.15 2.50327
5422.24 1.14977
5422.42 0.437470
5422.77 0.168007
5423.46 0.0844918
5424.86 0.0612603
5427.66 0.0553452
5433.25 0.0544268
5444.44 0.0568806
5450.04 0.0604837
5455.63 0.0701879
5458.43 0.0831772
5461.23 0.118804
5462.63 0.166777
5464.02 0.296626
5464.72 0.467147
5465.07 0.629082
5465.42 0.907469
5465.77 1.45092
5465.95 1.93917
5466.12 2.72599
5466.30 4.12759
5466.38 5.27658
5466.47 6.94322
5466.56 9.53660
5466.65 13.6990
5466.73 20.8198
5466.82 33.3145
5466.91 53.3548
5467.00 66.7497
5467.09 53.3537
5467.18 33.3142
5467.26 21.9272
5467.33 15.0053
5467.41 10.7421
5467.49 8.00625
5467.64 4.89318
5467.80 3.28455
5467.95 2.35597
5468.10 1.77460
5468.41 1.11900
5468.72 0.776233
5469.03 0.575868
5469.64 0.363585
5470.26 0.259250
5470.87 0.200683
5472.10 0.140914
5474.56 0.0982111
5477.03 0.0857707
5479.49 0.0856294
5480.72 0.0903988
5481.95 0.101256
5483.18 0.126184
5484.41 0.196393
5485.03 0.290368
5485.64 0.537780
5485.95 0.850317
5486.10 1.13675
5486.26 1.60783
5486.41 2.47476
5486.49 3.20427
5486.56 4.31037
5486.64 6.08928
5486.72 9.16596
5486.76 11.6146
5486.79 14.9456
5486.83 19.6371
5486.87 26.2436
5486.90 33.6589
5486.94 41.9208
5487.00 52.4134
5487.03 49.2359
5487.07 41.9201
5487.13 26.2429
5487.17 18.7843
5487.22 13.7690
5487.26 10.3838
5487.31 8.04973
5487.40 5.16820
5487.48 3.59196
5487.57 2.62943
5487.66 2.01500
5487.84 1.29491
5488.01 0.909450
5488.19 0.679970
5488.55 0.432466
5488.90 0.309130
5489.25 0.239035
5489.96 0.166663
5490.67 0.132204
5491.38 0.113377
5492.79 0.0952427
5494.21 0.0881077
5495.62 0.0859550
5498.46 0.0906390
5501.29 0.109423
5502.70 0.129655
5504.12 0.166895
5505.53 0.245552
5506.24 0.322159
5506.95 0.457602
5507.66 0.732647
5508.01 0.990747
5508.37 1.43012
5508.72 2.26815
5508.90 3.00419
5509.07 4.17066
5509.25 6.16845
5509.43 9.96553
5509.52 13.2618
5509.60 18.2422
5509.69 26.1007
5509.78 38.5898
5509.89 61.6747
5510.00 77.0492
5510.11 61.6726
5510.22 38.5887
5510.30 27.3683
5510.37 19.8777
5510.45 14.8796
5510.53 11.5028
5510.68 7.36629
5510.83 5.08775
5510.99 3.70953
5511.14 2.82830
5511.45 1.80402
5511.75 1.25502
5512.06 0.929697
5512.67 0.578499
5513.29 0.403626
5513.90 0.304248
5515.12 0.201531
5516.35 0.152417
5517.58 0.125343
5520.03 0.0985209
5524.93 0.0814967
5529.83 0.0804898
5534.74 0.0902544
5537.19 0.101994
5539.64 0.123901
5542.09 0.169827
5543.32 0.213900
5544.54 0.290475
5545.77 0.441454
5546.38 0.578749
5546.99 0.804586
5547.61 1.21336
5547.91 1.55392
5548.22 2.06247
5548.53 2.86978
5548.83 4.22926
5548.99 5.27058
5549.14 6.69525
5549.29 8.66370
5549.45 11.3629
5549.72 18.1591
5550.00 22.6680
5550.28 18.1310
5550.56 11.3611
5550.78 7.72156
5551.00 5.42308
5551.22 3.96171
5551.43 3.00450
5551.87 1.88285
5552.31 1.29106
5552.75 0.943578
5553.19 0.724378
5554.07 0.474099
5554.95 0.342883
5555.83 0.265992
5557.59 0.184795
5559.35 0.145951
5561.10 0.125510
5564.62 0.110347
5568.13 0.117387
5569.89 0.131990
5571.65 0.161944
5573.41 0.227841
5574.29 0.292631
5575.17 0.407288
5576.05 0.638207
5576.49 0.853018
5576.92 1.21345
5577.36 1.88942
5577.58 2.47141
5577.80 3.36949
5578.02 4.86672
5578.13 6.00851
5578.24 7.56575
5578.35 9.79035
5578.46 13.0346
5578.57 17.8726
5578.68 24.9990
5578.84 40.0142
5579.00 49.9412
5579.16 39.9114
5579.32 24.9962
5579.47 15.6062
5579.63 10.2627
5579.78 7.14380
5579.94 5.23023
5580.09 3.97491
5580.25 3.12353
5580.56 2.07199
5580.87 1.47801
5581.17 1.11152
5581.79 0.702873
5582.41 0.492715
5583.03 0.370727
5583.65 0.293721
5584.26 0.242024
5585.50 0.179067
5586.74 0.143624
5587.97 0.121697
5589.21 0.107184
5591.68 0.0897599
5594.15 0.0801059
5599.10 0.0704403
5604.04 0.0661630
5608.98 0.0642278
5618.87 0.0639770
5628.76 0.0677812
5633.70 0.0721340
5638.65 0.0799811
5643.59 0.0959514
5646.06 0.111118
5648.54 0.137630
5651.01 0.191186
5652.24 0.241731
5653.48 0.328874
5654.72 0.499279
5655.33 0.653412
5655.95 0.905832
5656.57 1.36013
5656.88 1.73582
5657.19 2.29578
5657.50 3.17556
5657.81 4.64769
5657.96 5.76997
5658.12 7.28417
5658.27 9.37206
5658.42 12.1908
5658.71 19.4613
5659.00 24.3072
5659.29 19.4597
5659.58 12.1900
5659.81 8.15946
5660.05 5.66370
5660.29 4.10326
5660.53 3.09052
5661.00 1.92550
5661.48 1.31748
5661.96 0.964521
5662.43 0.742872
5663.38 0.492362
5664.34 0.362345
5665.29 0.287302
5667.19 0.210512
5669.09 0.177101
5671.00 0.163542
5674.80 0.169496
5678.61 0.218773
5680.51 0.272681
5682.42 0.369010
5684.32 0.559658
5685.27 0.731952
5686.22 1.01187
5687.17 1.50957
5687.65 1.91523
5688.12 2.50937
5688.60 3.42532
5689.08 4.91403
5689.55 7.47245
5690.03 11.9725
5690.51 19.1255
5691.00 23.8791
5691.49 19.1059
5691.97 11.9689
5692.28 8.74861
5692.59 6.52653
5693.22 3.91443
5693.84 2.57099
5694.46 1.81189
5695.08 1.34761
5695.70 1.04546
5696.94 0.693359
5698.18 0.511145
5699.43 0.425893
5700.05 0.426027
5700.67 0.503920
5700.98 0.634790
5701.29 0.991428
5701.44 1.43674
5701.60 2.46304
5701.68 3.56855
5701.75 5.68121
5701.79 7.56076
5701.83 10.4980
5701.87 15.2824
5701.91 23.0735
5701.96 36.8366
5702.00 45.9047
5702.05 36.8332
5702.09 23.0670
5702.13 15.9156
5702.16 11.2832
5702.20 8.31062
5702.23 6.34237
5702.30 4.03147
5702.37 2.81389
5702.51 1.62082
5702.65 1.09237
5702.93 0.643303
5703.21 0.461679
5703.76 0.313082
5704.32 0.251350
5705.44 0.195048
5706.55 0.166701
5708.78 0.135362
5711.01 0.117783
5713.24 0.107629
5715.47 0.105339
5716.58 0.110958
5717.69 0.133402
5718.25 0.166548
5718.81 0.258734
5719.09 0.380489
5719.37 0.692574
5719.51 1.07675
5719.64 1.96281
5719.71 2.92557
5719.78 4.78503
5719.82 6.46441
5719.85 9.12785
5719.89 13.5534
5719.92 20.9520
5719.96 33.3366
5720.00 41.7872
5720.04 33.3361
5720.08 20.9244
5720.11 13.5527
5720.15 9.12700
5720.18 6.46346
5720.22 4.78397
5720.29 2.90582
5720.36 1.95120
5720.50 1.06685
5720.64 0.686163
5720.92 0.374165
5721.20 0.252399
5721.76 0.158644
5722.32 0.123470
5723.44 0.0964563
5724.56 0.0858343
5726.80 0.0766096
5729.04 0.0721146
5733.52 0.0671410
5738.00 0.0642156
5746.96 0.0609225
5755.92 0.0594843
5764.88 0.0595427
5773.84 0.0623644
5778.32 0.0669602
5780.56 0.0716336
5782.80 0.0801695
5785.04 0.0982359
5786.16 0.115966
5787.28 0.147700
5788.40 0.213238
5789.52 0.385242
5790.08 0.601191
5790.36 0.798261
5790.64 1.12365
5790.92 1.71594
5791.06 2.21124
5791.20 2.95751
5791.34 4.14730
5791.48 6.17946
5791.55 7.75320
5791.62 9.92697
5791.69 12.9632
5791.76 17.1023
5791.88 27.3439
5792.00 34.0847
5792.12 27.2540
5792.25 17.1011
5792.39 9.67483
5792.54 5.93657
5792.68 3.94808
5792.83 2.79873
5792.98 2.08418
5793.12 1.61295
5793.41 1.05298
5793.71 0.747201
5794.00 0.562757
5794.58 0.361415
5795.17 0.259932
5795.75 0.201815
5796.33 0.165500
5796.92 0.141325
5798.09 0.112209
5799.25 0.0960863
5801.59 0.0800895
5803.92 0.0733803
5806.26 0.0718859
5808.60 0.0827628
5809.76 0.131018
5810.35 0.301642
5810.49 0.455625
5810.64 0.824365
5810.71 1.23709
5810.79 2.08779
5810.86 4.22697
5810.90 6.58102
5810.93 11.0697
5810.97 17.6850
5811.00 22.0785
5811.03 17.6848
5811.07 11.0695
5811.12 5.77811
5811.16 3.36896
5811.26 1.52891
5811.35 0.875437
5811.44 0.576286
5811.81 0.216941
5812.56 0.105453
5813.30 0.0825572
5814.05 0.0742403
5815.54 0.0682105
5817.02 0.0662502
5820.00 0.0656862
5822.98 0.0672913
5828.93 0.0835368
5830.42 0.0993764
5831.91 0.142356
5832.65 0.199798
5833.40 0.353571
5833.77 0.552502
5834.14 1.05665
5834.33 1.66241
5834.51 3.03826
5834.61 4.48411
5834.70 7.23531
5834.75 9.64183
5834.79 13.2464
5834.84 19.0905
5834.89 28.2824
5834.94 45.3237
5835.00 56.4692
5835.06 45.3236
5835.11 28.2581
5835.17 18.3277
5835.22 12.3223
5835.27 8.71003
5835.32 6.46880
5835.43 3.90627
5835.53 2.61564
5835.74 1.41185
5835.94 0.895445
5836.36 0.470175
5836.77 0.305206
5837.60 0.179248
5838.42 0.133341
5840.08 0.100865
5841.73 0.0910965
5845.04 0.0898501
5848.34 0.100539
5851.65 0.127806
5853.30 0.155171
5854.96 0.204066
5856.61 0.304297
5857.44 0.399342
5858.26 0.562831
5859.09 0.880946
5859.51 1.16661
5859.92 1.62836
5860.13 1.97492
5860.33 2.44760
5860.54 3.11365
5860.75 4.08374
5860.95 5.57808
5861.16 7.98177
5861.37 12.1025
5861.47 15.1993
5861.57 19.2670
5861.79 30.8061
5862.00 38.4455
5862.22 30.7465
5862.43 19.2648
5862.58 13.6460
5862.73 9.92458
5862.88 7.42709
5863.03 5.73402
5863.33 3.67505
5863.63 2.54491
5863.93 1.86651
5864.24 1.43014
5864.84 0.924749
5865.44 0.654691
5866.04 0.494636
5867.24 0.322501
5868.45 0.237272
5869.65 0.189400
5872.06 0.141308
5874.46 0.120275
5876.87 0.111064
5881.68 0.111009
5886.49 0.132709
5888.90 0.157593
5891.31 0.202790
5893.71 0.293777
5894.92 0.377187
5896.12 0.514989
5897.32 0.765463
5897.92 0.974648
5898.52 1.28848
5899.13 1.78784
5899.73 2.63480
5900.03 3.28848
5900.33 4.18776
5900.63 5.43823
5900.93 7.15764
5901.47 11.4161
5902.00 14.2537
5902.54 11.4133
5903.07 7.15484
5903.46 5.03982
5903.84 3.64781
5904.22 2.72593
5904.61 2.10299
5905.38 1.35299
5906.15 0.944361
5906.92 0.700250
5907.68 0.543744
5909.22 0.362804
5910.76 0.266559
5912.30 0.209498
5915.37 0.148222
5918.45 0.117873
5921.53 0.100777
5927.68 0.0835497
5933.83 0.0759982
5939.98 0.0727130
5952.29 0.0729253
5964.59 0.0814863
5970.74 0.0913381
5976.89 0.109510
5983.05 0.147241
5986.12 0.183203
5989.20 0.245373
5992.27 0.366871
5993.81 0.476452
5995.35 0.655181
5996.89 0.974692
5997.66 1.23703
5998.43 1.62521
5999.20 2.22906
5999.96 3.22540
6000.73 4.97447
6001.12 6.33153
6001.50 8.14544
6002.25 12.9964
6003.00 16.2285
6003.75 12.9929
6004.50 8.14239
6005.21 5.14873
6005.92 3.42428
6006.63 2.40805
6007.35 1.77774
6008.77 1.08213
6010.19 0.733855
6011.62 0.536770
6013.04 0.415390
6015.89 0.280814
6018.73 0.213014
6021.58 0.175454
6027.27 0.142786
6032.97 0.143365
6035.81 0.157561
6038.66 0.189125
6041.51 0.258978
6042.93 0.326160
6044.35 0.441000
6045.78 0.659509
6046.49 0.850057
6047.20 1.14878
6047.91 1.65382
6048.62 2.59077
6048.98 3.38077
6049.34 4.56081
6049.69 6.37412
6050.05 9.15894
6050.52 14.6168
6051.00 18.2438
6051.48 14.6015
6051.95 9.15558
6052.26 6.65561
6052.58 4.93970
6053.20 2.94739
6053.82 1.93347
6054.44 1.36426
6055.06 1.01738
6055.69 0.791891
6056.93 0.527855
6058.17 0.385986
6059.42 0.301739
6061.91 0.213099
6064.39 0.175583
6066.88 0.174561
6068.13 0.200297
6068.75 0.230673
6069.37 0.288451
6069.99 0.411613
6070.61 0.738916
6070.92 1.14979
6071.08 1.52495
6071.24 2.13749
6071.39 3.25148
6071.47 4.17717
6071.55 5.54094
6071.62 7.71616
6071.70 11.3172
6071.78 17.8773
6071.82 23.0869
6071.86 30.1588
6071.93 48.0860
6072.00 60.2161
6072.07 48.0845
6072.14 30.1567
6072.19 21.5861
6072.24 15.8813
6072.29 11.9484
6072.34 9.29244
6072.43 5.99987
6072.53 4.17299
6072.63 3.06831
6072.73 2.35398
6072.92 1.52421
6073.11 1.07623
6073.31 0.809151
6073.69 0.520926
6074.08 0.376167
6074.47 0.293568
6075.24 0.207019
6076.02 0.164653
6076.79 0.140533
6078.34 0.115052
6081.44 0.0946998
6084.54 0.0867557
6090.74 0.0831191
6093.84 0.0867354
6095.39 0.0954905
6096.16 0.121144
6096.55 0.201926
6096.74 0.424287
6096.84 0.882103
6096.89 1.50686
6096.94 3.00886
6097.00 5.92416
6097.06 3.00455
6097.13 1.24075
6097.19 0.664572
6097.32 0.309908
6097.58 0.160722
6098.09 0.112424
6099.12 0.101688
6101.18 0.108486
6103.23 0.125805
6105.29 0.158538
6106.32 0.185982
6107.35 0.227221
6108.37 0.293099
6109.40 0.407566
6110.43 0.632838
6110.95 0.836856
6111.46 1.17107
6111.97 1.77208
6112.23 2.26839
6112.49 3.00683
6112.74 4.16405
6113.00 6.09310
6113.26 9.52869
6113.39 12.2374
6113.52 15.8749
6113.76 25.3819
6114.00 31.6827
6114.24 25.3378
6114.49 15.8724
6114.70 10.3570
6114.91 7.05538
6115.12 5.03043
6115.34 3.74603
6115.76 2.29033
6116.19 1.54301
6116.61 1.11341
6117.04 0.845187
6117.88 0.543035
6118.73 0.385803
6119.58 0.294038
6120.43 0.235774
6121.28 0.196576
6122.98 0.148629
6124.68 0.121567
6126.38 0.104786
6128.08 0.0936598
6131.48 0.0802764
6134.88 0.0728641
6141.67 0.0655782
6148.47 0.0629687
6155.27 0.0641054
6158.67 0.0676945
6160.37 0.0715470
6162.06 0.0786505
6163.76 0.0936682
6164.61 0.108383
6165.46 0.134694
6166.31 0.189360
6167.16 0.334912
6167.59 0.522314
6168.01 0.993761
6168.22 1.55711
6168.44 2.81497
6168.54 4.11586
6168.65 6.54391
6168.70 8.59892
6168.75 11.6838
6168.81 16.4561
6168.86 23.9933
6168.93 38.2739
6169.00 47.9222
6169.07 38.2733
6169.14 23.9929
6169.18 17.8662
6169.22 13.4970
6169.31 8.23530
6169.39 5.45475
6169.48 3.85468
6169.56 2.86300
6169.64 2.21047
6169.81 1.44014
6169.98 1.01734
6170.15 0.764118
6170.48 0.487144
6170.82 0.348035
6171.15 0.268825
6171.82 0.187614
6172.49 0.150274
6173.16 0.131739
6174.50 0.121677
6175.84 0.138187
6176.51 0.161737
6177.18 0.207478
6177.85 0.305554
6178.52 0.567778
6178.86 0.899970
6179.02 1.20586
6179.19 1.71043
6179.36 2.64151
6179.44 3.42740
6179.53 4.60492
6179.61 6.52329
6179.69 9.85759
6179.74 12.4843
6179.78 16.1693
6179.82 21.4128
6179.86 28.7893
6179.90 36.6846
6179.93 45.9297
6180.00 57.5366
6180.07 45.9286
6180.14 28.7880
6180.21 17.4811
6180.28 11.2508
6180.36 7.71520
6180.43 5.60175
6180.50 4.22290
6180.57 3.29311
6180.71 2.16911
6180.86 1.53650
6181.00 1.15175
6181.29 0.724853
6181.57 0.505708
6181.86 0.379047
6182.43 0.246050
6183.01 0.181029
6183.58 0.144516
6184.73 0.106892
6185.87 0.0888017
6187.02 0.0786627
6189.31 0.0681810
6191.61 0.0630577
6193.90 0.0601247
6198.49 0.0569893
6207.66 0.0544134
6216.84 0.0533181
6235.19 0.0523549
6253.54 0.0519729
6290.24 0.0519559
6308.58 0.0523606
6317.76 0.0531371
6322.35 0.0554438
6324.64 0.0638914
6325.79 0.0952162
6326.36 0.204335
6326.65 0.539138
6326.79 1.34536
6326.86 2.72248
6326.90 4.27277
6326.93 7.06790
6326.97 11.3378
6327.00 14.0841
6327.03 11.3378
6327.07 7.06783
6327.11 3.94324
6327.15 2.40648
6327.23 1.12973
6327.40 0.440106
6327.73 0.170219
6328.39 0.0851897
6329.71 0.0613437
6332.36 0.0551287
6337.66 0.0537734
6348.25 0.0540958
6358.84 0.0551355
6369.43 0.0569202
6380.03 0.0601829
6385.32 0.0629655
6390.62 0.0673490
6395.91 0.0751020
6398.56 0.0816705
6401.21 0.0921475
6403.86 0.111433
6405.18 0.128663
6406.51 0.157727
6407.83 0.215056
6408.49 0.268892
6409.15 0.362415
6409.82 0.549565
6410.15 0.724170
6410.48 1.02092
6410.81 1.58745
6410.98 2.08828
6411.14 2.88018
6411.31 4.25358
6411.39 5.34182
6411.47 6.87466
6411.55 9.17290
6411.64 12.6769
6411.72 18.3658
6411.80 27.5840
6411.90 44.0840
6412.00 55.0541
6412.05 51.7670
6412.10 44.0844
6412.20 27.5860
6412.31 16.2060
6412.42 10.2431
6412.53 6.92802
6412.64 4.98444
6412.75 3.74471
6412.86 2.92522
6413.07 1.93522
6413.29 1.38948
6413.51 1.05880
6413.95 0.697855
6414.39 0.517876
6414.83 0.417473
6415.70 0.321016
6416.58 0.286205
6417.45 0.280837
6419.21 0.326958
6420.96 0.464143
6421.83 0.597703
6422.71 0.821222
6423.58 1.23006
6424.02 1.57140
6424.46 2.08389
6424.90 2.89622
6425.34 4.27144
6425.56 5.32721
6425.77 6.77435
6425.99 8.77786
6426.21 11.5158
6426.61 18.3878
6427.00 22.9493
6427.40 18.3656
6427.79 11.4967
6428.23 6.73855
6428.67 4.24121
6429.11 2.87101
6429.55 2.06347
6429.99 1.55247
6430.43 1.21182
6431.31 0.802910
6432.19 0.576872
6433.07 0.439640
6434.83 0.288594
6436.59 0.211883
6438.34 0.167727
6440.10 0.140048
6441.86 0.121616
6445.38 0.0995371
6448.90 0.0879334
6452.42 0.0844559
6454.17 0.0969016
6455.05 0.150732
6455.49 0.334213
6455.71 0.854913
6455.82 1.96464
6455.88 3.56397
6455.93 7.53290
6455.97 11.9606
6456.00 14.9812
6456.03 11.9605
6456.07 7.52162
6456.11 3.93915
6456.16 2.29967
6456.25 1.05597
6456.44 0.416201
6456.81 0.175527
6457.56 0.100821
6459.05 0.0790983
6462.03 0.0719631
6468.00 0.0690081
6473.97 0.0701872
6476.95 0.0771985
6478.44 0.102945
6479.19 0.194794
6479.56 0.492428
6479.75 1.28421
6479.84 2.82308
6479.89 4.85055
6479.93 9.27629
6479.97 14.7512
6480.00 18.4714
6480.03 14.7512
6480.07 9.26261
6480.10 5.52836
6480.14 3.54362
6480.21 1.76479
6480.36 0.708379
6480.65 0.268647
6481.22 0.125265
6482.38 0.0844819
6484.68 0.0744406
6489.30 0.0743906
6498.53 0.0842998
6503.15 0.0941227
6507.77 0.110288
6512.38 0.139174
6514.69 0.162884
6517.00 0.198117
6520.30 0.287800
6521.95 0.367569
6523.59 0.495790
6525.24 0.720313
6526.07 0.900612
6526.89 1.16178
6527.71 1.55665
6528.54 2.18323
6529.36 3.22546
6530.19 4.99056
6531.09 7.94821
6532.00 9.91815
6532.91 7.94264
6533.82 4.98650
6534.88 2.85503
6535.95 1.77566
6537.02 1.19906
6538.09 0.865230
6539.16 0.657306
6540.23 0.520420
6542.36 0.358467
6544.50 0.271703
6546.64 0.222699
6548.78 0.203728
6549.85 0.238700
6550.38 0.385968
6550.65 0.804921
6550.78 1.67992
6550.85 2.90513
6550.91 5.85826
6550.96 9.27753
6551.00 11.5502
6551.04 9.27690
6551.09 5.85704
6551.16 2.69670
6551.24 1.50209
6551.39 0.706437
6551.68 0.340204
6552.28 0.210860
6553.48 0.169338
6555.87 0.157707
6558.26 0.164905
6560.65 0.190203
6563.05 0.251689
6564.24 0.312367
6565.44 0.417161
6566.63 0.618150
6567.23 0.794329
6567.83 1.07218
6568.43 1.54394
6569.02 2.42765
6569.32 3.17784
6569.62 4.30683
6569.92 6.05809
6570.22 8.77470
6570.61 13.9960
6571.00 17.4617
6571.39 13.9790
6571.78 8.75992
6572.07 6.14966
6572.35 4.43542
6572.63 3.30782
6572.92 2.54856
6573.48 1.63625
6574.05 1.14032
6574.62 0.843999
6575.19 0.654516
6576.32 0.435388
6577.46 0.318576
6578.59 0.249222
6580.86 0.174430
6583.13 0.137393
6585.40 0.117862
6587.66 0.116104
6588.80 0.155997
6589.37 0.310190
6589.65 0.785972
6589.79 1.92873
6589.86 3.84145
6589.90 5.91820
6589.93 9.68949
6589.97 15.4487
6590.00 19.2881
6590.03 15.4484
6590.07 9.68891
6590.10 6.24384
6590.13 4.26429
6590.19 2.28988
6590.31 0.975981
6590.55 0.377479
6591.03 0.169970
6592.00 0.106609
6592.96 0.0921395
6593.92 0.0857068
6597.77 0.0751066
6605.48 0.0667745
6613.18 0.0626920
6620.89 0.0603288
6636.29 0.0580613
6651.70 0.0577032
6667.11 0.0592809
6674.81 0.0613833
6682.52 0.0654389
6690.22 0.0741603
6694.07 0.0827269
6697.93 0.0980475
6699.85 0.110718
6701.78 0.129740
6703.70 0.160232
6705.63 0.213756
6707.56 0.321174
6708.52 0.420983
6709.48 0.589210
6710.44 0.905427
6710.93 1.17936
6711.41 1.60592
6711.89 2.32204
6712.37 3.63518
6712.61 4.73102
6712.85 6.35109
6713.09 8.80841
6713.33 12.5203
6713.67 19.9997
6714.00 24.9612
6714.33 19.9738
6714.67 12.5000
6715.05 7.27489
6715.42 4.56075
6715.80 3.07893
6716.17 2.20707
6716.55 1.65832
6716.93 1.29321
6717.68 0.855651
6718.43 0.614928
6719.18 0.469193
6720.69 0.310129
6722.19 0.230772
6723.69 0.186736
6726.70 0.146598
6729.71 0.141300
6732.72 0.178357
6734.22 0.240942
6734.98 0.303770
6735.73 0.415894
6736.48 0.643071
6736.86 0.854909
6737.23 1.21232
6737.61 1.88394
6737.80 2.46432
6737.98 3.36849
6738.17 4.87916
6738.36 7.64356
6738.45 9.93591
6738.55 13.3090
6738.64 18.3953
6738.74 26.0665
6738.80 33.3281
6738.87 41.6185
6739.00 51.9681
6739.13 41.6169
6739.26 26.0646
6739.36 18.5264
6739.45 13.5276
6739.54 10.1719
6739.63 7.86848
6739.81 5.06093
6739.99 3.51016
6740.18 2.57524
6740.36 1.97198
6740.72 1.27017
6741.09 0.894627
6741.45 0.671072
6742.18 0.430004
6742.91 0.309892
6743.63 0.242032
6745.09 0.173524
6746.55 0.145521
6748.00 0.144825
6748.73 0.163649
6749.46 0.227873
6749.82 0.317438
6750.19 0.555069
6750.37 0.852865
6750.55 1.56707
6750.64 2.36687
6750.73 4.01576
6750.78 5.58865
6750.82 8.16395
6750.87 12.8875
6750.92 21.5980
6750.96 34.6020
6751.00 43.1095
6751.04 34.6013
6751.08 21.5969
6751.11 15.5392
6751.14 11.4751
6751.20 6.78643
6751.25 4.41478
6751.31 3.08821
6751.42 1.75799
6751.53 1.14515
6751.76 0.617967
6751.98 0.404160
6752.43 0.235247
6752.88 0.171071
6753.78 0.121736
6754.67 0.102870
6756.47 0.0878555
6758.26 0.0819327
6761.85 0.0782623
6765.44 0.0801449
6769.02 0.0886169
6772.61 0.114567
6774.40 0.149490
6776.20 0.243052
6777.10 0.365098
6777.54 0.481089
6777.99 0.681102
6778.44 1.07346
6778.67 1.42733
6778.89 2.00547
6779.11 3.04159
6779.23 3.89442
6779.34 5.15937
6779.45 7.13340
6779.56 10.4048
6779.67 16.1825
6779.79 26.7358
6779.89 42.7592
6780.00 53.2886
6780.11 42.6007
6780.22 26.7365
6780.33 16.1844
6780.44 10.4077
6780.55 7.13702
6780.66 5.17758
6780.77 3.90858
6780.89 3.05358
6781.11 2.01919
6781.33 1.43966
6781.56 1.08701
6782.00 0.696764
6782.45 0.498790
6782.90 0.385675
6783.79 0.270376
6784.68 0.218947
6785.58 0.195819
6787.36 0.193426
6789.15 0.241827
6790.05 0.297893
6790.94 0.398944
6791.83 0.599214
6792.28 0.779359
6792.73 1.06976
6793.17 1.58129
6793.62 2.59278
6793.84 3.50411
6794.07 4.94972
6794.29 7.36455
6794.51 11.4761
6794.76 18.3500
6795.00 22.9118
6795.24 18.3171
6795.49 11.4734
6795.67 7.90344
6795.86 5.62100
6796.04 4.14547
6796.23 3.16252
6796.60 2.00111
6796.97 1.37879
6797.34 1.01098
6797.71 0.776860
6798.45 0.507944
6799.19 0.365513
6799.93 0.281398
6801.41 0.191018
6802.89 0.145964
6804.37 0.120284
6807.33 0.0935209
6810.29 0.0805470
6813.25 0.0733209
6819.17 0.0662257
6825.09 0.0637688
6831.01 0.0651933
6833.98 0.0692560
6835.46 0.0736708
6836.94 0.0819385
6838.42 0.0997364
6839.16 0.117341
6839.90 0.149028
6840.64 0.214895
6841.38 0.389513
6841.75 0.611398
6842.12 1.15769
6842.30 1.79044
6842.49 3.15595
6842.58 4.51784
6842.67 6.90669
6842.72 8.87128
6842.76 11.6242
6842.81 15.6223
6842.86 21.4830
6842.93 34.2904
6843.00 42.9080
6843.07 34.2897
6843.14 21.4823
6843.22 13.0945
6843.29 8.43905
6843.37 5.79380
6843.44 4.19381
6843.51 3.16685
6843.59 2.47368
6843.73 1.63479
6843.88 1.16230
6844.03 0.874727
6844.32 0.554794
6844.62 0.391285
6844.91 0.296784
6845.50 0.197522
6846.09 0.149219
6846.68 0.122149
6847.86 0.0944852
6849.04 0.0813647
6850.22 0.0741408
6852.58 0.0669187
6854.95 0.0636362
6857.31 0.0619758
6862.03 0.0608169
6866.75 0.0613390
6871.47 0.0641397
6873.83 0.0679600
6876.19 0.0781910
6877.37 0.0918486
6878.55 0.129176
6879.14 0.179127
6879.73 0.313042
6880.02 0.486147
6880.32 0.923975
6880.47 1.45113
6880.61 2.63547
6880.69 3.88246
6880.76 6.24786
6880.80 8.28287
6880.83 11.3859
6880.87 16.2798
6880.91 23.8388
6880.93 30.6841
6880.95 38.2320
6881.00 47.6075
6881.05 38.2317
6881.09 23.8385
6881.12 17.6743
6881.15 13.2258
6881.21 8.02081
6881.27 5.25730
6881.32 3.70946
6881.44 2.11444
6881.55 1.36956
6881.78 0.722905
6882.01 0.459920
6882.47 0.251319
6882.93 0.172731
6883.85 0.113952
6884.77 0.0929608
6886.61 0.0784854
6888.44 0.0745115
6892.12 0.0752686
6895.79 0.0823739
6899.47 0.0992292
6901.30 0.115860
6903.14 0.145344
6904.98 0.205336
6905.90 0.261897
6906.82 0.358686
6907.74 0.545580
6908.19 0.711645
6908.65 0.978395
6909.11 1.44588
6909.57 2.36202
6909.80 3.18159
6910.03 4.47282
6910.26 6.62231
6910.49 10.2299
6910.75 16.3315
6911.00 20.3988
6911.26 16.3301
6911.51 10.2293
6911.69 7.21966
6911.87 5.22784
6912.06 3.90887
6912.24 3.01753
6912.60 1.93909
6912.96 1.34972
6913.33 0.996214
6913.69 0.770077
6914.42 0.508457
6915.14 0.369233
6915.87 0.287028
6917.32 0.199346
6918.78 0.156863
6920.23 0.134036
6923.13 0.115193
6926.04 0.117104
6927.49 0.126909
6928.95 0.148161
6930.40 0.195717
6931.13 0.242766
6931.85 0.326203
6932.58 0.495385
6932.94 0.653281
6933.31 0.920544
6933.67 1.42764
6933.85 1.86950
6934.03 2.55908
6934.21 3.73024
6934.40 5.89626
6934.49 7.73221
6934.58 10.4809
6934.67 14.7166
6934.76 21.1758
6934.88 33.8426
6935.00 42.2901
6935.06 39.7659
6935.12 33.8415
6935.24 21.1746
6935.32 15.6119
6935.39 11.7188
6935.54 7.08919
6935.69 4.67411
6935.84 3.29608
6935.99 2.44692
6936.14 1.89044
6936.44 1.23328
6936.74 0.876594
6937.04 0.662316
6937.64 0.429342
6938.24 0.312443
6938.84 0.245784
6940.04 0.176940
6941.24 0.144405
6942.44 0.126988
6944.84 0.111346
6949.64 0.108261
6954.44 0.123238
6959.24 0.160888
6961.64 0.196501
6964.04 0.255354
6966.44 0.361177
6967.64 0.448179
6968.84 0.576869
6970.04 0.776785
6971.24 1.10580
6972.44 1.68101
6973.04 2.12486
6973.64 2.71670
6974.82 4.31226
6976.00 5.37431
6977.18 4.31015
6978.36 2.71439
6979.13 1.98245
6979.90 1.47988
6981.44 0.896116
6982.98 0.598897
6984.52 0.432051
6986.06 0.330243
6987.60 0.264055
6990.68 0.186395
6993.76 0.144494
6996.84 0.119403
7002.99 0.0921719
7009.15 0.0785065
7015.31 0.0707018
7027.63 0.0626347
7039.94 0.0588975
7052.26 0.0572392
7064.57 0.0584457
7067.65 0.0607064
7070.73 0.0674786
7072.27 0.0769593
7073.81 0.103430
7074.58 0.139275
7075.35 0.236262
7075.74 0.362781
7076.12 0.686805
7076.31 1.08252
7076.51 1.99236
7076.60 2.96658
7076.70 4.86417
7076.75 6.54350
7076.79 9.17948
7076.84 13.5023
7076.89 20.8760
7076.95 33.2469
7077.00 41.6722
7077.06 33.2465
7077.11 20.8565
7077.17 12.5137
7077.22 8.04175
7077.28 5.47825
7077.34 3.96463
7077.45 2.32918
7077.57 1.53701
7077.80 0.819032
7078.03 0.519488
7078.49 0.277909
7078.95 0.185198
7079.86 0.114909
7080.78 0.0891525
7082.62 0.0701555
7084.45 0.0633414
7086.29 0.0601422
7088.12 0.0583942
7091.79 0.0566690
7099.14 0.0556109
7106.48 0.0557011
7113.82 0.0567636
7121.16 0.0602739
7128.50 0.0790078
7130.34 0.0978963
7132.17 0.150018
7133.09 0.219956
7134.01 0.406695
7134.47 0.646960
7134.93 1.24926
7135.16 1.96491
7135.27 2.58679
7135.39 3.55064
7135.50 5.18468
7135.61 8.17365
7135.67 10.7217
7135.73 14.4451
7135.79 20.1144
7135.84 28.9330
7135.92 46.2653
7136.00 57.7973
7136.08 46.2649
7136.16 28.9144
7136.21 20.7379
7136.26 15.2731
7136.37 8.98646
7136.47 5.81575
7136.57 4.04558
7136.68 2.97069
7136.78 2.27356
7136.99 1.45856
7137.20 1.02040
7137.41 0.758762
7137.82 0.475759
7138.65 0.253521
7139.49 0.169992
7141.15 0.107459
7142.82 0.0848172
7149.48 0.0626902
7162.79 0.0581786
7176.11 0.0593585
7189.43 0.0632406
7196.09 0.0667639
7202.75 0.0722359
7209.41 0.0812514
7216.07 0.0975253
7219.40 0.111050
7222.73 0.131397
7226.06 0.164032
7229.39 0.221200
7232.72 0.335322
7234.38 0.440552
7236.05 0.616137
7237.71 0.941398
7238.54 1.21849
7239.38 1.64312
7240.21 2.33837
7241.04 3.56907
7241.46 4.55718
7241.87 5.96772
7242.29 8.01719
7242.70 10.9835
7243.35 17.5382
7244.00 21.9045
7244.65 17.5237
7245.30 10.9714
7245.77 7.67436
7246.25 5.51485
7246.72 4.09774
7247.19 3.14430
7248.14 2.00153
7249.09 1.38278
7250.04 1.01401
7250.98 0.778396
7252.88 0.506473
7254.77 0.362155
7256.67 0.276707
7258.56 0.222043
7260.46 0.185016
7264.25 0.139507
7268.04 0.113709
7271.83 0.0977108
7275.62 0.0871347
7283.20 0.0745417
7290.77 0.0678342
7298.35 0.0646366
7302.14 0.0660187
7304.04 0.0753285
7304.99 0.110894
7305.46 0.232272
7305.70 0.585691
7305.82 1.36596
7305.87 2.54471
7305.93 5.75984
7305.97 9.20593
7306.00 11.4577
7306.03 9.20588
7306.07 5.75977
7306.12 2.91759
7306.16 1.68802
7306.26 0.761637
7306.45 0.302313
7306.84 0.132868
7307.61 0.0811687
7309.16 0.0669087
7312.26 0.0636095
7318.44 0.0670994
7321.54 0.0743513
7324.63 0.0958692
7326.18 0.125614
7327.73 0.207250
7328.50 0.315334
7329.27 0.597168
7329.66 0.948861
7329.85 1.26679
7330.05 1.78738
7330.24 2.72984
7330.43 4.65995
7330.53 6.48207
7330.63 9.49068
7330.72 14.9161
7330.82 24.9551
7330.91 39.8296
7331.00 49.8463
7331.09 39.8289
7331.18 24.9410
7331.26 16.7769
7331.33 11.6561
7331.40 8.43825
7331.48 6.36491
7331.62 3.94351
7331.77 2.67098
7331.92 1.92842
7332.06 1.46002
7332.36 0.926832
7332.95 0.483129
7333.53 0.308112
7334.71 0.172965
7335.89 0.122659
7338.24 0.0851721
7340.59 0.0715234
7345.30 0.0613610
7350.00 0.0575598
7350.00 0.520000
7700.00 0.505263
8000.00 0.492632
8300.00 0.480000
8500.00 0.580000
8800.00 0.510000
9000.00 0.670000
9100.00 0.510000
9300.00 0.570000
9500.00 0.640000
9700.00 0.560000
10000.0 0.729700
10250.0 0.532700
10500.0 0.602800
10750.0 0.584700
11000.0 0.450700
11250.0 0.494300
11500.0 0.342200
11750.0 0.531700
12000.0 0.414500
12250.0 0.655100
12500.0 0.538700
12750.0 0.445800
13000.0 0.431900
13250.0 0.446600
13500.0 0.523200
13750.0 0.296100
14000.0 0.482000
14250.0 0.349300
14500.0 0.417700
14750.0 0.630300
15000.0 0.585200
15250.0 0.248600
15500.0 0.395500
15750.0 0.499900
16000.0 0.425800
16250.0 0.373800
16500.0 0.466600
16750.0 0.552900
17000.0 0.264000
17250.0 0.460300
17500.0 0.269500
17750.0 0.316500
18000.0 0.380800
18250.0 0.295700
18500.0 0.442500
18750.0 0.264900
19000.0 0.511900
19250.0 0.322600
19500.0 0.350300
19750.0 0.453600
20000.0 0.445500
20250.0 0.211200
20500.0 0.338300
20750.0 0.261700
21000.0 0.423900
21250.0 0.368900
21500.0 0.330200
21750.0 0.420500
22000.0 0.213300
22250.0 0.596000
22500.0 0.210400
22750.0 0.345000
23000.0 0.384400
23250.0 0.324000
23500.0 0.406900
23750.0 0.297800
24000.0 0.352100
24250.0 0.266900
24500.0 0.364000
24750.0 0.283600
25000.0 0.247800
25250.0 0.333700
25500.0 0.276100
25750.0 0.397300
26000.0 0.369900
26250.0 0.339500
26500.0 0.322100
26750.0 0.265800
27000.0 0.299600
27250.0 0.298500
27500.0 0.222800
27750.0 0.345700
28000.0 0.345000
28250.0 0.207200
28500.0 0.243200
28750.0 0.248600
29000.0 0.206500
29250.0 0.221600
29310.0 0.229592
29500.0 0.254900
29750.0 0.257800
30000.0 0.321900
30250.0 0.222600
30500.0 0.293300
30750.0 0.255400
31000.0 0.274000
31060.0 0.270136
31063.7 0.269901
31154.6 0.264042
31250.0 0.257900
31500.0 0.366500
31750.0 0.289400
32000.0 0.371000
32250.0 0.282400
32500.0 0.270000
32750.0 0.330700
33000.0 0.320200
33250.0 0.187100
33500.0 0.217500
33750.0 0.345600
34000.0 0.191100
34250.0 0.222200
34500.0 0.329600
34750.0 0.243300
35000.0 0.251700
35250.0 0.267000
35500.0 0.265100
35750.0 0.213100
36000.0 0.244100
36250.0 0.276300
36500.0 0.244100
36750.0 0.226500
37000.0 0.290100
37250.0 0.231600
37500.0 0.146200
37750.0 0.287900
38000.0 0.243200
38250.0 0.136400
38500.0 0.224700
38750.0 0.236100
39000.0 0.195500
39250.0 0.245200
39500.0 0.221700
39750.0 0.248100
40000.0 0.203100
40250.0 0.240900
40500.0 0.189400
40750.0 0.180400
41000.0 0.171700
41250.0 0.267100
41500.0 0.226200
41750.0 0.215400
42000.0 0.181600
42250.0 0.247800
42500.0 0.221900
42750.0 0.209600
43000.0 0.215800
43250.0 0.233000
43500.0 0.223900
43750.0 0.295900
44000.0 0.167400
44250.0 0.196800
44500.0 0.211900
44750.0 0.200000
45000.0 0.212500
45250.0 0.196000
45500.0 0.133200
45750.0 0.199500
46000.0 0.240400
46250.0 0.161300
46500.0 0.178900
46750.0 0.271000
47000.0 0.191100
47250.0 0.193500
47500.0 0.257200
47750.0 0.128400
48000.0 0.259000
48250.0 0.196800
48500.0 0.231100
48750.0 0.231100
49000.0 0.178000
49250.0 0.170800
49500.0 0.188600
49750.0 0.206600
50000.0 0.202900
50250.0 0.148800
50500.0 0.237400
50750.0 0.217400
51000.0 0.217400
51250.0 0.148900
51500.0 0.194000
51750.0 0.173800
52000.0 0.166000
52250.0 0.190900
52500.0 0.175400
52750.0 0.160600
53000.0 0.179700
53250.0 0.213800
53500.0 0.188200
53750.0 0.158500
54000.0 0.168200
54250.0 0.251400
54500.0 0.160500
54750.0 0.211700
55000.0 0.166600
55250.0 0.140800
55500.0 0.203200
55750.0 0.170000
56000.0 0.214500
56250.0 0.172500
56500.0 0.195200
56750.0 0.161300
57000.0 0.192700
57250.0 0.134600
57500.0 0.184100
57750.0 0.184000
58000.0 0.159500
58250.0 0.192700
58500.0 0.157600
58750.0 0.178300
59000.0 0.209700
59250.0 0.148900
59500.0 0.179600
59750.0 0.197200
60000.0 0.120000
60250.0 0.164200
60500.0 0.203900
60750.0 0.176400
61000.0 0.131300
61250.0 0.166100
61500.0 0.137100
61750.0 0.153200
62000.0 0.164800
62250.0 0.190400
62500.0 0.205100
62750.0 0.138700
63000.0 0.129000
63250.0 0.110200
63500.0 0.175500
63750.0 0.137500
64000.0 0.170300
64250.0 0.116900
64500.0 0.176200
64750.0 0.185100
65000.0 0.147100
65250.0 0.144700
65500.0 0.130500
65750.0 0.170300
66000.0 0.174500
66250.0 0.160000
66500.0 0.128400
66750.0 0.165100
67000.0 0.154300
67250.0 0.146300
67500.0 0.150400
67750.0 0.160600
68000.0 0.166300
68250.0 0.152000
68500.0 0.151400
68750.0 0.145100
69000.0 0.139500
69250.0 0.179400
69500.0 0.156600
69750.0 0.156100
70000.0 0.159700
70250.0 0.174000
70500.0 0.106300
70750.0 0.169300
71000.0 0.116700
71250.0 0.131700
71500.0 0.143500
71750.0 0.142300
72000.0 0.193800
72250.0 0.123000
72500.0 0.150000
72750.0 0.137000
73000.0 0.133300
73250.0 0.151600
73500.0 0.136100
73750.0 0.156000
74000.0 0.129800
74250.0 0.152900
74500.0 0.149100
74750.0 0.132900
75000.0 0.178300
75250.0 0.116500
75500.0 0.160900
75750.0 0.109800
76000.0 0.115500
76250.0 0.151900
76500.0 0.135100
76750.0 0.115900
77000.0 0.129400
77250.0 0.157300
77500.0 0.142000
77750.0 0.123800
78000.0 0.142800
78250.0 0.125100
78500.0 0.146600
78750.0 0.121300
79000.0 0.136100
79250.0 0.132700
79500.0 0.142000
79750.0 0.179300
80000.0 0.114400
80250.0 0.109800
80500.0 0.144400
80750.0 0.148700
81000.0 0.127600
81250.0 0.126300
81500.0 0.105700
81750.0 0.137700
82000.0 0.160200
82250.0 0.164500
82500.0 0.156400
82750.0 0.124500
83000.0 0.131800
83250.0 0.136400
83500.0 0.147300
83750.0 0.133600
84000.0 0.133400
84250.0 0.128000
84500.0 0.121700
84750.0 0.133900
85000.0 0.137900
85250.0 0.120200
85500.0 0.109400
85750.0 0.138400
86000.0 0.117700
86250.0 0.136500
86500.0 0.122300
86750.0 0.117100
87000.0 0.115900
87250.0 0.135000
87500.0 0.123900
87750.0 0.141500
88000.0 0.108600
88250.0 0.115200
88500.0 0.146300
88750.0 0.138700
89000.0 0.0933100
89250.0 0.126000
89500.0 0.144100
89750.0 0.137200
90000.0 0.137200
90250.0 0.118600
90500.0 0.111300
90750.0 0.133600
91000.0 0.118400
91250.0 0.106500
91500.0 0.123700
91750.0 0.120700
92000.0 0.109600
92250.0 0.137600
92500.0 0.122000
92750.0 0.105100
93000.0 0.111200
93250.0 0.139500
93500.0 0.113800
93750.0 0.0963200
94000.0 0.0899800
94250.0 0.123900
94500.0 0.121900
94750.0 0.114000
95000.0 0.123400
95250.0 0.115700
95500.0 0.109200
95750.0 0.106500
96000.0 0.108000
96250.0 0.130600
96500.0 0.104600
96750.0 0.112400
97000.0 0.124700
97250.0 0.106300
97500.0 0.121800
97750.0 0.121300
98000.0 0.115600
98250.0 0.0962100
98500.0 0.124500
98750.0 0.114000
99000.0 0.101900
99250.0 0.115000
99500.0 0.124100
99750.0 0.121000
100000 0.116300
100200 0.119900
100500 0.104600
100700 0.116500
101000 0.119300
101200 0.113500
101500 0.128400
101700 0.107300
102000 0.137900
102200 0.113500
102500 0.114800
110000 0.105000
120000 0.101389
130000 0.0977778
140000 0.0941667
150000 0.0905556
200000 0.0725000
250000 0.0670000
300000 0.0615000
350000 0.0590500
400000 0.0566000
450000 0.0550500
500000 0.0535000
550000 0.0523500
600000 0.0512000
650000 0.0504500
680000 0.0500000
687300 0.0498905
700000 0.0497000
720000 0.0493600
740000 0.0490200
744000 0.0489520
749200 0.0488636
750000 0.0488500
752000 0.0488160
752078 0.0488147
760000 0.0486800
762500 0.0486375
780000 0.0483400
800000 0.0480000
808000 0.0476960
809600 0.0476352
809697 0.0476315
810000 0.0476200
816700 0.0473654
816773 0.0473626
820000 0.0472400
840000 0.0464800
850000 0.0461000
860000 0.0457200
880000 0.0449600
900000 0.0442000
920000 0.0427600
940000 0.0413200
950000 0.0406000
960000 0.0398800
960200 0.0398656
960213 0.0398646
979000 0.0385120
980000 0.0384400
989500 0.0377560
989629 0.0377467
1.00000E+06 0.0370000
1.08000E+06 0.0322000
1.09200E+06 0.0314800
1.10000E+06 0.0310000
1.20000E+06 0.0250000
1.28800E+06 0.0223600
1.30000E+06 0.0220000
1.31400E+06 0.0215800
1.31412E+06 0.0215766
1.32000E+06 0.0214000
1.33000E+06 0.0211000
1.33400E+06 0.0209800
1.33433E+06 0.0209700
1.34400E+06 0.0206800
1.34444E+06 0.0206668
1.37000E+06 0.0199000
1.38500E+06 0.0194500
1.39000E+06 0.0193000
1.40000E+06 0.0190000
1.40500E+06 0.0189125
1.40509E+06 0.0189109
1.48000E+06 0.0176000
1.49000E+06 0.0174250
1.49600E+06 0.0173200
1.49607E+06 0.0173188
1.50000E+06 0.0172500
1.50011E+06 0.0172480
1.51600E+06 0.0169700
1.51629E+06 0.0169650
1.60000E+06 0.0155000
1.61700E+06 0.0152450
1.61737E+06 0.0152394
1.67000E+06 0.0144500
1.68000E+06 0.0143000
1.68800E+06 0.0141800
1.68813E+06 0.0141780
1.69000E+06 0.0141500
1.69800E+06 0.0140300
1.69824E+06 0.0140264
1.69900E+06 0.0140150
1.69925E+06 0.0140112
1.70000E+06 0.0140000
1.70800E+06 0.0138800
1.70835E+06 0.0138748
1.75000E+06 0.0132500
1.80000E+06 0.0125000
1.90000E+06 0.0117500
1.95000E+06 0.0113750
1.96000E+06 0.0113000
1.97100E+06 0.0112175
1.97117E+06 0.0112162
2.00000E+06 0.0110000
2.06300E+06 0.0106598
2.15500E+06 0.0101630
2.17800E+06 0.0100388
2.17840E+06 0.0100367
2.20000E+06 0.00992000
2.20064E+06 0.00991656
2.40000E+06 0.00884000
2.50000E+06 0.00830000
2.56300E+06 0.00804800
2.60000E+06 0.00790000
2.80000E+06 0.00710000
3.00000E+06 0.00630000
3.20000E+06 0.00590000
3.40000E+06 0.00550000
3.50000E+06 0.00530000
3.60000E+06 0.00510000
3.80000E+06 0.00470000
3.85900E+06 0.00458200
3.86000E+06 0.00458000
4.00000E+06 0.00430000
4.05000E+06 0.00425000
4.20000E+06 0.00410000
4.40000E+06 0.00390000
4.50000E+06 0.00380000
4.58800E+06 0.00371200
4.60000E+06 0.00370000
4.80000E+06 0.00350000
5.00000E+06 0.00330000
5.50000E+06 0.00290000
6.00000E+06 0.00250000
6.10700E+06 0.00243580
6.10760E+06 0.00243544
6.11000E+06 0.00243400
6.15600E+06 0.00240640
6.26000E+06 0.00234400
6.26300E+06 0.00234220
6.50000E+06 0.00220000
7.00000E+06 0.00190000
7.50000E+06 0.00160000
8.00000E+06 0.00130000
8.34400E+06 0.00121400
8.50000E+06 0.00117500
8.92000E+06 0.00107000
8.92100E+06 0.00106975
8.92900E+06 0.00106775
9.00000E+06 0.00105000
9.04000E+06 0.00104000
9.05900E+06 0.00103525
9.06000E+06 0.00103500
9.10000E+06 0.00102500
9.20000E+06 0.00100000
9.30000E+06 0.000975000
9.37500E+06 0.000956250
9.40000E+06 0.000950000
9.50000E+06 0.000925000
9.60000E+06 0.000900000
9.70000E+06 0.000875000
9.80000E+06 0.000850000
9.90000E+06 0.000825000
1.00000E+07 0.000800000
1.02000E+07 0.000788000
1.03750E+07 0.000777500
1.04000E+07 0.000776000
1.06000E+07 0.000764000
1.08000E+07 0.000752000
1.10000E+07 0.000740000
1.12000E+07 0.000728000
1.13940E+07 0.000716360
1.14000E+07 0.000716000
1.15000E+07 0.000710000
1.16000E+07 0.000704000
1.18000E+07 0.000692000
1.20000E+07 0.000680000
1.23940E+07 0.000656360
1.25000E+07 0.000650000
1.25900E+07 0.000644600
1.25953E+07 0.000644283
1.26000E+07 0.000644000
1.30000E+07 0.000620000
1.34060E+07 0.000595640
1.34800E+07 0.000591200
1.34848E+07 0.000590910
1.35000E+07 0.000590001
1.35000E+07 0.000590000
1.35000E+07 0.000589999
1.35400E+07 0.000587600
1.40000E+07 0.000560000
1.43560E+07 0.000538640
1.45000E+07 0.000530000
1.50000E+07 0.000500000
1.55000E+07 0.000480000
1.55200E+07 0.000479200
1.60000E+07 0.000460000
1.69000E+07 0.000424000
1.70000E+07 0.000420000
1.72000E+07 0.000412000
1.72500E+07 0.000410000
1.75000E+07 0.000400000
1.77500E+07 0.000390000
1.78000E+07 0.000388000
1.80000E+07 0.000380000
1.85000E+07 0.000360000
1.90000E+07 0.000340000
1.95000E+07 0.000320000
2.00000E+07 0.000300000
2.00000E+07 0.000300000
2.00000E+07 0.00000
2.02846E+07 0.00000
2.06052E+07 0.00000
2.10000E+07 0.00000
2.11374E+07 0.00000
2.20000E+07 0.00000
2.30000E+07 0.00000
2.30114E+07 0.00000
2.40000E+07 0.00000
2.50000E+07 0.00000
2.56363E+07 0.00000
2.60000E+07 0.00000
2.67052E+07 0.00000
2.69547E+07 0.00000
2.70000E+07 0.00000
2.80000E+07 0.00000
2.90000E+07 0.00000
2.90781E+07 0.00000
2.94708E+07 0.00000
3.00000E+07 0.00000
3.10000E+07 0.00000
3.19005E+07 0.00000
3.20000E+07 0.00000
3.27587E+07 0.00000
3.30000E+07 0.00000
3.40000E+07 0.00000
3.49328E+07 0.00000
3.49461E+07 0.00000
3.50000E+07 0.00000
3.50539E+07 0.00000
3.60000E+07 0.00000
3.70000E+07 0.00000
3.77907E+07 0.00000
3.80000E+07 0.00000
3.90000E+07 0.00000
3.93387E+07 0.00000
4.00000E+07 0.00000
4.04522E+07 0.00000
4.05068E+07 0.00000
4.05225E+07 0.00000
4.10000E+07 0.00000
4.20000E+07 0.00000
4.30000E+07 0.00000
4.33706E+07 0.00000
4.40000E+07 0.00000
4.45546E+07 0.00000
4.50000E+07 0.00000
4.57358E+07 0.00000
4.57506E+07 0.00000
4.60000E+07 0.00000
4.70000E+07 0.00000
4.75374E+07 0.00000
4.80000E+07 0.00000
4.90000E+07 0.00000
4.94178E+07 0.00000
5.00000E+07 0.00000
5.06718E+07 0.00000
5.08701E+07 0.00000
5.10000E+07 0.00000
5.20000E+07 0.00000
5.25835E+07 0.00000
5.30000E+07 0.00000
5.40000E+07 0.00000
5.41152E+07 0.00000
5.50000E+07 0.00000
5.51049E+07 0.00000
5.60000E+07 0.00000
5.63679E+07 0.00000
5.70000E+07 0.00000
5.73960E+07 0.00000
5.80000E+07 0.00000
5.90000E+07 0.00000
6.00000E+07 0.00000
6.08954E+07 0.00000
6.10000E+07 0.00000
6.15339E+07 0.00000
6.20000E+07 0.00000
6.21263E+07 0.00000
6.30000E+07 0.00000
6.40000E+07 0.00000
6.50000E+07 0.00000
6.58563E+07 0.00000
6.60000E+07 0.00000
6.64071E+07 0.00000
6.70000E+07 0.00000
6.80000E+07 0.00000
6.90000E+07 0.00000
7.00000E+07 0.00000
7.01206E+07 0.00000
7.04060E+07 0.00000
7.10000E+07 0.00000
7.20000E+07 0.00000
7.30000E+07 0.00000
7.40000E+07 0.00000
7.42701E+07 0.00000
7.45966E+07 0.00000
7.50000E+07 0.00000
7.60000E+07 0.00000
7.70000E+07 0.00000
7.80000E+07 0.00000
7.86456E+07 0.00000
7.88016E+07 0.00000
7.90000E+07 0.00000
8.00000E+07 0.00000
8.10000E+07 0.00000
8.20000E+07 0.00000
8.30000E+07 0.00000
8.37230E+07 0.00000
8.40000E+07 0.00000
8.50000E+07 0.00000
8.60000E+07 0.00000
8.70000E+07 0.00000
8.80000E+07 0.00000
8.90000E+07 0.00000
8.92149E+07 0.00000
9.00000E+07 0.00000
9.10000E+07 0.00000
9.20000E+07 0.00000
9.30000E+07 0.00000
9.33125E+07 0.00000
9.40000E+07 0.00000
9.50000E+07 0.00000
9.60000E+07 0.00000
9.70000E+07 0.00000
9.80000E+07 0.00000
9.90000E+07 0.00000
1.00000E+08 0.00000
1.02000E+08 0.00000
1.04000E+08 0.00000
1.06000E+08 0.00000
1.08000E+08 0.00000
1.10000E+08 0.00000
1.12000E+08 0.00000
1.14000E+08 0.00000
1.16000E+08 0.00000
1.18000E+08 0.00000
1.20000E+08 0.00000
1.22000E+08 0.00000
1.24000E+08 0.00000
1.26000E+08 0.00000
1.28000E+08 0.00000
1.30000E+08 0.00000
1.32000E+08 0.00000
1.34000E+08 0.00000
1.36000E+08 0.00000
1.38000E+08 0.00000
1.40000E+08 0.00000
1.42000E+08 0.00000
1.44000E+08 0.00000
1.46000E+08 0.00000
1.48000E+08 0.00000
1.50000E+08 0.00000