Mo-96(n,g) ENDF/B-VII.1
Energy(eV) XS(b)
1.00000E-05 29.9360
1.25000E-05 26.7756
1.50000E-05 24.4426
2.00000E-05 21.1679
2.75000E-05 18.0521
3.50000E-05 16.0015
4.25000E-05 14.5211
5.00000E-05 13.3878
6.25000E-05 11.9744
7.50000E-05 10.9311
0.000100000 9.46660
0.000125000 8.46719
0.000150000 7.72945
0.000200000 6.69391
0.000275000 5.70859
0.000350000 5.06013
0.000425000 4.59200
0.000500000 4.23362
0.000625000 3.78667
0.000750000 3.45675
0.00100000 2.99364
0.00125000 2.67761
0.00150000 2.44432
0.00200000 2.11686
0.00275000 1.80528
0.00350000 1.60023
0.00425000 1.45220
0.00500000 1.33888
0.00625000 1.19755
0.00750000 1.09323
0.0100000 0.946798
0.0125000 0.846873
0.0150000 0.773114
0.0200000 0.669585
0.0253000 0.595380
0.0314750 0.533840
0.0376500 0.488147
0.0500000 0.423670
0.0625000 0.379011
0.0750000 0.346052
0.100000 0.299800
0.125000 0.268247
0.150000 0.244965
0.200000 0.212302
0.275000 0.181251
0.350000 0.160840
0.500000 0.134866
0.750000 0.110524
1.00000 0.0960707
1.50000 0.0790249
2.00000 0.0689487
2.75000 0.0594631
3.50000 0.0533069
5.00000 0.0456280
7.50000 0.0387226
10.0000 0.0348850
15.0000 0.0309051
20.0000 0.0291505
27.5000 0.0284799
35.0000 0.0292316
50.0000 0.0341075
62.5000 0.0424166
75.0000 0.0576225
87.5000 0.0879452
93.7500 0.115591
100.000 0.161432
106.666 0.256416
109.999 0.357620
110.832 0.406554
111.666 0.500014
112.082 0.602747
112.499 0.852758
112.707 1.16256
112.811 1.44866
112.915 1.93021
113.020 2.83984
113.072 3.63198
113.124 4.87455
113.176 6.98308
113.228 10.9272
113.254 14.2805
113.280 19.3048
113.306 27.0864
113.332 39.1849
113.366 62.3176
113.400 77.6987
113.434 62.3392
113.468 39.2144
113.503 24.1177
113.537 15.7638
113.572 10.9808
113.607 8.07229
113.676 4.92732
113.745 3.38309
113.814 2.51853
113.884 1.99035
114.022 1.40748
114.161 1.11307
114.299 0.946149
114.576 0.778601
115.130 0.673573
115.684 0.660482
117.900 0.811230
119.008 0.948513
120.116 1.13265
120.670 1.24764
120.947 1.31222
121.224 1.38220
121.501 1.45818
121.778 1.54084
122.055 1.63098
122.332 1.72951
122.609 1.83749
122.886 1.95616
123.163 2.08697
123.440 2.23163
123.994 2.57097
124.548 2.99552
125.102 3.53638
125.656 4.24030
126.210 5.18015
126.764 6.47461
127.318 8.32762
127.872 11.1139
128.426 15.5844
128.980 23.4288
129.257 29.7866
129.534 39.1318
129.811 53.6656
130.088 78.0426
130.365 123.500
130.504 162.492
130.642 222.791
130.781 322.508
130.919 502.220
130.988 649.107
131.058 861.818
131.127 1177.32
131.196 1642.88
131.298 2623.41
131.400 3273.16
131.502 2618.77
131.604 1638.30
131.671 1186.79
131.738 877.016
131.871 517.636
132.005 334.932
132.138 232.446
132.272 170.026
132.406 129.464
132.673 81.9711
132.940 56.3880
133.207 41.1009
133.474 31.2590
133.741 24.5608
134.276 16.2907
134.810 11.5801
135.345 8.64595
135.879 6.69726
136.948 4.35189
138.016 3.04918
139.085 2.25216
140.154 1.72969
142.291 1.10944
144.428 0.769794
146.566 0.564138
148.703 0.430402
152.978 0.273064
157.253 0.187774
161.527 0.136546
165.802 0.103463
174.352 0.0648713
182.901 0.0441717
191.451 0.0318550
200.000 0.0239683
213.746 0.0162010
227.491 0.0116280
241.237 0.00872764
254.982 0.00678394
282.473 0.00444428
309.965 0.00317355
337.456 0.00246062
364.947 0.00217760
378.692 0.00231206
385.565 0.00255725
392.438 0.00308696
399.311 0.00432836
402.747 0.00561494
406.184 0.00801091
409.620 0.0132139
411.338 0.0184457
413.056 0.0280493
413.915 0.0361837
414.775 0.0486619
415.634 0.0692243
416.493 0.106709
416.922 0.138267
417.352 0.186389
417.781 0.265102
418.211 0.407001
418.426 0.525186
418.641 0.703540
418.855 0.991006
419.070 1.49821
419.177 1.91179
419.285 2.52300
419.392 3.48035
419.500 5.10008
419.607 8.16783
419.661 10.8403
419.714 15.0394
419.768 22.1429
419.822 35.3898
419.849 46.6148
419.875 63.3805
419.902 89.2441
419.929 129.285
419.965 206.843
420.000 258.544
420.036 206.856
420.071 129.304
420.110 75.9661
420.149 47.8123
420.188 32.2300
420.227 23.0164
420.266 17.1706
420.305 13.2756
420.383 8.58458
420.461 5.98683
420.539 4.40865
420.696 2.67084
420.852 1.78830
421.008 1.28027
421.164 0.961514
421.320 0.748548
421.632 0.490575
421.944 0.346348
422.257 0.257624
422.569 0.199190
423.193 0.129433
423.818 0.0909789
424.442 0.0675482
425.067 0.0522265
426.316 0.0340622
427.564 0.0241125
428.813 0.0180758
430.062 0.0141378
432.560 0.00947847
435.058 0.00692744
440.053 0.00436267
445.049 0.00315347
450.044 0.00248157
460.036 0.00178576
480.018 0.00123180
500.000 0.000993134
558.616 0.000694591
617.233 0.000561258
734.465 0.000437118
851.698 0.000398694
910.314 0.000441515
939.623 0.000658585
954.277 0.00153912
957.940 0.00244974
961.604 0.00503550
963.435 0.00862434
965.267 0.0187334
966.183 0.0326271
966.641 0.0463700
967.099 0.0711847
967.557 0.123180
967.786 0.173735
968.015 0.263243
968.244 0.445089
968.358 0.615994
968.473 0.907113
968.587 1.46425
968.645 1.95553
968.702 2.73516
968.759 4.07899
968.816 6.64699
968.845 8.87697
968.873 12.3100
968.902 17.7950
968.931 26.6432
968.965 42.6397
969.000 53.3087
969.035 42.6411
969.069 26.6450
969.100 17.3913
969.130 11.8311
969.160 8.42785
969.190 6.25423
969.251 3.79244
969.311 2.52598
969.372 1.79697
969.432 1.34140
969.553 0.827408
969.674 0.560040
969.794 0.403984
970.036 0.238454
970.278 0.157155
970.519 0.111363
971.003 0.0643240
971.969 0.0294923
972.936 0.0169538
974.869 0.00783309
976.802 0.00459462
980.668 0.00225893
984.535 0.00143486
1000.00 0.000634395
1033.62 0.000427671
1067.23 0.000394936
1134.47 0.000389814
1201.70 0.000424718
1235.32 0.000537487
1252.12 0.000960309
1260.53 0.00262179
1262.63 0.00432720
1264.73 0.00913901
1265.78 0.0157724
1266.83 0.0342335
1267.36 0.0593087
1267.88 0.127308
1268.14 0.216705
1268.28 0.301179
1268.41 0.446526
1268.54 0.731528
1268.60 0.987763
1268.67 1.39586
1268.74 2.12778
1268.80 3.56386
1268.83 4.88507
1268.87 7.01943
1268.90 10.6536
1268.93 16.7297
1268.97 26.8943
1269.00 33.4023
1269.04 26.5858
1269.07 16.7305
1269.10 11.2492
1269.13 7.82214
1269.15 5.66214
1269.18 4.25167
1269.24 2.61893
1269.29 1.76141
1269.35 1.26126
1269.41 0.945893
1269.52 0.589292
1269.63 0.400283
1269.74 0.289380
1269.96 0.171665
1270.41 0.0805268
1270.86 0.0466542
1271.75 0.0215054
1272.65 0.0124345
1274.43 0.00582833
1276.22 0.00348099
1283.37 0.00119188
1297.68 0.000617465
1326.28 0.000485653
1383.50 0.000496283
1412.11 0.000540502
1440.71 0.000654599
1469.32 0.00122103
1476.47 0.00179681
1483.62 0.00343019
1487.20 0.00570370
1490.78 0.0121491
1492.56 0.0210846
1494.35 0.0462253
1495.25 0.0807289
1495.69 0.114813
1496.14 0.176289
1496.59 0.304803
1496.81 0.429820
1497.03 0.649704
1497.15 0.829865
1497.26 1.09659
1497.37 1.51538
1497.48 2.21881
1497.59 3.56447
1497.65 4.74152
1497.70 6.55666
1497.76 9.68369
1497.82 15.5505
1497.84 20.5398
1497.87 28.0599
1497.90 39.7411
1497.93 57.1475
1497.96 91.9022
1498.00 114.226
1498.04 90.9031
1498.07 57.1497
1498.10 37.7355
1498.14 25.8694
1498.17 18.5309
1498.20 13.9315
1498.26 8.47780
1498.32 5.69188
1498.38 4.05069
1498.44 3.03764
1498.56 1.88522
1498.69 1.27768
1498.81 0.924439
1498.93 0.698079
1499.05 0.546687
1499.30 0.360707
1499.54 0.255719
1500.03 0.147730
1500.53 0.0960987
1501.02 0.0675799
1502.00 0.0387315
1503.96 0.0177200
1505.92 0.0102600
1509.84 0.00487778
1513.76 0.00298135
1529.44 0.00114827
1560.81 0.000707176
1623.56 0.000647773
1749.04 0.000789974
1874.52 0.00109580
1937.26 0.00135852
2000.00 0.00177927
2041.96 0.00230687
2052.46 0.00257106
2062.95 0.00311129
2073.44 0.00543808
2076.06 0.00771971
2078.68 0.0141014
2080.00 0.0228878
2081.31 0.0474181
2081.96 0.0808568
2082.62 0.172254
2082.95 0.293559
2083.11 0.409759
2083.27 0.612191
2083.44 1.01255
2083.52 1.37811
2083.60 1.98205
2083.68 3.08222
2083.72 4.00293
2083.77 5.39118
2083.81 7.60654
2083.85 11.3949
2083.89 18.3913
2083.93 31.4911
2083.96 50.4908
2084.00 63.2020
2084.04 50.4914
2084.07 31.4920
2084.11 19.6055
2084.14 13.0016
2084.18 9.09757
2084.21 6.66581
2084.24 5.03262
2084.28 3.94968
2084.35 2.60844
2084.42 1.83707
2084.48 1.36731
2084.62 0.840656
2084.76 0.566959
2084.89 0.408151
2085.17 0.241175
2085.71 0.113446
2086.26 0.0664568
2087.35 0.0317003
2088.45 0.0192434
2090.63 0.0102155
2092.82 0.00704013
2101.57 0.00407526
2110.32 0.00367371
2119.06 0.00367149
2154.05 0.00454799
2189.05 0.00627129
2224.04 0.00945103
2241.53 0.0121297
2259.03 0.0162168
2276.52 0.0229114
2294.02 0.0350265
2302.77 0.0451620
2311.51 0.0605363
2320.26 0.0855042
2329.01 0.130096
2331.20 0.146772
2333.38 0.166893
2335.57 0.191476
2336.66 0.205870
2337.76 0.221942
2338.85 0.239994
2339.94 0.260328
2341.04 0.283388
2342.13 0.309632
2343.23 0.339733
2344.32 0.374414
2345.41 0.414731
2346.51 0.461878
2348.69 0.583942
2350.88 0.761464
2353.07 1.03359
2354.16 1.22752
2355.25 1.48072
2356.35 1.82029
2357.44 2.28868
2358.53 2.95973
2359.63 3.96250
2360.72 5.54691
2361.81 8.21309
2362.91 13.0319
2363.45 16.8701
2364.00 22.1110
2365.00 35.4042
2366.00 44.2624
2367.00 35.3663
2368.00 22.0745
2368.94 13.9756
2369.87 9.27861
2370.81 6.49477
2371.75 4.75866
2373.62 2.83737
2375.50 1.87063
2377.37 1.32139
2379.24 0.981385
2382.99 0.601279
2386.74 0.405296
2390.49 0.291462
2394.23 0.219591
2397.98 0.171361
2405.47 0.112708
2412.97 0.0797965
2420.46 0.0595328
2427.96 0.0462094
2442.95 0.0304731
2457.94 0.0224111
2465.43 0.0204809
2472.93 0.0211099
2476.67 0.0242870
2480.42 0.0352372
2482.30 0.0512455
2483.23 0.0674063
2484.17 0.0969552
2485.11 0.159918
2485.57 0.222168
2486.04 0.334018
2486.51 0.567611
2486.75 0.792886
2486.98 1.18889
2487.10 1.51031
2487.21 1.98332
2487.33 2.71998
2487.45 3.95777
2487.56 6.27162
2487.62 8.28201
2487.68 11.3453
2487.74 16.5196
2487.80 25.7299
2487.83 33.5696
2487.86 44.6475
2487.89 61.1005
2487.92 85.5007
2487.96 137.446
2488.00 171.007
2488.04 136.158
2488.09 85.5019
2488.12 55.8851
2488.16 38.3880
2488.19 27.5477
2488.23 20.5572
2488.30 12.5621
2488.37 8.40971
2488.45 5.97880
2488.52 4.47842
2488.66 2.77700
2488.81 1.88359
2488.95 1.36437
2489.10 1.03248
2489.24 0.810431
2489.53 0.538087
2489.82 0.384471
2490.40 0.226548
2490.98 0.151161
2491.55 0.109390
2492.71 0.0670920
2495.02 0.0360529
2497.33 0.0248034
2501.95 0.0162842
2506.57 0.0129134
2515.82 0.00988778
2525.06 0.00833078
2543.55 0.00650871
2562.04 0.00538109
2599.02 0.00402506
2635.99 0.00328110
2672.97 0.00289025
2709.95 0.00283001
2728.44 0.00304692
2746.92 0.00385882
2756.17 0.00505868
2765.41 0.00852179
2770.03 0.0133634
2774.66 0.0270988
2776.97 0.0461308
2778.12 0.0651004
2779.28 0.0996108
2780.43 0.172930
2781.01 0.245271
2781.59 0.375267
2781.88 0.483518
2782.17 0.646683
2782.46 0.909242
2782.74 1.37171
2782.89 1.74941
2783.03 2.30248
2783.18 3.17240
2783.32 4.62950
2783.47 7.38976
2783.54 9.76270
2783.61 13.4589
2783.68 19.6333
2783.76 30.9294
2783.79 40.2939
2783.83 54.0681
2783.86 74.8261
2783.90 106.100
2783.95 169.939
2784.00 211.189
2784.05 168.606
2784.10 105.059
2784.13 77.7145
2784.16 58.9971
2784.22 35.9683
2784.29 23.7673
2784.35 16.7319
2784.41 12.3646
2784.47 9.48735
2784.59 6.09149
2784.71 4.21931
2784.83 3.09132
2785.08 1.86461
2785.32 1.24346
2785.56 0.889043
2785.81 0.666451
2786.05 0.518699
2786.54 0.339764
2787.02 0.239935
2788.00 0.138312
2788.97 0.0902535
2789.95 0.0637960
2791.89 0.0371766
2795.79 0.0179098
2799.69 0.0110968
2807.48 0.00620112
2815.27 0.00448523
2846.44 0.00288531
2908.77 0.00279478
2971.10 0.00339071
3033.44 0.00467632
3064.60 0.00578820
3095.77 0.00748947
3126.94 0.0102660
3158.10 0.0152532
3173.69 0.0193970
3189.27 0.0256465
3204.85 0.0357304
3220.44 0.0535994
3224.33 0.0602460
3228.23 0.0682430
3230.18 0.0728654
3232.13 0.0779834
3234.07 0.0836702
3236.02 0.0900135
3237.97 0.0971184
3239.92 0.105112
3241.87 0.114148
3243.81 0.124416
3245.76 0.136151
3247.71 0.149645
3251.60 0.183477
3255.50 0.230323
3259.40 0.297754
3263.29 0.399719
3267.19 0.564040
3269.14 0.686517
3271.08 0.852772
3273.03 1.08567
3274.98 1.42440
3276.93 1.93943
3278.88 2.76382
3280.82 4.15630
3282.77 6.60333
3284.33 9.99423
3285.11 13.7204
3285.30 16.0137
3285.50 20.8063
3285.60 25.7497
3285.69 35.0689
3285.74 43.2836
3285.79 55.7504
3285.84 76.3156
3285.89 109.259
3285.94 167.772
3286.00 206.808
3286.06 167.914
3286.11 109.548
3286.17 72.6475
3286.23 52.0795
3286.28 39.8788
3286.34 32.5123
3286.45 24.3949
3286.56 20.4075
3286.78 16.7641
3287.00 15.2130
3287.53 13.5924
3288.06 12.5555
3289.12 10.4211
3291.23 6.43764
3293.51 3.81065
3295.79 2.41185
3298.07 1.63399
3300.35 1.17028
3302.63 0.875649
3304.91 0.678244
3309.46 0.439943
3314.02 0.307840
3318.58 0.227376
3327.70 0.138793
3336.81 0.0938439
3345.93 0.0680509
3355.04 0.0519569
3364.16 0.0412995
3382.39 0.0286763
3400.63 0.0220401
3418.86 0.0184921
3437.09 0.0168696
3473.56 0.0182376
3491.79 0.0219443
3510.02 0.0296975
3528.25 0.0467597
3537.37 0.0634194
3541.93 0.0758145
3544.21 0.0835472
3546.49 0.0926144
3548.77 0.103342
3549.91 0.109455
3551.04 0.116145
3552.18 0.123500
3553.32 0.131595
3554.46 0.140549
3555.60 0.150467
3556.74 0.161513
3557.88 0.173840
3560.16 0.203248
3562.44 0.240936
3564.72 0.290286
3567.00 0.356565
3569.28 0.448329
3571.56 0.580140
3573.83 0.778203
3576.11 1.09282
3578.39 1.62744
3579.53 2.03970
3580.67 2.60634
3581.81 3.39495
3582.95 4.48254
3584.98 7.16803
3587.00 8.95323
3589.03 7.15754
3591.05 4.47238
3592.40 3.21945
3593.75 2.36759
3596.45 1.38859
3599.15 0.895521
3601.85 0.620559
3604.55 0.453688
3607.25 0.345585
3612.65 0.219286
3618.05 0.151417
3623.45 0.110917
3634.25 0.0671234
3645.05 0.0452415
3655.85 0.0327931
3666.66 0.0250737
3677.46 0.0200063
3699.06 0.0142532
3720.66 0.0123514
3731.46 0.0134467
3736.86 0.0152568
3742.26 0.0190642
3747.66 0.0278340
3750.36 0.0368307
3753.06 0.0534590
3754.41 0.0675751
3755.76 0.0892345
3757.11 0.124896
3758.46 0.189766
3759.14 0.244233
3759.81 0.327085
3760.49 0.462066
3761.16 0.704124
3761.50 0.904927
3761.84 1.20540
3762.17 1.68755
3762.51 2.52702
3762.85 4.19905
3763.02 5.73386
3763.19 8.26436
3763.35 12.9319
3763.44 16.8990
3763.52 22.8599
3763.61 32.6042
3763.69 49.3525
3763.78 80.9635
3763.82 107.154
3763.86 144.132
3763.93 230.651
3764.00 288.341
3764.07 230.640
3764.14 144.126
3764.21 89.2729
3764.28 58.3086
3764.35 40.3494
3764.42 29.4514
3764.48 22.2561
3764.55 17.4227
3764.69 11.4323
3764.83 8.05339
3764.96 5.97056
3765.24 3.65053
3765.51 2.45556
3765.79 1.76578
3766.06 1.33071
3766.33 1.03891
3766.88 0.683678
3767.43 0.484681
3767.98 0.361746
3768.53 0.280792
3769.63 0.183888
3770.72 0.130360
3771.82 0.0977009
3772.92 0.0763131
3775.11 0.0509115
3777.30 0.0369548
3781.69 0.0228836
3786.08 0.0162347
3790.47 0.0125356
3799.24 0.00870193
3808.02 0.00678804
3816.80 0.00564905
3834.35 0.00433819
3869.45 0.00306988
3904.55 0.00240326
3974.76 0.00168030
4044.96 0.00130585
4115.17 0.00111702
4185.38 0.00111848
4220.48 0.00127747
4238.03 0.00146424
4255.58 0.00182088
4273.13 0.00259534
4281.91 0.00336833
4290.68 0.00477770
4299.46 0.00778717
4303.85 0.0107847
4308.24 0.0162537
4312.62 0.0279326
4314.82 0.0395407
4317.01 0.0606387
4318.11 0.0783540
4319.21 0.105313
4320.30 0.149270
4321.40 0.228214
4321.95 0.293763
4322.50 0.392118
4323.05 0.550108
4323.59 0.826410
4324.14 1.37894
4324.42 1.88761
4324.69 2.73675
4324.96 4.30828
4325.10 5.64545
4325.24 7.69604
4325.38 11.0469
4325.51 16.9799
4325.65 28.5313
4325.72 38.4782
4325.79 52.6535
4325.89 84.2660
4326.00 105.346
4326.11 84.2603
4326.21 52.6500
4326.31 34.5814
4326.40 23.7039
4326.49 16.9221
4326.58 12.6151
4326.76 7.67824
4326.95 5.12597
4327.13 3.65226
4327.31 2.72937
4327.68 1.68805
4328.04 1.14381
4328.41 0.826220
4328.77 0.624108
4329.14 0.488324
4329.87 0.322059
4330.60 0.228457
4331.33 0.170549
4332.06 0.132257
4333.53 0.0863491
4334.99 0.0609695
4336.45 0.0454768
4337.91 0.0353355
4340.84 0.0233164
4343.76 0.0167574
4349.61 0.0102682
4355.46 0.00736326
4361.31 0.00592674
4373.01 0.00506565
4384.71 0.00607327
4396.41 0.0107510
4402.26 0.0177050
4405.18 0.0247341
4408.11 0.0376197
4411.03 0.0651654
4412.50 0.0925043
4413.96 0.141985
4414.69 0.183427
4415.42 0.246151
4416.15 0.347812
4416.88 0.528755
4417.25 0.677714
4417.61 0.899024
4417.98 1.25050
4418.34 1.85376
4418.71 3.02776
4418.89 4.07898
4419.08 5.76746
4419.26 8.75843
4419.44 14.7143
4419.53 20.1459
4419.62 28.7802
4419.72 43.3476
4419.81 68.4575
4419.90 109.552
4420.00 136.953
4420.10 109.547
4420.19 68.4547
4420.27 47.5342
4420.34 33.9223
4420.41 25.0420
4420.48 19.1528
4420.63 12.0304
4420.77 8.21149
4420.91 5.92685
4421.06 4.47833
4421.34 2.80727
4421.63 1.91776
4421.91 1.39318
4422.20 1.05645
4422.49 0.829076
4423.06 0.549163
4423.63 0.390373
4424.21 0.291742
4424.78 0.226328
4425.93 0.147647
4427.07 0.104012
4429.36 0.0597745
4431.66 0.0389195
4433.95 0.0274649
4438.53 0.0159495
4443.12 0.0105578
4447.70 0.00760382
4456.87 0.00463844
4475.21 0.00249586
4493.55 0.00176993
4530.23 0.00174190
4548.57 0.00389847
4557.74 0.0129240
4560.03 0.0222167
4562.32 0.0483621
4563.47 0.0842308
4564.61 0.183487
4565.19 0.316821
4565.47 0.446316
4565.76 0.674056
4566.05 1.13563
4566.19 1.56534
4566.33 2.29245
4566.48 3.68016
4566.55 4.89293
4566.62 6.77105
4566.69 9.99343
4566.76 15.9145
4566.80 20.9860
4566.83 28.6119
4566.87 40.4288
4566.91 58.6229
4566.95 93.8892
4567.00 117.190
4567.05 93.8889
4567.09 58.5609
4567.14 35.8892
4567.19 23.3772
4567.24 16.1487
4567.28 11.7224
4567.33 8.85566
4567.38 6.90747
4567.47 4.52152
4567.57 3.16892
4567.66 2.34754
4567.85 1.43366
4568.04 0.962857
4568.23 0.691826
4568.60 0.405836
4568.98 0.266519
4569.36 0.188395
4570.11 0.108578
4571.62 0.0496786
4573.12 0.0285487
4576.14 0.0132060
4579.15 0.00776508
4591.21 0.00243885
4615.32 0.00104505
4663.55 0.000636203
4760.01 0.000491509
4856.47 0.000489113
4904.70 0.000580200
4928.81 0.000910926
4940.87 0.00218845
4946.90 0.00720399
4949.91 0.0266801
4950.67 0.0463032
4951.42 0.100173
4951.80 0.172027
4952.17 0.362244
4952.36 0.604567
4952.55 1.19686
4952.64 1.87981
4952.74 3.34466
4952.78 4.78535
4952.83 7.31973
4952.88 12.2062
4952.90 16.4444
4952.93 22.3317
4952.96 35.8691
4953.00 44.6340
4953.04 35.8692
4953.07 22.3022
4953.10 16.6582
4953.12 12.5018
4953.17 7.54180
4953.21 4.94761
4953.26 3.46554
4953.35 1.95255
4953.44 1.25030
4953.63 0.631625
4953.81 0.380282
4954.18 0.180906
4954.54 0.105569
4955.27 0.0488163
4956.01 0.0281477
4958.94 0.00759437
4964.81 0.00230513
4976.54 0.000971871
5000.00 0.000658096
5047.87 0.000645316
5095.74 0.000747341
5143.61 0.000939744
5191.48 0.00129919
5239.35 0.00206387
5263.29 0.00281742
5287.22 0.00417669
5299.19 0.00531189
5311.16 0.00703298
5323.12 0.00983050
5335.09 0.0148418
5341.07 0.0189948
5347.06 0.0252390
5353.04 0.0352635
5359.03 0.0528803
5362.02 0.0671932
5365.01 0.0882869
5366.51 0.102798
5368.00 0.121222
5369.50 0.145099
5370.25 0.159777
5370.99 0.176799
5371.74 0.196688
5372.49 0.220122
5373.24 0.247987
5373.99 0.281461
5374.73 0.322135
5375.48 0.372200
5376.23 0.434725
5376.98 0.514112
5377.73 0.616828
5378.47 0.752632
5379.22 0.936680
5379.97 1.19323
5380.72 1.56221
5381.47 2.11039
5382.21 2.94724
5382.96 4.22561
5383.98 6.76762
5385.00 8.46442
5386.02 6.76469
5387.04 4.22319
5387.85 2.86318
5388.66 2.00585
5389.46 1.46023
5390.27 1.10205
5391.89 0.684507
5393.50 0.464262
5395.11 0.335667
5396.73 0.255038
5399.96 0.165646
5403.19 0.125319
5406.42 0.121175
5408.03 0.145013
5408.84 0.174264
5409.64 0.230933
5410.45 0.354327
5410.86 0.476018
5411.26 0.692048
5411.66 1.13257
5411.87 1.54655
5412.07 2.24706
5412.27 3.58751
5412.37 4.76394
5412.47 6.62663
5412.57 9.81241
5412.67 15.8542
5412.72 21.1143
5412.77 28.9767
5412.82 41.3248
5412.87 61.0954
5412.94 97.8860
5413.00 122.157
5413.06 97.8842
5413.13 61.0940
5413.18 41.3238
5413.23 28.9757
5413.28 21.1131
5413.33 15.9370
5413.43 9.85231
5413.53 6.67106
5413.63 4.78932
5413.73 3.61168
5413.93 2.26483
5414.13 1.55281
5414.33 1.13408
5414.73 0.687854
5415.13 0.466494
5415.54 0.341243
5416.34 0.211175
5417.14 0.148160
5417.94 0.112588
5419.55 0.0753236
5421.16 0.0566366
5422.76 0.0455594
5425.97 0.0329995
5432.40 0.0213670
5438.82 0.0156517
5451.67 0.00990777
5464.52 0.00709954
5477.37 0.00552708
5490.21 0.00460341
5515.91 0.00385259
5541.60 0.00425945
5554.45 0.00511618
5567.30 0.00692112
5573.72 0.00852572
5580.15 0.0110374
5586.57 0.0152352
5592.99 0.0229695
5596.21 0.0295274
5599.42 0.0395849
5602.63 0.0561430
5605.84 0.0862750
5607.45 0.111592
5609.05 0.150131
5610.66 0.212990
5612.27 0.325904
5613.07 0.419570
5613.87 0.560389
5614.67 0.786188
5615.48 1.18187
5616.28 1.97171
5616.68 2.70137
5617.08 3.91711
5617.49 6.17533
5617.69 8.10015
5617.89 11.0386
5618.09 15.8685
5618.29 24.3849
5618.49 41.0766
5618.59 55.2753
5618.69 75.8071
5618.84 121.205
5619.00 151.428
5619.16 120.885
5619.31 75.5590
5619.49 43.7567
5619.67 27.3060
5619.84 18.2829
5620.02 13.0090
5620.20 9.67155
5620.37 7.46419
5620.72 4.81486
5621.08 3.35085
5621.43 2.46504
5622.13 1.49093
5622.84 0.996765
5623.55 0.713191
5624.25 0.535420
5624.96 0.416723
5626.37 0.272995
5627.78 0.192734
5629.19 0.143354
5630.60 0.110871
5633.42 0.0721013
5636.24 0.0507362
5639.06 0.0377247
5641.88 0.0292197
5647.52 0.0191367
5653.16 0.0136163
5664.45 0.00808909
5675.73 0.00551889
5687.01 0.00412925
5709.58 0.00280749
5732.15 0.00237469
5743.43 0.00240522
5754.71 0.00268335
5766.00 0.00349552
5771.64 0.00437837
5777.28 0.00604219
5780.10 0.00746812
5782.92 0.00966831
5785.74 0.0133119
5788.56 0.0199835
5789.97 0.0256262
5791.38 0.0342579
5792.80 0.0484533
5794.21 0.0742134
5794.91 0.0958509
5795.62 0.128693
5796.32 0.182136
5797.03 0.277821
5797.38 0.357072
5797.73 0.475501
5798.08 0.665139
5798.44 0.994434
5798.79 1.64735
5798.97 2.24170
5799.14 3.22251
5799.32 5.02040
5799.41 6.51770
5799.49 8.77373
5799.58 12.3710
5799.63 15.0085
5799.67 18.5178
5799.71 23.2813
5799.76 29.8667
5799.80 39.0784
5799.85 52.0489
5799.92 83.1684
5800.00 104.094
5800.04 97.7817
5800.08 83.1661
5800.15 52.0467
5800.21 35.5816
5800.27 25.0044
5800.33 18.2426
5800.39 13.7788
5800.51 8.55465
5800.63 5.78201
5800.75 4.15394
5800.87 3.12260
5801.11 1.94738
5801.35 1.32573
5801.59 0.961042
5801.83 0.727526
5802.07 0.570331
5802.55 0.377202
5803.03 0.267909
5803.51 0.200139
5803.99 0.155249
5804.95 0.101319
5805.90 0.0714584
5806.86 0.0531984
5807.82 0.0412251
5809.74 0.0269923
5811.65 0.0191854
5813.57 0.0144421
5815.49 0.0113491
5819.32 0.00769111
5823.15 0.00569368
5830.82 0.00370073
5838.48 0.00277988
5846.15 0.00228693
5861.48 0.00182730
5892.14 0.00165665
5922.80 0.00195313
5953.47 0.00287371
5968.80 0.00385817
5984.13 0.00569566
5991.80 0.00726231
5999.46 0.00967270
6007.13 0.0136540
6014.79 0.0209263
6018.63 0.0270593
6022.46 0.0364279
6026.29 0.0517799
6030.12 0.0795341
6032.04 0.102725
6033.96 0.137803
6035.87 0.194595
6037.79 0.295386
6038.75 0.378122
6039.71 0.500980
6040.67 0.694911
6041.62 1.02711
6042.58 1.66693
6043.06 2.23478
6043.54 3.14470
6044.02 4.72857
6044.50 7.81676
6044.74 10.5591
6044.98 14.8483
6045.22 21.9152
6045.46 33.6317
6045.73 53.8445
6046.00 67.2466
6046.27 53.7573
6046.55 33.5648
6046.80 21.2477
6047.06 14.1269
6047.31 9.88657
6047.57 7.25125
6048.08 4.32627
6048.59 2.85522
6049.10 2.01764
6049.61 1.49982
6050.63 0.919684
6051.65 0.620408
6052.67 0.446406
6053.69 0.336480
6054.72 0.262667
6056.76 0.172787
6058.80 0.122295
6060.84 0.0911283
6062.88 0.0705510
6066.97 0.0459252
6071.05 0.0323197
6075.14 0.0240181
6079.22 0.0185831
6087.39 0.0121341
6095.56 0.00859999
6103.73 0.00645633
6111.90 0.00505936
6128.23 0.00341062
6144.57 0.00251418
6177.25 0.00163101
6209.92 0.00124091
6242.60 0.00105586
6307.94 0.000983962
6373.29 0.00123444
6405.97 0.00156495
6438.64 0.00221016
6454.98 0.00276932
6471.32 0.00363595
6487.66 0.00507608
6503.99 0.00772239
6512.16 0.00996475
6520.33 0.0134049
6528.50 0.0190743
6536.67 0.0294090
6540.75 0.0381120
6544.84 0.0513848
6548.92 0.0730948
6553.01 0.112256
6555.05 0.144898
6557.09 0.194158
6559.13 0.273599
6561.17 0.413973
6562.20 0.528508
6563.22 0.697927
6564.24 0.963631
6565.26 1.41457
6566.28 2.27063
6566.79 3.01971
6567.30 4.19841
6567.81 6.20638
6568.32 9.97235
6568.58 13.1955
6568.83 18.0488
6569.09 25.6157
6569.34 37.4764
6569.67 59.9901
6570.00 75.0048
6570.33 59.9802
6570.66 37.4701
6570.90 26.1364
6571.14 18.7212
6571.38 13.8598
6571.62 10.5968
6572.10 6.68514
6572.58 4.56489
6573.07 3.30047
6573.55 2.49373
6574.51 1.56302
6575.47 1.06853
6576.43 0.776041
6577.40 0.588707
6578.36 0.461871
6580.28 0.305916
6582.21 0.217423
6584.13 0.162447
6586.06 0.125981
6589.91 0.0821430
6593.76 0.0578026
6597.61 0.0429043
6601.46 0.0331304
6609.16 0.0215045
6616.86 0.0151195
6624.56 0.0112397
6632.26 0.00870785
6647.66 0.00571389
6663.05 0.00407985
6678.45 0.00309261
6693.85 0.00245232
6755.45 0.00131044
6817.05 0.000969221
6878.64 0.000940622
6909.44 0.00104642
6940.24 0.00130420
6971.04 0.00191924
6986.44 0.00255431
7001.84 0.00373007
7009.54 0.00472943
7017.24 0.00626453
7024.94 0.00879729
7032.63 0.0134186
7036.48 0.0173127
7040.33 0.0232572
7044.18 0.0329909
7048.03 0.0505707
7049.96 0.0652419
7051.88 0.0874273
7053.81 0.123287
7055.73 0.186866
7056.70 0.238952
7057.66 0.316178
7058.62 0.437988
7059.58 0.645885
7060.07 0.810256
7060.55 1.04514
7061.03 1.39764
7061.27 1.64434
7061.51 1.95982
7061.75 2.37535
7061.99 2.93163
7062.23 3.70455
7062.47 4.80591
7062.71 6.45126
7062.95 8.99482
7063.19 13.1211
7063.43 19.8361
7063.72 31.7367
7064.00 39.6688
7064.14 37.3344
7064.28 31.7336
7064.57 19.8331
7064.88 11.7029
7065.19 7.38030
7065.50 4.98603
7065.81 3.56327
7066.12 2.66143
7066.43 2.05827
7067.05 1.33140
7067.67 0.929069
7068.29 0.684191
7069.53 0.414777
7070.77 0.277759
7072.01 0.198875
7073.25 0.149380
7074.49 0.116333
7076.97 0.0762774
7079.45 0.0538853
7081.92 0.0401114
7084.40 0.0310409
7089.36 0.0202150
7094.32 0.0142497
7099.28 0.0106163
7104.24 0.00824163
7114.15 0.00542827
7124.07 0.00388900
7133.99 0.00295640
7143.91 0.00234914
7163.74 0.00163329
7183.57 0.00124477
7223.24 0.000864335
7262.91 0.000703117
7302.58 0.000651081
7342.25 0.000794235
7362.08 0.00152286
7372.00 0.00444842
7376.96 0.0159379
7379.44 0.0601139
7380.06 0.104127
7380.68 0.223503
7380.99 0.379785
7381.30 0.782278
7381.45 1.27547
7381.61 2.42690
7381.69 3.68768
7381.76 6.15243
7381.80 8.39965
7381.84 11.8840
7381.88 17.8621
7381.92 27.7702
7381.96 44.4326
7382.00 55.5410
7382.04 44.4326
7382.08 27.7704
7382.13 16.7192
7382.17 10.6961
7382.22 7.29660
7382.26 5.24977
7382.35 3.05834
7382.44 1.99711
7382.61 1.03413
7382.79 0.629301
7383.14 0.302569
7383.49 0.177449
7384.19 0.0823546
7384.89 0.0474852
7387.69 0.0126325
7393.30 0.00360299
7404.51 0.00130615
7426.94 0.000732365
7471.79 0.000615878
7561.49 0.000727965
7606.35 0.000881679
7651.20 0.00118236
7673.63 0.00146811
7696.05 0.00201781
7718.48 0.00373484
7729.69 0.00836222
7735.30 0.0242021
7736.70 0.0398885
7738.10 0.0831830
7738.80 0.141617
7739.50 0.299741
7739.85 0.506791
7740.20 1.03721
7740.38 1.68455
7740.55 3.18754
7740.64 4.82128
7740.73 7.99585
7740.77 10.8641
7740.82 15.4245
7740.86 23.0280
7740.90 35.7461
7740.95 57.3106
7741.00 71.4898
7741.05 57.3105
7741.10 35.7462
7741.13 25.3998
7741.16 18.3889
7741.20 13.7250
7741.23 10.5479
7741.30 6.70741
7741.37 4.60385
7741.50 2.53263
7741.64 1.59868
7741.91 0.798016
7742.18 0.478187
7742.73 0.228008
7743.27 0.134296
7744.35 0.0645021
7745.44 0.0394152
7749.78 0.0158091
7758.47 0.0163325
7762.82 0.0251052
7767.16 0.0514585
7769.33 0.0880822
7770.42 0.124397
7771.50 0.190008
7772.59 0.327812
7773.13 0.462050
7773.67 0.700355
7773.95 0.896134
7774.22 1.18598
7774.49 1.64516
7774.76 2.42853
7775.03 3.94260
7775.17 5.28730
7775.30 7.42323
7775.44 11.1631
7775.57 18.3789
7775.64 24.7962
7775.71 34.8635
7775.78 51.3507
7775.84 78.4809
7775.92 125.414
7776.00 156.974
7776.08 125.412
7776.16 78.4795
7776.22 52.2906
7776.28 36.2021
7776.35 26.1238
7776.41 19.5721
7776.54 12.0205
7776.67 8.07024
7776.80 5.75808
7776.93 4.31623
7777.18 2.67733
7777.44 1.81684
7777.69 1.31423
7777.95 0.993520
7778.21 0.778082
7778.72 0.514077
7779.23 0.365035
7780.26 0.211729
7781.29 0.138543
7782.31 0.0980206
7784.36 0.0570697
7788.47 0.0273023
7792.57 0.0168031
7800.77 0.00943548
7808.98 0.00711994
7817.19 0.00637068
7825.39 0.00635383
7841.80 0.00779332
7858.22 0.0118565
7866.42 0.0159762
7874.63 0.0233568
7878.73 0.0294435
7882.83 0.0385485
7886.94 0.0530755
7891.04 0.0784209
7895.14 0.128864
7896.17 0.149399
7897.20 0.175371
7898.22 0.208878
7899.25 0.253076
7900.27 0.313131
7900.79 0.351534
7901.30 0.397453
7901.81 0.452952
7902.32 0.520842
7902.84 0.605018
7903.35 0.710755
7903.86 0.846403
7904.38 1.02353
7904.89 1.25994
7905.40 1.58325
7905.91 2.03717
7906.43 2.69122
7906.94 3.65242
7907.45 5.05787
7908.23 8.08851
7909.00 10.1080
7909.77 8.08688
7910.55 5.05670
7911.17 3.40902
7911.80 2.37793
7912.42 1.72550
7913.04 1.29941
7914.29 0.804907
7915.54 0.544949
7916.78 0.393395
7918.03 0.298012
7920.52 0.190167
7923.02 0.134657
7925.51 0.103345
7930.50 0.0749913
7935.49 0.0731076
7937.98 0.0829308
7940.47 0.106188
7942.97 0.159710
7944.21 0.212733
7945.46 0.306094
7946.71 0.491877
7947.33 0.661878
7947.95 0.942088
7948.58 1.45234
7948.89 1.87846
7949.20 2.51697
7949.51 3.53507
7949.82 5.26047
7950.14 8.43286
7950.45 14.5000
7950.72 23.2135
7951.00 28.9956
7951.28 23.1769
7951.55 14.4976
7951.86 8.48682
7952.17 5.33281
7952.47 3.59240
7952.78 2.56665
7953.09 1.91649
7953.39 1.48412
7954.00 0.963867
7954.62 0.675891
7955.23 0.501047
7956.45 0.308418
7957.68 0.210463
7958.90 0.153954
7961.35 0.0945643
7963.81 0.0655384
7966.26 0.0491910
7971.16 0.0324044
7976.06 0.0245446
7980.96 0.0205279
7990.76 0.0181768
8000.56 0.0217134
8005.46 0.0269598
8010.36 0.0372586
8015.26 0.0594642
8017.71 0.0810560
8020.16 0.118916
8022.61 0.194163
8023.83 0.263094
8024.45 0.312511
8025.06 0.377287
8025.67 0.464723
8025.98 0.520170
8026.28 0.586090
8026.59 0.665525
8026.90 0.761668
8027.20 0.879813
8027.51 1.02698
8027.82 1.21378
8028.12 1.45337
8028.43 1.76732
8028.73 2.18712
8029.04 2.76251
8029.35 3.56148
8029.65 4.68835
8029.96 6.26766
8030.48 10.0294
8031.00 12.5300
8031.26 11.7886
8031.52 10.0200
8032.04 6.26595
8032.63 3.63195
8033.22 2.26262
8033.81 1.51670
8034.40 1.07909
8034.99 0.803363
8035.57 0.620041
8036.75 0.400549
8037.93 0.279606
8039.11 0.206311
8041.46 0.125842
8043.82 0.0850237
8046.17 0.0615435
8048.52 0.0467956
8050.88 0.0369331
8055.59 0.0249485
8060.30 0.0182082
8069.72 0.0112567
8079.13 0.00789972
8088.55 0.00601174
8107.39 0.00406220
8126.23 0.00313485
8145.06 0.00264681
8182.74 0.00230360
8220.41 0.00253557
8239.25 0.00293606
8258.09 0.00371345
8276.92 0.00535002
8286.34 0.00692944
8295.76 0.00973074
8305.18 0.0155400
8309.89 0.0212035
8314.60 0.0313647
8316.95 0.0398235
8319.31 0.0526152
8321.66 0.0733327
8324.02 0.110222
8325.19 0.140627
8326.37 0.186000
8327.55 0.258117
8328.72 0.382940
8329.90 0.627682
8330.49 0.848972
8331.08 1.20993
8331.67 1.85791
8331.96 2.39028
8332.26 3.17940
8332.55 4.41507
8332.85 6.45544
8333.14 10.0545
8333.43 16.6204
8333.72 26.6162
8334.00 33.2502
8334.28 26.5758
8334.57 16.6186
8334.90 9.45893
8335.23 5.82645
8335.56 3.87196
8335.89 2.73930
8336.23 2.03011
8336.56 1.56248
8337.22 1.00417
8337.88 0.698466
8338.55 0.513734
8339.87 0.311757
8341.20 0.209824
8342.52 0.151420
8343.85 0.114926
8345.17 0.0906616
8347.83 0.0614569
8350.48 0.0453504
8355.78 0.0294646
8361.08 0.0226879
8366.39 0.0198510
8376.99 0.0204165
8382.30 0.0234188
8387.60 0.0289894
8392.90 0.0389203
8398.21 0.0576279
8400.86 0.0735277
8403.51 0.0978080
8406.16 0.137465
8408.81 0.208580
8410.14 0.267449
8411.46 0.355708
8412.79 0.496654
8414.12 0.741879
8415.44 1.22679
8416.10 1.66919
8416.77 2.39942
8417.43 3.72788
8417.76 4.84021
8418.09 6.51021
8418.43 9.17924
8418.76 13.7201
8419.09 22.0776
8419.42 38.2111
8419.71 61.1531
8420.00 76.4507
8420.29 61.1465
8420.58 38.2069
8420.87 23.7343
8421.15 15.5570
8421.44 10.7797
8421.72 7.84980
8422.01 5.93838
8422.29 4.64062
8422.86 3.04580
8423.43 2.14477
8423.99 1.59045
8425.13 0.972440
8426.27 0.655034
8427.41 0.471006
8428.54 0.354966
8429.68 0.277152
8431.95 0.182556
8434.23 0.129442
8436.50 0.0966754
8438.78 0.0750464
8443.32 0.0491568
8447.87 0.0348391
8452.42 0.0260895
8456.97 0.0203500
8466.07 0.0135172
8475.16 0.00975349
8493.35 0.00595473
8511.55 0.00417225
8529.74 0.00320408
8566.13 0.00229127
8602.51 0.00202653
8638.90 0.00235232
8657.09 0.00306592
8675.28 0.00524545
8684.38 0.00832243
8693.48 0.0170307
8698.03 0.0290239
8700.30 0.0408943
8702.57 0.0623509
8704.85 0.107357
8705.99 0.151174
8707.12 0.228910
8707.69 0.292663
8708.26 0.387175
8708.83 0.536480
8709.40 0.791404
8709.97 1.28220
8710.25 1.71604
8710.53 2.40917
8710.82 3.61614
8711.10 5.94859
8711.24 8.00073
8711.39 11.2018
8711.53 16.4052
8711.67 24.9719
8711.84 39.9235
8712.00 49.8771
8712.17 39.8247
8712.33 24.8951
8712.52 14.5054
8712.70 9.08942
8712.88 6.11543
8713.07 4.35838
8713.25 3.24424
8713.44 2.50596
8713.81 1.61851
8714.17 1.12744
8714.54 0.829988
8715.28 0.502927
8716.02 0.336762
8716.75 0.241308
8717.49 0.181362
8718.22 0.141381
8719.70 0.0929423
8721.17 0.0658627
8724.12 0.0382468
8727.06 0.0251621
8730.01 0.0179544
8735.90 0.0106963
8741.79 0.00729793
8747.69 0.00544034
8759.47 0.00358661
8783.04 0.00227525
8806.61 0.00184980
8853.75 0.00166877
8900.89 0.00183797
8948.03 0.00234666
8971.59 0.00284748
8995.16 0.00372632
9018.73 0.00552798
9030.52 0.00727890
9042.30 0.0104298
9048.20 0.0130686
9054.09 0.0170884
9059.98 0.0236728
9065.87 0.0356116
9068.82 0.0456289
9071.76 0.0608615
9074.71 0.0856946
9077.66 0.130298
9079.13 0.167305
9080.60 0.222958
9082.08 0.312245
9083.55 0.468839
9085.02 0.781882
9085.76 1.07133
9086.49 1.55502
9087.23 2.45487
9087.60 3.22258
9087.97 4.40430
9088.34 6.35244
9088.70 9.82252
9089.07 16.6627
9089.26 22.5718
9089.44 31.2019
9089.72 49.9069
9090.00 62.3677
9090.28 49.8307
9090.56 31.1432
9090.86 18.7064
9091.15 11.9657
9091.45 8.15305
9091.74 5.86745
9092.03 4.40091
9092.33 3.41714
9092.92 2.22301
9093.51 1.55647
9094.09 1.14968
9095.27 0.699573
9096.45 0.469875
9097.63 0.337442
9098.80 0.254198
9099.98 0.198510
9102.33 0.130968
9104.69 0.0931769
9107.04 0.0699219
9109.40 0.0546091
9114.11 0.0363488
9118.81 0.0263128
9128.23 0.0162850
9147.07 0.00927370
9165.90 0.00713047
9184.74 0.00651686
9203.57 0.00664242
9241.24 0.00850363
9260.08 0.0104350
9278.91 0.0135082
9297.75 0.0186151
9316.58 0.0278466
9326.00 0.0355068
9335.42 0.0470028
9344.83 0.0653797
9354.25 0.0974110
9363.67 0.160806
9368.38 0.218724
9373.09 0.314439
9377.80 0.488986
9380.15 0.635170
9382.50 0.855809
9384.86 1.20864
9387.21 1.81339
9389.57 2.93552
9391.92 5.12706
9393.96 8.22313
9396.00 10.2918
9398.04 8.21656
9400.08 5.12277
9402.42 2.94263
9404.76 1.82251
9407.10 1.21676
9409.44 0.862855
9411.78 0.640995
9414.12 0.493898
9418.80 0.318038
9423.49 0.221462
9428.17 0.162986
9437.53 0.0989237
9446.89 0.0665265
9456.25 0.0479343
9465.61 0.0363012
9474.98 0.0285516
9493.70 0.0192167
9512.42 0.0140575
9531.15 0.0109517
9549.87 0.00898775
9587.32 0.00697206
9624.77 0.00679347
9643.49 0.00783496
9662.22 0.0115060
9671.58 0.0168182
9680.94 0.0319236
9685.62 0.0527401
9687.96 0.0733562
9690.30 0.110612
9691.47 0.141745
9692.64 0.188815
9693.81 0.264948
9694.98 0.400056
9695.57 0.511002
9696.15 0.675596
9696.74 0.935275
9697.32 1.37977
9697.91 2.23493
9698.20 2.99459
9698.49 4.20615
9698.79 6.31877
9699.08 10.4115
9699.23 14.0522
9699.37 19.7176
9699.52 28.9643
9699.66 44.2628
9699.83 70.7630
9700.00 88.4050
9700.17 70.5914
9700.34 44.1293
9700.48 29.2072
9700.62 20.1131
9700.76 14.4257
9700.90 10.7798
9701.19 6.58839
9701.47 4.41029
9701.75 3.14848
9702.04 2.35650
9702.60 1.46037
9703.17 0.991657
9703.73 0.717168
9704.30 0.542893
9704.86 0.425616
9706.00 0.282046
9707.13 0.201113
9708.26 0.151021
9709.39 0.117886
9711.65 0.0781527
9713.91 0.0561708
9716.18 0.0427429
9718.44 0.0339549
9722.96 0.0235348
9727.49 0.0178421
9736.54 0.0121932
9745.59 0.00963753
9754.64 0.00832735
9772.74 0.00726653
9808.94 0.00752104
9845.14 0.00959834
9881.34 0.0144406
9899.44 0.0190673
9917.54 0.0269475
9926.59 0.0331384
9931.12 0.0371429
9935.64 0.0419779
9940.17 0.0478901
9942.43 0.0513537
9944.69 0.0552246
9946.95 0.0595729
9949.22 0.0644757
9951.48 0.0700357
9953.74 0.0763693
9958.27 0.0920047
9962.79 0.113103
9967.32 0.142460
9971.84 0.184824
9976.37 0.248613
9980.89 0.349370
9985.42 0.516079
9989.94 0.796744
9994.97 1.27030
10000.0 1.58545
10002.5 1.49153
10005.1 1.26814
10010.1 0.795044
10013.2 0.589383
10016.3 0.445994
10022.5 0.275574
10028.7 0.187601
10034.9 0.138740
10041.1 0.110188
10047.4 0.0935343
10059.8 0.0821762
10072.2 0.0962740
10078.4 0.118181
10084.6 0.160647
10090.8 0.249277
10093.9 0.332133
10097.0 0.470160
10100.1 0.725363
10101.7 0.940340
10103.2 1.26710
10104.8 1.79417
10106.3 2.70942
10107.9 4.43927
10108.7 5.88533
10109.4 7.90280
10110.7 12.6488
10112.0 15.8146
10113.3 12.6424
10114.6 7.89782
10115.8 4.98556
10117.0 3.31503
10118.2 2.32476
10119.4 1.70694
10121.9 1.02084
10124.3 0.676939
10126.7 0.480733
10129.1 0.359661
10134.0 0.223666
10138.8 0.153302
10143.7 0.112219
10153.4 0.0685344
10163.1 0.0468585
10172.8 0.0345076
10192.2 0.0216278
10211.6 0.0155788
10230.9 0.0131250
10240.6 0.0136168
10250.3 0.0176551
10255.2 0.0242525
10260.0 0.0435764
10262.5 0.0703522
10263.7 0.0966224
10264.9 0.143662
10266.1 0.240706
10266.7 0.334412
10267.3 0.494456
10267.9 0.815122
10268.2 1.10211
10268.5 1.57190
10268.8 2.45533
10269.0 3.17058
10269.1 4.23904
10269.3 5.92329
10269.4 8.75645
10269.6 13.8773
10269.7 24.2763
10269.9 38.3831
10270.0 48.5517
10270.1 38.3817
10270.3 24.2755
10270.4 14.3480
10270.6 9.27118
10270.7 6.21814
10270.9 4.51491
10271.0 3.35006
10271.1 2.62081
10271.4 1.70130
10271.7 1.19078
10272.0 0.879427
10272.6 0.536040
10273.2 0.361269
10273.8 0.260518
10274.9 0.154920
10276.1 0.103615
10277.2 0.0748740
10279.6 0.0454726
10284.2 0.0236875
10288.8 0.0157349
10298.1 0.00970259
10307.4 0.00733495
10325.9 0.00525974
10344.5 0.00424129
10381.6 0.00312031
10418.7 0.00246762
10492.9 0.00171317
10567.1 0.00129578
10641.3 0.00104497
10715.5 0.000901330
10789.7 0.000885931
10826.8 0.00111189
10845.4 0.00200945
10854.6 0.00549740
10859.3 0.0190809
10861.6 0.0709649
10862.8 0.260396
10863.0 0.439218
10863.3 0.892178
10863.5 1.46252
10863.6 2.66659
10863.7 3.89686
10863.8 6.16417
10863.8 10.8867
10863.9 16.0184
10863.9 23.9575
10864.0 36.8807
10864.0 47.6566
10864.1 36.8806
10864.1 23.7000
10864.1 16.0185
10864.2 11.9386
10864.2 7.15983
10864.3 4.68999
10864.3 3.28504
10864.5 1.77791
10864.6 1.14415
10864.8 0.571847
10865.1 0.341635
10865.6 0.161637
10866.1 0.0940590
10868.1 0.0253807
10872.1 0.00717300
10880.1 0.00253662
10896.0 0.00151756
10912.0 0.00202430
10919.9 0.00465319
10923.9 0.0149592
10925.9 0.0540181
10926.9 0.196472
10927.4 0.669016
10927.6 1.09650
10927.7 1.98342
10927.8 4.51204
10927.9 7.84897
10927.9 10.8618
10927.9 17.0723
10928.0 27.6122
10928.0 34.2065
10928.0 27.6122
10928.1 17.0724
10928.1 10.8618
10928.2 7.09584
10928.2 3.84606
10928.4 1.59695
10928.5 0.828134
10928.7 0.519256
10929.2 0.151956
10930.4 0.0419072
10932.7 0.0117619
10937.2 0.00389286
10946.3 0.00194200
10955.5 0.00165958
10964.6 0.00165542
10982.8 0.00196290
11001.1 0.00269206
11010.2 0.00333591
11019.3 0.00433312
11028.5 0.00598587
11037.6 0.00899772
11042.2 0.0115359
11046.7 0.0153920
11051.3 0.0216773
11055.8 0.0329540
11058.1 0.0422961
11060.4 0.0563225
11062.7 0.0787724
11065.0 0.118009
11067.2 0.196006
11068.4 0.267623
11069.5 0.386668
11070.1 0.478061
11070.7 0.605571
11071.2 0.790575
11071.5 0.918233
11071.8 1.07233
11072.1 1.27515
11072.4 1.52831
11072.7 1.87425
11072.9 2.32422
11073.2 2.96688
11073.5 3.84043
11073.8 5.13409
11074.1 6.90850
11074.5 11.0861
11075.0 13.7859
11075.2 12.9282
11075.5 10.9903
11075.9 6.90737
11076.4 4.44955
11076.8 3.01915
11077.2 2.13041
11077.6 1.58059
11078.4 0.953225
11079.3 0.632790
11080.1 0.449187
11080.9 0.334814
11082.6 0.206699
11084.2 0.139772
11085.9 0.100947
11087.5 0.0761987
11089.2 0.0596491
11092.5 0.0393471
11095.8 0.0279558
11099.1 0.0209135
11102.4 0.0162586
11109.1 0.0106760
11115.7 0.00759221
11122.3 0.00570584
11128.9 0.00447142
11142.2 0.00300288
11155.4 0.00219539
11181.9 0.00138084
11208.4 0.000996028
11234.9 0.000782364
11287.9 0.000562899
11340.9 0.000457701
11393.9 0.000404893
11446.9 0.000415965
11473.4 0.000598167
11486.7 0.00136886
11493.3 0.00442648
11496.6 0.0163250
11498.3 0.0616570
11499.1 0.225654
11499.5 0.746715
11499.7 2.17078
11499.8 4.74720
11499.9 7.91153
11499.9 14.4257
11500.0 23.1331
11500.0 28.9600
11500.0 23.1331
11500.1 14.4257
11500.1 7.08853
11500.2 4.33354
11500.3 2.03405
11500.5 0.746744
11500.9 0.225671
11501.7 0.0631047
11503.3 0.0169089
11506.6 0.00457548
11513.1 0.00140194
11526.1 0.000592783
11552.0 0.000385994
11604.0 0.000337074
11655.9 0.000346840
11707.9 0.000393848
11759.8 0.000515771
11811.8 0.000881307
11863.7 0.00284846
11876.7 0.00486708
11889.7 0.0105730
11896.2 0.0184727
11902.7 0.0406004
11906.0 0.0709184
11907.6 0.100685
11909.2 0.154129
11910.8 0.266066
11911.6 0.373487
11912.5 0.561870
11913.3 0.938406
11913.7 1.29166
11914.1 1.86824
11914.5 2.96821
11914.7 3.88734
11914.9 5.29646
11915.1 7.75094
11915.3 11.9653
11915.5 20.2622
11915.6 27.4351
11915.7 38.8356
11915.9 62.3875
11916.0 77.6795
11916.2 62.3853
11916.3 38.8343
11916.4 24.9832
11916.6 17.1111
11916.7 12.2555
11916.8 9.13323
11917.1 5.47743
11917.4 3.67301
11917.6 2.59435
11917.9 1.94641
11918.4 1.20888
11918.9 0.816594
11919.5 0.591411
11920.0 0.445655
11920.5 0.349321
11921.6 0.230310
11922.6 0.163191
11924.7 0.0942114
11926.8 0.0613074
11928.9 0.0430970
11933.1 0.0246936
11937.3 0.0160374
11941.5 0.0113115
11949.9 0.00658982
11966.7 0.00325360
11983.5 0.00221629
12017.2 0.00277712
12034.0 0.00822767
12038.2 0.0139631
12042.4 0.0300639
12044.5 0.0520545
12046.6 0.112415
12047.6 0.192634
12048.2 0.270564
12048.7 0.404027
12049.2 0.674459
12049.5 0.918195
12049.7 1.32096
12050.0 2.09481
12050.1 2.72908
12050.3 3.69151
12050.4 5.24162
12050.5 7.93062
12050.7 13.0152
12050.7 17.6368
12050.8 23.9153
12050.9 37.8356
12051.0 47.8332
12051.1 37.8348
12051.2 23.9148
12051.3 17.6365
12051.4 13.0151
12051.5 7.93071
12051.6 5.24175
12051.7 3.69164
12051.9 2.72922
12052.0 2.09493
12052.3 1.34151
12052.5 0.930159
12052.8 0.682014
12053.3 0.411059
12053.8 0.274413
12054.3 0.196098
12055.4 0.114450
12057.5 0.0528031
12059.6 0.0304677
12063.7 0.0140361
12067.9 0.00816953
12076.2 0.00389738
12084.5 0.00237124
12117.9 0.000841143
12184.5 0.000427753
12251.2 0.000513571
12284.5 0.00126002
12301.2 0.00431674
12309.5 0.0163259
12313.7 0.0625460
12314.7 0.108414
12315.8 0.232346
12316.3 0.393810
12316.8 0.806672
12317.1 1.30812
12317.3 2.46454
12317.5 3.70220
12317.6 6.11225
12317.7 8.45094
12317.7 11.5944
12317.8 17.6468
12317.9 26.8307
12317.9 43.7435
12318.0 53.6632
12318.1 43.7431
12318.1 26.8305
12318.2 20.0931
12318.2 14.6392
12318.3 8.88489
12318.4 5.61513
12318.5 3.97109
12318.7 2.20588
12318.9 1.42522
12319.3 0.720787
12319.6 0.433127
12320.4 0.204148
12321.1 0.119071
12322.6 0.0547190
12324.1 0.0313548
12330.1 0.00818952
12342.0 0.00221965
12365.8 0.000696984
12413.4 0.000301836
12508.6 0.000188981
12603.8 0.000162546
12699.0 0.000154047
12794.2 0.000157058
12889.4 0.000181340
12984.6 0.000325014
13032.2 0.000893123
13056.0 0.00313669
13067.9 0.0119334
13070.9 0.0208974
13073.9 0.0457662
13075.3 0.0795534
13076.8 0.171419
13077.6 0.293267
13078.3 0.604281
13078.7 0.985486
13078.9 1.33771
13079.1 1.87633
13079.3 2.88085
13079.4 4.77089
13079.5 6.69294
13079.6 9.51167
13079.7 14.2383
13079.8 23.1932
13079.9 36.5701
13080.0 46.3886
13080.1 36.5696
13080.2 23.1929
13080.3 16.4790
13080.3 12.3724
13080.4 9.12492
13080.5 7.20670
13080.6 4.62417
13080.7 3.19174
13080.8 2.32602
13081.0 1.76652
13081.2 1.13264
13081.5 0.775764
13081.7 0.570355
13082.2 0.341965
13083.3 0.161177
13084.3 0.0938444
13086.3 0.0430956
13088.4 0.0246816
13092.5 0.0112208
13096.6 0.00642410
13113.0 0.00173592
13145.8 0.000550625
13211.3 0.000263828
13342.4 0.000248768
13473.6 0.000534215
13539.1 0.00167062
13555.5 0.00283448
13571.9 0.00612809
13580.1 0.0106954
13588.3 0.0235299
13592.4 0.0411735
13594.4 0.0586204
13596.5 0.0901269
13598.5 0.156121
13599.6 0.220681
13600.6 0.333911
13601.1 0.428489
13601.6 0.566315
13602.1 0.782824
13602.6 1.15115
13603.2 1.85309
13603.4 2.48411
13603.7 3.44487
13603.9 5.15874
13604.2 8.28807
13604.3 11.0904
13604.4 15.4175
13604.6 22.3534
13604.7 33.2472
13604.8 52.6727
13605.0 66.3944
13605.2 52.6710
13605.3 33.1403
13605.5 21.6915
13605.6 15.0095
13605.7 10.5798
13605.9 7.94897
13606.1 4.82338
13606.4 3.21352
13606.7 2.28632
13606.9 1.70673
13607.5 1.06111
13608.0 0.717323
13608.5 0.519716
13609.1 0.391771
13609.6 0.307136
13610.7 0.201838
13611.8 0.143110
13613.9 0.0826700
13616.0 0.0537043
13618.2 0.0377531
13622.5 0.0215855
13631.1 0.00982958
13639.6 0.00566329
13656.8 0.00266413
13673.9 0.00161827
13708.2 0.000898842
13742.5 0.000701730
13811.2 0.000972647
13845.5 0.00240369
13862.6 0.00764130
13866.9 0.0128807
13871.2 0.0274562
13873.4 0.0473582
13875.5 0.101669
13876.6 0.173698
13877.6 0.363049
13878.2 0.604514
13878.4 0.826818
13878.7 1.17952
13879.0 1.84634
13879.1 2.43476
13879.2 3.26541
13879.4 4.71440
13879.5 7.05209
13879.6 11.3700
13879.8 20.2187
13879.9 32.5930
13880.0 40.3491
13880.1 32.5924
13880.2 20.1289
13880.4 11.8356
13880.5 7.55035
13880.6 4.99446
13880.7 3.60504
13880.9 2.65394
13881.0 2.06978
13881.2 1.33402
13881.5 0.928790
13881.7 0.682986
13882.2 0.416980
13882.7 0.278706
13883.2 0.199420
13884.2 0.117297
13886.2 0.0548712
13888.2 0.0321882
13892.2 0.0155521
13896.1 0.00978407
13904.1 0.00611839
13912.0 0.00583585
13920.0 0.00781384
13927.9 0.0150189
13931.9 0.0254052
13935.9 0.0546842
13937.8 0.0948537
13939.8 0.204523
13940.8 0.352045
13941.3 0.494430
13941.8 0.737820
13942.3 1.23106
13942.6 1.68601
13942.8 2.40634
13943.1 3.77492
13943.2 4.99012
13943.3 6.70000
13943.4 9.71270
13943.6 14.5702
13943.7 23.5938
13943.7 30.9714
13943.8 42.3212
13943.9 68.2724
13944.0 84.4401
13944.1 68.2713
13944.2 42.1152
13944.3 30.9711
13944.3 22.5922
13944.5 13.5515
13944.6 8.86538
13944.7 6.20049
13944.9 4.46273
13945.0 3.42202
13945.3 2.18863
13945.5 1.49711
13945.8 1.09927
13946.3 0.658218
13946.9 0.437620
13947.4 0.311860
13948.4 0.181375
13950.6 0.0836421
13952.7 0.0481466
13956.9 0.0221740
13961.2 0.0129213
13969.6 0.00621340
13978.1 0.00386443
14012.0 0.00194768
14045.9 0.00403410
14062.8 0.0140081
14067.1 0.0242881
14071.3 0.0530180
14073.4 0.0922796
14075.5 0.200040
14076.6 0.343272
14077.1 0.480753
14077.7 0.720793
14078.2 1.19720
14078.5 1.64427
14078.7 2.35824
14079.0 3.72096
14079.1 4.83020
14079.3 6.50188
14079.4 9.16917
14079.5 13.7343
14079.6 22.1973
14079.7 29.7444
14079.8 40.0242
14079.9 64.3851
14080.0 80.0524
14080.1 64.3839
14080.2 40.0235
14080.3 26.1660
14080.4 17.6033
14080.5 12.4345
14080.6 9.43671
14080.8 5.63991
14081.0 3.79240
14081.2 2.67244
14081.4 2.00898
14081.8 1.23738
14082.2 0.836959
14082.6 0.603277
14083.3 0.357828
14084.1 0.235413
14084.9 0.166575
14086.4 0.0963098
14089.6 0.0440554
14092.7 0.0252908
14098.9 0.0115959
14105.1 0.00672582
14117.5 0.00320331
14129.9 0.00195307
14179.6 0.000725789
14279.0 0.000472548
14378.3 0.000843315
14428.0 0.00252595
14440.4 0.00426276
14452.9 0.00917907
14459.1 0.0159798
14465.3 0.0350512
14468.4 0.0611810
14469.9 0.0868275
14471.5 0.132860
14473.1 0.229267
14473.8 0.322489
14474.6 0.483768
14475.0 0.615925
14475.4 0.810420
14475.8 1.11334
14476.2 1.60520
14476.5 2.53943
14476.7 3.36473
14476.9 4.57469
14477.1 6.68010
14477.3 10.2665
14477.5 17.2624
14477.6 23.6391
14477.7 32.7457
14477.9 51.8423
14478.0 65.3847
14478.2 51.8408
14478.3 32.6335
14478.4 22.8799
14478.5 16.7539
14478.6 12.2897
14478.7 9.54134
14478.9 6.03919
14479.1 4.20123
14479.3 3.03611
14479.5 2.29166
14480.0 1.44852
14480.4 0.987784
14480.8 0.720970
14481.6 0.431981
14482.4 0.286019
14483.3 0.203222
14484.9 0.118036
14486.6 0.0768898
14488.2 0.0541728
14491.5 0.0310918
14498.1 0.0141765
14504.8 0.00816471
14518.0 0.00382105
14531.2 0.00229197
14584.1 0.000834162
14637.0 0.000658016
14663.5 0.000911125
14676.7 0.00206974
14683.3 0.00667028
14686.6 0.0245801
14688.3 0.0917193
14689.1 0.331637
14689.5 1.07308
14689.6 1.72818
14689.7 3.00116
14689.8 6.25319
14689.9 9.96566
14689.9 17.0006
14690.0 28.2876
14690.0 33.8137
14690.1 25.9061
14690.1 16.8138
14690.1 9.96571
14690.2 6.82321
14690.3 3.65448
14690.4 1.50078
14690.8 0.485773
14691.4 0.139231
14692.7 0.0378935
14695.4 0.0101738
14700.6 0.00295942
14711.1 0.00111940
14732.2 0.000660557
14774.3 0.000576907
14858.4 0.000723153
14942.6 0.00143647
14963.6 0.00208651
14984.6 0.00385274
14995.2 0.00626153
15005.7 0.0130151
15010.9 0.0223122
15013.6 0.0315394
15016.2 0.0482821
15018.8 0.0836373
15020.1 0.118492
15021.5 0.180394
15022.8 0.309278
15023.4 0.432986
15024.1 0.644568
15024.7 1.06805
15025.1 1.45494
15025.4 2.06929
15025.7 3.21123
15025.9 4.19852
15026.1 5.59382
15026.2 7.95217
15026.4 11.7139
15026.5 18.4453
15026.7 31.1775
15026.9 49.7023
15027.0 62.2542
15027.2 49.7010
15027.3 31.0724
15027.5 19.0207
15027.6 12.0263
15027.8 8.13304
15027.9 5.92942
15028.1 4.41839
15028.2 3.41037
15028.6 2.22688
15028.9 1.54757
15029.2 1.14650
15029.8 0.700432
15030.4 0.468836
15031.1 0.335621
15032.3 0.197046
15033.6 0.129191
15034.8 0.0915332
15037.3 0.0529100
15042.4 0.0245275
15047.4 0.0143840
15057.4 0.00706810
15067.4 0.00451969
15107.6 0.00228490
15147.7 0.00229339
15187.9 0.00296990
15228.0 0.00460286
15248.1 0.00621137
15268.2 0.00906648
15278.2 0.0114151
15288.2 0.0149256
15298.3 0.0205504
15308.3 0.0304357
15313.3 0.0385091
15318.3 0.0504888
15323.4 0.0694051
15328.4 0.101831
15333.4 0.164895
15335.9 0.221464
15338.4 0.313241
15340.9 0.476072
15342.2 0.609388
15343.4 0.803628
15344.7 1.10523
15345.9 1.59204
15347.2 2.42815
15348.4 3.90236
15349.7 6.24556
15351.0 7.80863
15352.3 6.24402
15353.6 3.90183
15354.6 2.59322
15355.7 1.79388
15356.8 1.29461
15357.8 0.970770
15359.9 0.598427
15362.1 0.404243
15364.2 0.291634
15366.3 0.221044
15370.5 0.141596
15374.8 0.100969
15379.0 0.0784021
15387.5 0.0588844
15396.0 0.0597482
15400.2 0.0686097
15404.5 0.0875624
15408.7 0.127515
15410.8 0.163809
15411.9 0.189349
15413.0 0.222252
15414.0 0.265484
15415.1 0.323624
15416.1 0.403984
15417.2 0.518688
15418.3 0.688598
15419.3 0.950698
15420.4 1.37032
15421.4 2.04854
15422.7 3.26890
15424.0 4.08137
15424.6 3.84187
15425.3 3.26754
15426.6 2.04655
15427.9 1.22774
15429.3 0.787269
15430.6 0.537744
15432.0 0.389002
15433.3 0.293245
15434.7 0.229278
15437.4 0.151508
15440.1 0.107892
15442.8 0.0812262
15448.2 0.0514718
15453.6 0.0360805
15459.0 0.0270826
15469.9 0.0174201
15480.7 0.0125616
15491.5 0.00976981
15513.2 0.00689345
15534.8 0.00570300
15556.4 0.00565135
15567.3 0.00637893
15578.1 0.00887535
15583.5 0.0124548
15588.9 0.0225573
15591.6 0.0364100
15594.3 0.0743495
15595.7 0.125354
15597.0 0.259579
15597.7 0.431546
15598.1 0.590683
15598.4 0.847192
15598.7 1.33387
15598.9 1.74891
15599.1 2.38679
15599.2 3.43217
15599.4 5.29028
15599.6 8.92608
15599.7 11.8230
15599.7 16.3005
15599.9 26.2372
15600.0 32.5988
15600.1 26.2366
15600.3 16.3001
15600.4 10.9990
15600.5 7.82073
15600.6 5.59754
15600.7 4.27302
15600.9 2.63987
15601.1 1.81005
15601.3 1.29498
15601.5 0.970818
15601.9 0.608899
15602.3 0.413781
15602.8 0.301779
15603.6 0.181423
15605.2 0.0870084
15606.9 0.0521059
15610.2 0.0260805
15613.5 0.0167349
15620.1 0.00997033
15626.7 0.00766009
15640.0 0.00624138
15653.2 0.00610319
15679.6 0.00723679
15706.1 0.0101379
15719.3 0.0127168
15732.5 0.0167019
15745.8 0.0232418
15759.0 0.0349800
15765.6 0.0447024
15772.2 0.0592372
15778.8 0.0823894
15785.4 0.122552
15792.1 0.201590
15795.4 0.273278
15798.7 0.390384
15802.0 0.601765
15803.6 0.775950
15805.3 1.03515
15806.9 1.44454
15808.6 2.12437
15810.2 3.33678
15811.9 5.58117
15813.5 8.95170
15815.0 11.1821
15816.6 8.92547
15818.1 5.57908
15819.5 3.63742
15820.8 2.46975
15822.2 1.75698
15823.5 1.30534
15826.3 0.790363
15829.0 0.526756
15831.7 0.374544
15834.4 0.279824
15839.8 0.172763
15845.3 0.117127
15850.7 0.0846266
15856.1 0.0640265
15861.6 0.0501599
15872.4 0.0332383
15883.3 0.0237025
15894.1 0.0178071
15905.0 0.0139117
15926.7 0.00925271
15948.4 0.00668983
15970.2 0.00514699
15991.9 0.00416787
16035.3 0.00315314
16078.8 0.00306214
16100.5 0.00360141
16122.2 0.00550475
16143.9 0.0160601
16149.3 0.0268114
16154.8 0.0567191
16157.5 0.0972906
16158.9 0.136921
16160.2 0.206795
16161.6 0.350497
16162.2 0.486613
16162.9 0.716172
16163.6 1.16510
16163.9 1.56529
16164.3 2.20952
16164.6 3.33837
16165.0 5.56168
16165.1 7.55126
16165.3 10.7073
16165.5 15.9482
16165.6 24.3231
16165.8 38.7637
16166.0 48.5841
16166.2 38.7624
16166.4 24.2579
16166.5 16.7666
16166.7 11.7065
16166.8 8.49630
16167.0 6.50702
16167.3 4.06183
16167.5 2.75529
16167.8 1.96398
16168.1 1.48127
16168.7 0.926612
16169.3 0.629447
16169.9 0.457516
16170.5 0.347541
16171.0 0.273014
16172.2 0.180868
16173.4 0.129145
16175.7 0.0755132
16178.0 0.0498580
16180.4 0.0356410
16185.0 0.0212735
16189.7 0.0145382
16194.4 0.0108897
16203.7 0.00733685
16222.3 0.00521926
16241.0 0.00538020
16259.6 0.00736051
16269.0 0.00963723
16278.3 0.0138939
16282.9 0.0174969
16287.6 0.0229576
16292.3 0.0317998
16296.9 0.0474753
16299.3 0.0603609
16301.6 0.0793939
16303.9 0.109324
16306.3 0.160310
16308.6 0.257654
16309.8 0.343696
16310.9 0.479035
16311.5 0.580141
16312.1 0.713325
16312.7 0.896337
16313.2 1.15594
16313.5 1.33418
16313.8 1.54583
16314.4 2.13436
16314.7 2.54594
16315.0 3.06738
16315.6 4.55789
16316.3 7.29662
16317.0 9.08203
16317.4 8.54410
16317.7 7.25535
16318.4 4.52547
16318.9 3.36648
16319.3 2.54539
16320.2 1.56173
16321.0 1.03200
16321.9 0.729354
16322.7 0.538859
16323.6 0.414674
16325.3 0.266636
16327.0 0.185176
16328.7 0.136055
16332.1 0.0825571
16335.5 0.0555023
16338.9 0.0400571
16342.4 0.0303826
16345.8 0.0239701
16352.6 0.0162642
16359.4 0.0120524
16366.3 0.00958256
16373.1 0.00812000
16386.7 0.00715774
16393.6 0.00765955
16400.4 0.00929102
16407.2 0.0134856
16414.1 0.0260972
16417.5 0.0437434
16420.9 0.0926979
16422.6 0.158796
16423.5 0.223466
16424.3 0.336491
16425.2 0.568332
16425.6 0.786500
16426.0 1.14754
16426.5 1.84899
16426.7 2.44783
16426.9 3.38542
16427.1 5.06464
16427.3 8.08793
16427.4 10.7924
16427.5 14.4772
16427.6 20.7578
16427.7 30.0530
16427.9 47.8064
16428.0 60.1074
16428.1 47.8053
16428.3 30.0523
16428.4 18.7437
16428.5 12.4501
16428.7 8.50238
16428.8 6.25389
16429.0 4.67987
16429.1 3.68639
16429.3 2.44790
16429.6 1.71779
16429.9 1.28332
16430.4 0.786462
16430.9 0.530595
16431.5 0.381992
16432.5 0.225215
16433.6 0.148610
16434.6 0.105564
16436.8 0.0614529
16438.9 0.0403815
16441.0 0.0287909
16445.3 0.0170498
16453.7 0.00842778
16462.2 0.00530373
16479.2 0.00294767
16496.2 0.00204395
16513.1 0.00158374
16530.1 0.00131133
16564.1 0.00101948
16598.0 0.000905065
16631.9 0.000964882
16665.9 0.00174405
16682.8 0.00496488
16691.3 0.0175181
16695.6 0.0651116
16696.6 0.111878
16697.7 0.236542
16698.2 0.396183
16698.8 0.793958
16699.0 1.27417
16699.3 2.29275
16699.4 3.41831
16699.6 5.35149
16699.7 9.27193
16699.8 13.0965
16699.8 18.5064
16699.9 29.9296
16700.0 37.0132
16700.1 29.9293
16700.2 18.5062
16700.3 11.2476
16700.4 7.09198
16700.5 4.78739
16700.6 3.52783
16700.8 2.02053
16701.0 1.32594
16701.4 0.682930
16701.7 0.414420
16702.5 0.199115
16703.3 0.116672
16704.9 0.0542750
16706.4 0.0315319
16712.6 0.00868354
16725.1 0.00285889
16750.0 0.00183617
16774.9 0.00425988
16787.4 0.0149122
16793.6 0.0564366
16795.2 0.0982317
16796.7 0.211674
16797.5 0.362581
16798.3 0.758659
16798.7 1.25577
16798.9 1.72390
16799.1 2.45745
16799.3 3.86631
16799.4 6.66304
16799.5 9.47069
16799.6 13.6980
16799.7 22.1805
16799.8 37.7493
16799.9 59.4655
16800.0 75.2844
16800.1 59.4649
16800.2 37.5333
16800.2 27.5026
16800.3 20.0118
16800.4 14.9877
16800.4 11.5457
16800.5 7.36293
16800.7 5.06132
16800.8 3.67790
16800.9 2.78734
16801.1 1.78462
16801.4 1.21980
16801.6 0.896458
16802.1 0.536847
16803.0 0.252674
16804.0 0.147138
16805.8 0.0676482
16807.7 0.0388328
16811.5 0.0177770
16815.3 0.0102854
16822.8 0.00485087
16830.4 0.00292419
16845.5 0.00152979
16860.6 0.00103469
16890.8 0.000682212
16921.0 0.000582904
16981.4 0.000834047
17011.6 0.00226968
17026.7 0.00804490
17034.3 0.0306212
17038.1 0.116881
17039.0 0.202840
17040.0 0.431227
17040.4 0.725075
17040.9 1.46250
17041.1 2.36398
17041.4 4.29126
17041.5 6.36178
17041.6 10.2764
17041.7 13.6317
17041.7 18.7272
17041.8 26.7165
17041.8 38.5240
17041.9 60.5065
17042.0 77.0495
17042.1 60.5061
17042.2 38.5237
17042.2 28.4439
17042.3 20.9943
17042.4 12.3612
17042.5 7.98392
17042.6 5.53428
17042.8 3.07856
17043.0 1.94821
17043.4 0.977381
17043.7 0.591454
17044.5 0.281051
17045.3 0.163587
17046.9 0.0750408
17048.5 0.0430947
17051.7 0.0196178
17054.8 0.0112476
17067.5 0.00305891
17092.8 0.000974398
17143.5 0.000447809
17194.2 0.000397542
17219.6 0.000588465
17232.2 0.00142415
17238.6 0.00474481
17241.8 0.0176509
17243.3 0.0659078
17244.1 0.235005
17244.5 0.772154
17244.7 2.14100
17244.8 4.62080
17244.9 7.57898
17244.9 12.6236
17245.0 20.5927
17245.0 25.0998
17245.0 20.5927
17245.1 12.4768
17245.2 6.15531
17245.2 3.29381
17245.4 1.41377
17245.6 0.468711
17246.2 0.138272
17247.2 0.0378045
17249.3 0.0100291
17253.6 0.00277610
17262.1 0.000915323
17279.1 0.000441704
17313.1 0.000322116
17381.1 0.000307996
17449.1 0.000346016
17517.1 0.000436069
17585.1 0.000640569
17619.2 0.000846226
17653.2 0.00122108
17721.2 0.00425886
17738.2 0.00734224
17746.7 0.0104025
17755.2 0.0159609
17763.7 0.0277236
17767.9 0.0392934
17772.2 0.0600658
17774.3 0.0773396
17776.4 0.103179
17778.6 0.144801
17780.7 0.217357
17782.8 0.362833
17783.9 0.496352
17784.9 0.718965
17786.0 1.13563
17786.5 1.48754
17787.1 2.02679
17787.6 2.90694
17788.1 4.46232
17788.6 7.48064
17788.9 10.1058
17789.2 13.7461
17789.6 22.0219
17790.0 27.3326
17790.4 21.8109
17790.8 13.5813
17791.2 9.11711
17791.5 6.33427
17791.9 4.58313
17792.2 3.44065
17792.9 2.11897
17793.6 1.42510
17794.2 1.02046
17794.9 0.765327
17796.3 0.476517
17797.6 0.323743
17799.0 0.234602
17800.3 0.177419
17801.7 0.139090
17804.4 0.0918348
17807.1 0.0652464
17809.8 0.0487692
17812.5 0.0378608
17818.0 0.0247594
17823.4 0.0175238
17834.2 0.0102204
17845.1 0.00682175
17855.9 0.00499979
17877.6 0.00333119
17899.3 0.00292627
17910.2 0.00312330
17921.0 0.00376433
17931.9 0.00539946
17937.3 0.00710972
17942.7 0.0102625
17945.4 0.0129360
17948.2 0.0169986
17950.9 0.0236227
17953.6 0.0354978
17954.9 0.0453662
17956.3 0.0600508
17957.6 0.0836828
17959.0 0.124541
17960.4 0.205979
17961.7 0.401612
17962.4 0.625126
17962.7 0.812539
17963.1 1.09565
17963.4 1.54856
17963.6 1.88156
17963.7 2.32567
17963.9 2.92995
17964.1 3.76736
17964.3 4.94080
17964.4 6.46071
17964.6 8.30103
17964.7 10.4009
17965.0 12.9090
17965.2 12.1264
17965.3 10.2607
17965.6 6.46030
17965.9 4.07193
17966.1 2.73159
17966.4 1.90403
17966.7 1.40542
17967.2 0.839750
17967.8 0.554454
17968.3 0.392272
17968.9 0.291782
17970.0 0.179310
17971.1 0.121278
17972.2 0.0875350
17973.3 0.0662171
17974.4 0.0520104
17976.6 0.0345365
17978.8 0.0247208
17981.0 0.0186661
17983.2 0.0146869
17987.6 0.00990873
17992.0 0.00728407
18000.7 0.00466480
18009.5 0.00348661
18018.3 0.00291189
18035.9 0.00262724
18053.5 0.00322974
18062.3 0.00406921
18071.0 0.00571203
18075.4 0.00713260
18079.8 0.00931400
18084.2 0.0129069
18088.6 0.0193802
18090.8 0.0247785
18093.0 0.0329165
18095.2 0.0460071
18097.4 0.0689013
18099.6 0.115009
18101.8 0.228823
18102.9 0.362432
18103.5 0.477208
18104.0 0.654938
18104.6 0.949329
18104.8 1.17793
18105.1 1.48095
18105.4 1.92525
18105.7 2.54710
18105.9 3.46217
18106.2 4.80498
18106.4 6.20051
18106.6 7.71382
18107.0 9.58528
18107.2 8.98426
18107.4 7.63789
18107.8 4.80456
18108.1 3.22647
18108.5 2.24128
18108.8 1.62119
18109.1 1.22674
18109.8 0.758994
18110.4 0.512025
18111.1 0.365736
18111.7 0.274947
18113.0 0.171278
18114.3 0.116455
18115.6 0.0844886
18117.0 0.0639827
18118.3 0.0502449
18120.9 0.0333528
18123.5 0.0238047
18126.1 0.0178882
18128.7 0.0139832
18133.9 0.00927561
18139.1 0.00666647
18144.3 0.00507166
18149.6 0.00402855
18160.0 0.00279108
18170.4 0.00212244
18191.3 0.00150038
18212.2 0.00134508
18233.0 0.00166931
18253.9 0.00426638
18264.3 0.0147633
18266.9 0.0253988
18269.6 0.0547797
18270.9 0.0943725
18272.2 0.199189
18272.8 0.333090
18273.5 0.665542
18273.8 1.06322
18274.1 1.90787
18274.3 2.82090
18274.4 4.39495
18274.5 5.68344
18274.6 7.55861
18274.7 10.3537
18274.8 15.1112
18274.9 23.8001
18275.0 30.2230
18275.1 23.7997
18275.2 15.1110
18275.3 10.7900
18275.4 8.15480
18275.5 4.98135
18275.7 3.29855
18275.8 2.32633
18276.1 1.32263
18276.4 0.847995
18276.9 0.427393
18277.5 0.258456
18278.6 0.123138
18279.8 0.0718800
18282.0 0.0333507
18284.3 0.0193188
18293.3 0.00535730
18311.4 0.00174693
18329.5 0.00106663
18347.5 0.000836629
18383.7 0.000724313
18419.8 0.000811441
18456.0 0.00113376
18492.1 0.00214462
18510.2 0.00357437
18528.3 0.00762325
18537.3 0.0132123
18541.8 0.0187572
18546.4 0.0287759
18550.9 0.0499047
18553.1 0.0705622
18555.4 0.107388
18556.5 0.137703
18557.7 0.182938
18558.8 0.254728
18559.9 0.378668
18561.0 0.620311
18561.6 0.839983
18562.2 1.19059
18562.7 1.82527
18563.0 2.33457
18563.3 3.08065
18563.6 4.22562
18563.9 6.07973
18564.1 9.25097
18564.4 14.8662
18564.7 23.7548
18565.0 29.7355
18565.3 23.7536
18565.6 14.8655
18565.8 10.5385
18566.0 7.55774
18566.2 5.59855
18566.4 4.27718
18566.8 2.69693
18567.3 1.84066
18567.7 1.33109
18568.1 1.00531
18568.9 0.629723
18569.8 0.430481
18570.6 0.312550
18571.5 0.237117
18572.3 0.186511
18574.0 0.123483
18575.6 0.0879171
18577.3 0.0656765
18579.0 0.0510092
18582.3 0.0333091
18585.7 0.0234799
18592.4 0.0135154
18599.1 0.00881614
18605.8 0.00624059
18619.2 0.00365600
18646.0 0.00179560
18672.8 0.00114913
18726.4 0.000718497
18780.0 0.000632806
18887.3 0.00112068
18940.9 0.00331347
18954.3 0.00554684
18967.7 0.0118101
18974.4 0.0203997
18977.7 0.0288863
18981.1 0.0442015
18984.4 0.0762524
18986.1 0.107503
18987.8 0.162472
18988.6 0.207650
18989.5 0.274668
18990.3 0.380181
18991.1 0.557404
18992.0 0.899184
18992.4 1.20004
18992.8 1.67797
18993.2 2.49931
18993.7 4.06862
18993.9 5.42902
18994.1 7.51917
18994.3 10.8485
18994.5 16.0681
18994.7 25.5902
18995.0 32.1387
18995.3 25.5891
18995.5 16.0674
18995.8 9.55731
18996.1 6.02504
18996.4 4.06871
18996.6 2.90664
18996.9 2.17036
18997.2 1.67811
18997.8 1.08516
18998.3 0.757109
18998.9 0.557513
19000.0 0.337872
19000.0 0.150119
20000.0 0.144543
25000.0 0.122362
30000.0 0.106415
35000.0 0.0945557
40000.0 0.0854160
50000.0 0.0723244
60000.0 0.0638614
70000.0 0.0577367
80000.0 0.0532706
99999.9 0.0473505
100000 0.0476839
144665 0.0423733
150000 0.0418854
200000 0.0408667
206067 0.0409515
206246 0.0409540
206247 0.0409540
206269 0.0409543
206270 0.0409543
226973 0.0412271
250000 0.0415045
300000 0.0427093
420000 0.0459421
420000 0.0459421
485906 0.0474175
485910 0.0474176
485956 0.0474185
485957 0.0474186
490000 0.0475038
500000 0.0477124
531250 0.0485710
541007 0.0488318
541010 0.0488319
541231 0.0488377
541232 0.0488378
562500 0.0493947
593750 0.0501867
599694 0.0503340
600000 0.0503415
600000 0.0503415
616012 0.0507331
625000 0.0509497
656250 0.0516864
664748 0.0518824
664817 0.0518840
686670 0.0523800
686674 0.0523801
687500 0.0523986
700000 0.0526771
701411 0.0527142
701701 0.0527218
718750 0.0531662
726686 0.0533707
726690 0.0533708
726762 0.0533726
726763 0.0533727
726989 0.0533785
728303 0.0534122
728606 0.0534200
742370 0.0537706
742471 0.0537732
742526 0.0537746
750000 0.0539632
760838 0.0542346
760917 0.0542365
773939 0.0545593
781250 0.0547389
786380 0.0548643
786384 0.0548644
786385 0.0548644
786486 0.0548669
794556 0.0480613
795510 0.0473190
795512 0.0473174
800000 0.0439871
803275 0.0434294
812500 0.0419080
829228 0.0393238
829321 0.0393100
843750 0.0372484
849653 0.0364462
875000 0.0332492
880259 0.0326327
880260 0.0326326
880356 0.0326215
880457 0.0326098
880460 0.0326095
897344 0.0307313
897445 0.0307205
900000 0.0304489
906250 0.0303241
937500 0.0297198
957664 0.0293466
957665 0.0293466
957770 0.0293447
957772 0.0293447
957873 0.0293428
968750 0.0291468
999999 0.0286025
1.00000E+06 0.0286025
1.00334E+06 0.0286190
1.03516E+06 0.0287738
1.03520E+06 0.0287740
1.03527E+06 0.0287743
1.03528E+06 0.0287743
1.05014E+06 0.0288453
1.05024E+06 0.0288457
1.06250E+06 0.0289036
1.06781E+06 0.0289285
1.06790E+06 0.0289290
1.06793E+06 0.0289291
1.07026E+06 0.0289400
1.07444E+06 0.0289595
1.08510E+06 0.0290089
1.08511E+06 0.0290090
1.08552E+06 0.0290108
1.10397E+06 0.0290954
1.10417E+06 0.0290963
1.12500E+06 0.0291904
1.12832E+06 0.0292053
1.12840E+06 0.0292057
1.12842E+06 0.0292057
1.12854E+06 0.0292063
1.12855E+06 0.0292063
1.12863E+06 0.0292067
1.12874E+06 0.0292072
1.14747E+06 0.0292903
1.14757E+06 0.0292908
1.15997E+06 0.0293452
1.15997E+06 0.0293452
1.16056E+06 0.0293462
1.16240E+06 0.0293492
1.18750E+06 0.0293903
1.20000E+06 0.0294105
1.23549E+06 0.0294667
1.25000E+06 0.0294892
1.27630E+06 0.0298638
1.28180E+06 0.0299418
1.28625E+06 0.0300048
1.29736E+06 0.0301616
1.29797E+06 0.0301702
1.31250E+06 0.0303746
1.31599E+06 0.0304235
1.31614E+06 0.0304256
1.32392E+06 0.0305345
1.37500E+06 0.0312434
1.38426E+06 0.0313708
1.39062E+06 0.0314582
1.40000E+06 0.0315866
1.42417E+06 0.0319161
1.43750E+06 0.0320969
1.44069E+06 0.0321401
1.44085E+06 0.0321422
1.44706E+06 0.0322262
1.44823E+06 0.0322420
1.45226E+06 0.0322963
1.46206E+06 0.0324283
1.47807E+06 0.0326431
1.50000E+06 0.0329359
1.50000E+06 0.0329359
1.51345E+06 0.0331792
1.51345E+06 0.0331793
1.51355E+06 0.0331810
1.52556E+06 0.0328542
1.52566E+06 0.0328515
1.52607E+06 0.0328404
1.52610E+06 0.0328396
1.53138E+06 0.0326979
1.55700E+06 0.0320255
1.55718E+06 0.0320209
1.55738E+06 0.0320157
1.56128E+06 0.0319156
1.56250E+06 0.0318844
1.56819E+06 0.0317396
1.56930E+06 0.0317114
1.58139E+06 0.0314081
1.59060E+06 0.0311805
1.59645E+06 0.0310375
1.62500E+06 0.0303561
1.63724E+06 0.0300722
1.63742E+06 0.0300680
1.64300E+06 0.0299402
1.64300E+06 0.0299402
1.64310E+06 0.0299379
1.64512E+06 0.0296736
1.64522E+06 0.0296667
1.64522E+06 0.0296664
1.66248E+06 0.0285034
1.66258E+06 0.0284969
1.68750E+06 0.0269174
1.68775E+06 0.0269021
1.70000E+06 0.0261666
1.70089E+06 0.0261142
1.72514E+06 0.0247350
1.75000E+06 0.0234151
1.76071E+06 0.0233269
1.76082E+06 0.0233260
1.76122E+06 0.0233227
1.77662E+06 0.0231975
1.78140E+06 0.0231589
1.78353E+06 0.0231418
1.78827E+06 0.0231039
1.80160E+06 0.0229980
1.81250E+06 0.0229123
1.86620E+06 0.0225023
1.87500E+06 0.0224369
1.88390E+06 0.0223713
1.88422E+06 0.0223689
1.88433E+06 0.0223681
1.88916E+06 0.0223327
1.88916E+06 0.0223327
1.90028E+06 0.0221877
1.92736E+06 0.0218421
1.92740E+06 0.0218416
1.93750E+06 0.0217153
1.95860E+06 0.0214558
1.98040E+06 0.0211939
1.98524E+06 0.0211366
1.98566E+06 0.0211316
1.99911E+06 0.0209739
1.99921E+06 0.0209651
2.00000E+06 0.0208953
2.00596E+06 0.0208554
2.01000E+06 0.0208286
2.01000E+06 0.0208285
2.02126E+06 0.0207540
2.03829E+06 0.0206426
2.03830E+06 0.0206425
2.03839E+06 0.0206419
2.05320E+06 0.0205463
2.05353E+06 0.0205442
2.05371E+06 0.0205430
2.05859E+06 0.0205118
2.05902E+06 0.0205090
2.06060E+06 0.0204989
2.08961E+06 0.0203159
2.09184E+06 0.0203020
2.09403E+06 0.0202883
2.09450E+06 0.0202854
2.10743E+06 0.0202055
2.11764E+06 0.0201429
2.11764E+06 0.0201429
2.12262E+06 0.0201247
2.12648E+06 0.0201107
2.12659E+06 0.0201103
2.16114E+06 0.0199861
2.21486E+06 0.0197983
2.22903E+06 0.0197499
2.22950E+06 0.0197483
2.22964E+06 0.0197478
2.24264E+06 0.0197037
2.24264E+06 0.0197037
2.24671E+06 0.0196304
2.24691E+06 0.0196268
2.25000E+06 0.0195714
2.25800E+06 0.0194291
2.25800E+06 0.0194291
2.26533E+06 0.0193246
2.26857E+06 0.0192787
2.26860E+06 0.0192783
2.30660E+06 0.0187526
2.30765E+06 0.0187384
2.31864E+06 0.0185908
2.31985E+06 0.0185747
2.32229E+06 0.0185422
2.35740E+06 0.0180849
2.35744E+06 0.0180843
2.36362E+06 0.0180057
2.36774E+06 0.0179536
2.36785E+06 0.0179522
2.36815E+06 0.0179484
2.37601E+06 0.0178497
2.39520E+06 0.0176124
2.41836E+06 0.0173325
2.41870E+06 0.0173285
2.41891E+06 0.0173260
2.42150E+06 0.0172951
2.42972E+06 0.0171979
2.43999E+06 0.0170776
2.44473E+06 0.0170225
2.44903E+06 0.0169728
2.44953E+06 0.0169670
2.45162E+06 0.0169430
2.45172E+06 0.0169418
2.45280E+06 0.0169352
2.46405E+06 0.0168668
2.46627E+06 0.0168204
2.47524E+06 0.0167610
2.49494E+06 0.0166319
2.50000E+06 0.0165991
2.50679E+06 0.0165552
2.50709E+06 0.0165528
2.50710E+06 0.0165527
2.51101E+06 0.0165213
2.51973E+06 0.0164516
2.52000E+06 0.0164494
2.52000E+06 0.0164494
2.52050E+06 0.0164455
2.52629E+06 0.0163995
2.52781E+06 0.0163924
2.53212E+06 0.0163723
2.54735E+06 0.0163016
2.55473E+06 0.0162676
2.55483E+06 0.0162671
2.55607E+06 0.0162614
2.55790E+06 0.0162530
2.56054E+06 0.0162410
2.56055E+06 0.0162409
2.56092E+06 0.0162392
2.56110E+06 0.0162384
2.56112E+06 0.0162383
2.56712E+06 0.0162109
2.58908E+06 0.0161116
2.59437E+06 0.0160879
2.59457E+06 0.0160870
2.60973E+06 0.0160195
2.61615E+06 0.0159912
2.62128E+06 0.0159686
2.62128E+06 0.0159686
2.62159E+06 0.0159672
2.63803E+06 0.0158954
2.63955E+06 0.0158888
2.64107E+06 0.0158822
2.64168E+06 0.0158795
2.64645E+06 0.0158589
2.69973E+06 0.0156324
2.76861E+06 0.0153509
2.76923E+06 0.0153484
2.76943E+06 0.0153476
2.78973E+06 0.0152669
2.79029E+06 0.0152647
2.79069E+06 0.0152632
2.79301E+06 0.0152540
2.79783E+06 0.0152351
2.83530E+06 0.0150895
2.83594E+06 0.0150871
2.85081E+06 0.0150303
2.86636E+06 0.0149714
2.87936E+06 0.0149226
2.88098E+06 0.0149165
2.88100E+06 0.0149165
2.89650E+06 0.0148588
2.90038E+06 0.0148445
2.90103E+06 0.0148421
2.90325E+06 0.0148339
2.98688E+06 0.0145331
2.98755E+06 0.0145307
2.99000E+06 0.0145221
2.99000E+06 0.0145221
2.99685E+06 0.0144982
2.99690E+06 0.0144980
2.99695E+06 0.0144978
3.00000E+06 0.0144872
3.00781E+06 0.0144500
3.01515E+06 0.0144152
3.01563E+06 0.0144129
3.02344E+06 0.0143760
3.03030E+06 0.0143438
3.03120E+06 0.0143396
3.03125E+06 0.0143394
3.03160E+06 0.0143377
3.03190E+06 0.0143363
3.03292E+06 0.0143316
3.03906E+06 0.0143029
3.04000E+06 0.0142985
3.04688E+06 0.0142666
3.05469E+06 0.0142305
3.06250E+06 0.0141945
3.07031E+06 0.0141588
3.07813E+06 0.0141232
3.07813E+06 0.0141232
3.08594E+06 0.0140878
3.09375E+06 0.0140526
3.09632E+06 0.0140411
3.09773E+06 0.0140347
3.10156E+06 0.0140176
3.10938E+06 0.0139827
3.11137E+06 0.0139739
3.11719E+06 0.0139480
3.12500E+06 0.0139135
3.12520E+06 0.0139126
3.12523E+06 0.0139125
3.13281E+06 0.0138792
3.14063E+06 0.0138450
3.14080E+06 0.0138443
3.14844E+06 0.0138110
3.15625E+06 0.0137772
3.15637E+06 0.0137767
3.16406E+06 0.0137435
3.17188E+06 0.0137100
3.17193E+06 0.0137097
3.17969E+06 0.0136766
3.18750E+06 0.0136435
3.19531E+06 0.0136105
3.19817E+06 0.0135984
3.20313E+06 0.0135776
3.21094E+06 0.0135449
3.21619E+06 0.0135230
3.21875E+06 0.0135124
3.22371E+06 0.0134918
3.22656E+06 0.0134800
3.23438E+06 0.0134477
3.23686E+06 0.0134375
3.24219E+06 0.0134157
3.25000E+06 0.0133838
3.25781E+06 0.0133520
3.26412E+06 0.0133265
3.26563E+06 0.0133203
3.27344E+06 0.0132889
3.27823E+06 0.0132697
3.28125E+06 0.0132576
3.28906E+06 0.0132264
3.29235E+06 0.0132134
3.29688E+06 0.0131954
3.30469E+06 0.0131645
3.30646E+06 0.0131575
3.30712E+06 0.0131549
3.31250E+06 0.0131338
3.32031E+06 0.0131032
3.32813E+06 0.0130727
3.33147E+06 0.0130598
3.33594E+06 0.0130424
3.34375E+06 0.0130123
3.35156E+06 0.0129823
3.35582E+06 0.0129660
3.35938E+06 0.0129524
3.36719E+06 0.0129226
3.37500E+06 0.0128930
3.38017E+06 0.0128735
3.38281E+06 0.0128636
3.39063E+06 0.0128342
3.39844E+06 0.0128050
3.40452E+06 0.0127824
3.40608E+06 0.0127766
3.40625E+06 0.0127759
3.41362E+06 0.0127486
3.41406E+06 0.0127470
3.42188E+06 0.0127182
3.42969E+06 0.0126895
3.43750E+06 0.0126610
3.43886E+06 0.0126560
3.44531E+06 0.0126326
3.45313E+06 0.0126043
3.46094E+06 0.0125761
3.46410E+06 0.0125648
3.46875E+06 0.0125481
3.47656E+06 0.0125202
3.48205E+06 0.0125006
3.48438E+06 0.0124924
3.49219E+06 0.0124647
3.50000E+06 0.0124372
3.50000E+06 0.0124372
3.50781E+06 0.0124098
3.51563E+06 0.0123825
3.51765E+06 0.0123754
3.52344E+06 0.0123553
3.53125E+06 0.0123282
3.53530E+06 0.0123143
3.53610E+06 0.0123115
3.53680E+06 0.0123091
3.53760E+06 0.0123063
3.53906E+06 0.0123013
3.54688E+06 0.0122745
3.55469E+06 0.0122478
3.55842E+06 0.0122351
3.56250E+06 0.0122212
3.57031E+06 0.0121947
3.57813E+06 0.0121684
3.57924E+06 0.0121646
3.58087E+06 0.0121591
3.58594E+06 0.0121421
3.59375E+06 0.0121160
3.60023E+06 0.0120944
3.60156E+06 0.0120900
3.60938E+06 0.0120641
3.61719E+06 0.0120383
3.61959E+06 0.0120304
3.62153E+06 0.0120240
3.62500E+06 0.0120126
3.63281E+06 0.0119871
3.64040E+06 0.0119623
3.64063E+06 0.0119616
3.64844E+06 0.0119362
3.65625E+06 0.0119110
3.65927E+06 0.0119013
3.66094E+06 0.0118959
3.66406E+06 0.0118859
3.66458E+06 0.0118842
3.67188E+06 0.0118608
3.67969E+06 0.0118359
3.68056E+06 0.0118331
3.68750E+06 0.0118111
3.69531E+06 0.0117864
3.69653E+06 0.0117825
3.70313E+06 0.0117617
3.71094E+06 0.0117372
3.71251E+06 0.0117323
3.71875E+06 0.0117128
3.72656E+06 0.0116885
3.72848E+06 0.0116826
3.72850E+06 0.0116825
3.73438E+06 0.0116643
3.74219E+06 0.0116402
3.75000E+06 0.0116162
3.75781E+06 0.0115923
3.76563E+06 0.0115685
3.77303E+06 0.0115461
3.77344E+06 0.0115448
3.78125E+06 0.0115212
3.78906E+06 0.0114977
3.79606E+06 0.0114767
3.79688E+06 0.0114743
3.80469E+06 0.0114510
3.81250E+06 0.0114277
3.81908E+06 0.0114082
3.82031E+06 0.0114046
3.82813E+06 0.0113816
3.83594E+06 0.0113586
3.84211E+06 0.0113406
3.84375E+06 0.0113358
3.85156E+06 0.0113130
3.85938E+06 0.0112903
3.86185E+06 0.0112832
3.86719E+06 0.0112678
3.87500E+06 0.0112453
3.88158E+06 0.0112264
3.88281E+06 0.0112229
3.89063E+06 0.0112006
3.89844E+06 0.0111784
3.90132E+06 0.0111702
3.90625E+06 0.0111562
3.91406E+06 0.0111342
3.92106E+06 0.0111145
3.92188E+06 0.0111122
3.92969E+06 0.0110904
3.93750E+06 0.0110686
3.94079E+06 0.0110594
3.94531E+06 0.0110469
3.95313E+06 0.0110253
3.96053E+06 0.0110049
3.96094E+06 0.0110038
3.96875E+06 0.0109823
3.97656E+06 0.0109610
3.98026E+06 0.0109509
3.98438E+06 0.0109397
3.99219E+06 0.0109185
4.00000E+06 0.0108974
4.02000E+06 0.0107965
4.02000E+06 0.0107964
4.03125E+06 0.0107403
4.05483E+06 0.0106241
4.06250E+06 0.0105866
4.09375E+06 0.0104363
4.10965E+06 0.0103611
4.12500E+06 0.0102893
4.15625E+06 0.0101454
4.16448E+06 0.0101080
4.18750E+06 0.0100046
4.21875E+06 0.00986673
4.21930E+06 0.00986433
4.25000E+06 0.00973178
4.27713E+06 0.00961691
4.28125E+06 0.00959965
4.31250E+06 0.00947025
4.33496E+06 0.00937889
4.34375E+06 0.00934351
4.37500E+06 0.00921936
4.39279E+06 0.00914981
4.40625E+06 0.00909772
4.43750E+06 0.00897853
4.45062E+06 0.00892921
4.46875E+06 0.00886173
4.50000E+06 0.00874724
4.51000E+06 0.00871108
4.51000E+06 0.00871107
4.53125E+06 0.00863500
4.54866E+06 0.00857345
4.56250E+06 0.00852497
4.59375E+06 0.00841707
4.59731E+06 0.00840491
4.62500E+06 0.00831125
4.64597E+06 0.00824141
4.65625E+06 0.00820747
4.68750E+06 0.00810566
4.69462E+06 0.00808274
4.71875E+06 0.00800578
4.75000E+06 0.00790778
4.75897E+06 0.00788000
4.78125E+06 0.00781160
4.81250E+06 0.00771722
4.82331E+06 0.00768497
4.84375E+06 0.00762457
4.87500E+06 0.00753362
4.88766E+06 0.00749726
4.90625E+06 0.00744433
4.93750E+06 0.00735665
4.95200E+06 0.00731650
4.96875E+06 0.00727054
5.00000E+06 0.00718598
5.00000E+06 0.00718598
5.06250E+06 0.00688613
5.10510E+06 0.00669099
5.12500E+06 0.00660225
5.18750E+06 0.00633330
5.21019E+06 0.00623917
5.25000E+06 0.00607833
5.31250E+06 0.00583647
5.34772E+06 0.00570566
5.37500E+06 0.00560689
5.43750E+06 0.00538884
5.48524E+06 0.00522962
5.50000E+06 0.00518162
5.50152E+06 0.00517671
5.56250E+06 0.00498458
5.62500E+06 0.00479711
5.66944E+06 0.00466932
5.68506E+06 0.00462545
5.68750E+06 0.00461864
5.75000E+06 0.00444866
5.81250E+06 0.00428667
5.84253E+06 0.00421154
5.87500E+06 0.00413222
5.93750E+06 0.00398488
6.00000E+06 0.00384425
6.02000E+06 0.00378751
6.02000E+06 0.00378750
6.12500E+06 0.00350585
6.25000E+06 0.00320320
6.25328E+06 0.00319570
6.37500E+06 0.00293191
6.39579E+06 0.00288956
6.48074E+06 0.00272410
6.50000E+06 0.00268821
6.62500E+06 0.00246885
6.68298E+06 0.00237457
6.75000E+06 0.00227100
6.87500E+06 0.00209221
6.88521E+06 0.00207838
6.88694E+06 0.00207604
6.88766E+06 0.00207508
6.89675E+06 0.00206288
6.99205E+06 0.00194017
7.00000E+06 0.00193034
7.03335E+06 0.00188683
7.04000E+06 0.00187829
7.04000E+06 0.00187829
7.06546E+06 0.00184604
7.23762E+06 0.00164470
7.29910E+06 0.00157930
7.45347E+06 0.00142844
7.45430E+06 0.00142768
7.45598E+06 0.00142613
7.48331E+06 0.00140132
7.53044E+06 0.00136258
7.53273E+06 0.00136073
7.54412E+06 0.00135159
7.54566E+06 0.00135035
7.54755E+06 0.00134884
7.56445E+06 0.00133544
7.71054E+06 0.00122612
7.71191E+06 0.00122514
7.73734E+06 0.00120727
7.76637E+06 0.00118725
7.89064E+06 0.00110601
7.89065E+06 0.00110600
8.00000E+06 0.00104008
8.00000E+06 0.00104008
8.01494E+06 0.00103332
8.02988E+06 0.00102661
8.04483E+06 0.00101996
8.05977E+06 0.00101337
8.07471E+06 0.00100683
8.08965E+06 0.00100034
8.10459E+06 0.000993908
8.11954E+06 0.000987530
8.13448E+06 0.000981203
8.14942E+06 0.000974929
8.16436E+06 0.000968705
8.17930E+06 0.000962533
8.19425E+06 0.000956412
8.20919E+06 0.000950340
8.22413E+06 0.000944318
8.23752E+06 0.000938963
8.23907E+06 0.000938345
8.26659E+06 0.000927471
8.29411E+06 0.000916757
8.31543E+06 0.000908569
8.33674E+06 0.000900474
8.35806E+06 0.000892472
8.37937E+06 0.000884561
8.38459E+06 0.000882638
8.40720E+06 0.000874366
8.42982E+06 0.000866195
8.45243E+06 0.000858121
8.47504E+06 0.000850144
8.48528E+06 0.000846563
8.50977E+06 0.000840732
8.53426E+06 0.000834957
8.55875E+06 0.000829238
8.58324E+06 0.000823575
8.58822E+06 0.000822430
8.61632E+06 0.000816012
8.64442E+06 0.000809666
8.67251E+06 0.000803388
8.70061E+06 0.000797180
8.73003E+06 0.000790752
8.73046E+06 0.000790659
8.73143E+06 0.000790448
8.73609E+06 0.000789437
8.73752E+06 0.000789127
8.73885E+06 0.000788839
8.78336E+06 0.000779286
8.82787E+06 0.000769895
8.87175E+06 0.000760794
8.91563E+06 0.000751844
8.93361E+06 0.000748220
8.96681E+06 0.000741594
8.99000E+06 0.000737014
8.99000E+06 0.000737013
9.00000E+06 0.000735051
9.06005E+06 0.000729646
9.12011E+06 0.000724315
9.18016E+06 0.000719059
9.24021E+06 0.000713874
9.25057E+06 0.000713845
9.25523E+06 0.000713832
9.31639E+06 0.000713663
9.32621E+06 0.000713636
9.39440E+06 0.000713449
9.39472E+06 0.000713448
9.39988E+06 0.000713434
9.40010E+06 0.000713434
9.47852E+06 0.000713221
9.48683E+06 0.000713198
9.55576E+06 0.000719406
9.62468E+06 0.000725623
9.62972E+06 0.000726078
9.68488E+06 0.000731061
9.74004E+06 0.000736048
9.74409E+06 0.000736415
9.77649E+06 0.000739347
9.78944E+06 0.000740520
9.89603E+06 0.000750184
9.89837E+06 0.000750396
1.00000E+07 0.000759630
1.00300E+07 0.000764521
1.00300E+07 0.000764525
1.01220E+07 0.000779638
1.02441E+07 0.000799922
1.03661E+07 0.000820486
1.04881E+07 0.000841327
1.05000E+07 0.000844134
1.06108E+07 0.000870554
1.07215E+07 0.000897514
1.08608E+07 0.000932186
1.10000E+07 0.000967729
1.10371E+07 0.000971901
1.10743E+07 0.000976076
1.11114E+07 0.000980257
1.11485E+07 0.000984439
1.11988E+07 0.000990113
1.12491E+07 0.000995795
1.12791E+07 0.000999186
1.13091E+07 0.00100258
1.13391E+07 0.00100598
1.13691E+07 0.00100938
1.13991E+07 0.00101278
1.14291E+07 0.00101618
1.14591E+07 0.00101959
1.14891E+07 0.00102300
1.15000E+07 0.00102424
1.15366E+07 0.00102840
1.15732E+07 0.00103256
1.16097E+07 0.00103673
1.16463E+07 0.00104090
1.16829E+07 0.00104508
1.17195E+07 0.00104926
1.17560E+07 0.00105344
1.17926E+07 0.00105763
1.18321E+07 0.00106214
1.18715E+07 0.00106667
1.19036E+07 0.00107035
1.19358E+07 0.00107404
1.19679E+07 0.00107774
1.20000E+07 0.00108143
1.20000E+07 0.00108143
1.21029E+07 0.00107936
1.22058E+07 0.00107730
1.23087E+07 0.00107527
1.24117E+07 0.00107326
1.25000E+07 0.00107155
1.25146E+07 0.00107127
1.26175E+07 0.00106930
1.27204E+07 0.00106735
1.28233E+07 0.00106542
1.28314E+07 0.00106527
1.29157E+07 0.00106370
1.30000E+07 0.00106215
1.31250E+07 0.00105477
1.32500E+07 0.00104751
1.33750E+07 0.00104037
1.35000E+07 0.00103334
1.36035E+07 0.00102760
1.37069E+07 0.00102195
1.38342E+07 0.00101509
1.39615E+07 0.00100833
1.39800E+07 0.00100736
1.39800E+07 0.00100736
1.40000E+07 0.00100631
1.41806E+07 0.000998167
1.43611E+07 0.000990192
1.43671E+07 0.000989930
1.43694E+07 0.000989829
1.45000E+07 0.000984167
1.45009E+07 0.000984129
1.45019E+07 0.000984085
1.45039E+07 0.000983999
1.45058E+07 0.000983918
1.45078E+07 0.000983832
1.45117E+07 0.000983664
1.45156E+07 0.000983496
1.45195E+07 0.000983329
1.45234E+07 0.000983162
1.45312E+07 0.000982827
1.45390E+07 0.000982493
1.45468E+07 0.000982158
1.45625E+07 0.000981487
1.45781E+07 0.000980821
1.45937E+07 0.000980156
1.46250E+07 0.000978825
1.46562E+07 0.000977504
1.46875E+07 0.000976182
1.47187E+07 0.000974870
1.47500E+07 0.000973558
1.47812E+07 0.000972254
1.48125E+07 0.000970951
1.48750E+07 0.000968362
1.49597E+07 0.000964883
1.50000E+07 0.000963238
1.51852E+07 0.000958580
1.54015E+07 0.000953240
1.56177E+07 0.000948004
1.56321E+07 0.000947659
1.56503E+07 0.000947223
1.56847E+07 0.000946402
1.57274E+07 0.000945386
1.58773E+07 0.000941850
1.60000E+07 0.000938990
1.61365E+07 0.000938145
1.61510E+07 0.000938056
1.62958E+07 0.000937169
1.63869E+07 0.000936615
1.64472E+07 0.000936251
1.67032E+07 0.000934719
1.67033E+07 0.000934719
1.67087E+07 0.000934687
1.67104E+07 0.000934677
1.69056E+07 0.000933527
1.69900E+07 0.000933034
1.69900E+07 0.000933034
1.70000E+07 0.000932976
1.72289E+07 0.000934929
1.72426E+07 0.000935045
1.74015E+07 0.000936386
1.79355E+07 0.000940821
1.79482E+07 0.000940925
1.79483E+07 0.000940926
1.80000E+07 0.000941349
1.90000E+07 0.000961449
2.00000E+07 0.000990993