Pd-106(n,g) ENDF/B-VII.1
Energy(eV) XS(b)
1.00000E-05 15.5156
1.25000E-05 13.8776
1.50000E-05 12.6685
2.00000E-05 10.9712
2.75000E-05 9.35627
3.50000E-05 8.29344
4.25000E-05 7.52618
5.00000E-05 6.93879
6.25000E-05 6.20624
7.50000E-05 5.66549
0.000100000 4.90646
0.000125000 4.38846
0.000150000 4.00610
0.000200000 3.46938
0.000275000 2.95869
0.000350000 2.62259
0.000425000 2.37995
0.000500000 2.19420
0.000625000 1.96255
0.000750000 1.79154
0.00100000 1.55151
0.00125000 1.38770
0.00150000 1.26678
0.00200000 1.09704
0.00275000 0.935537
0.00350000 0.829243
0.00425000 0.752506
0.00500000 0.693758
0.00625000 0.620489
0.00750000 0.566401
0.0100000 0.490475
0.0125000 0.438656
0.0150000 0.400401
0.0200000 0.346696
0.0253000 0.308193
0.0314750 0.276253
0.0376500 0.252530
0.0500000 0.219039
0.0625000 0.195829
0.0750000 0.178689
0.100000 0.154614
0.125000 0.138171
0.150000 0.126023
0.200000 0.108951
0.275000 0.0926745
0.350000 0.0819377
0.500000 0.0682089
0.750000 0.0552355
1.00000 0.0474532
1.50000 0.0381526
2.00000 0.0325615
2.75000 0.0272042
3.50000 0.0236610
5.00000 0.0191410
7.50000 0.0149369
10.0000 0.0125003
15.0000 0.00976780
20.0000 0.00828500
27.5000 0.00704184
35.0000 0.00635706
50.0000 0.00576968
56.6833 0.00588333
60.0249 0.00677509
60.8603 0.00771601
61.6957 0.0103588
62.1134 0.0139553
62.3223 0.0174750
62.5311 0.0237526
62.7400 0.0366339
62.8444 0.0488730
62.9488 0.0699926
63.0532 0.111140
63.1054 0.148099
63.1577 0.208082
63.2099 0.314502
63.2360 0.401163
63.2621 0.528275
63.2882 0.723837
63.3143 1.04128
63.3404 1.58640
63.3665 2.54622
63.3933 4.07135
63.4200 5.08876
63.4468 4.07307
63.4735 2.54836
63.4913 1.83644
63.5092 1.35185
63.5449 0.794979
63.5805 0.514432
63.6162 0.357947
63.6519 0.262986
63.6875 0.201428
63.7589 0.129491
63.8302 0.0908293
63.9016 0.0677471
64.0442 0.0427795
64.1869 0.0302950
64.3296 0.0231781
64.6150 0.0157911
64.9003 0.0122337
65.1857 0.0102523
65.7564 0.00823712
66.8979 0.00675955
68.0393 0.00623197
72.6051 0.00572981
81.7368 0.00569533
100.000 0.00610595
123.156 0.00741478
134.733 0.00964458
137.628 0.0113997
140.522 0.0159574
141.969 0.0220450
142.693 0.0280451
143.417 0.0389288
144.140 0.0620258
144.502 0.0848666
144.864 0.126170
145.045 0.160679
145.226 0.212943
145.407 0.297603
145.587 0.448188
145.678 0.571956
145.768 0.756031
145.859 1.04764
145.949 1.54835
146.040 2.51919
146.085 3.38501
146.130 4.78076
146.175 7.23928
146.221 12.0951
146.243 16.4637
146.266 23.4373
146.288 35.1332
146.311 55.1572
146.336 88.4766
146.360 110.789
146.385 88.4909
146.409 55.1754
146.429 36.6645
146.450 25.3125
146.470 18.2025
146.490 13.6215
146.531 8.34618
146.572 5.59678
146.613 4.00092
146.653 2.99793
146.735 1.86014
146.816 1.26560
146.897 0.917070
146.979 0.695621
147.060 0.546447
147.223 0.363839
147.386 0.260772
147.549 0.196984
147.711 0.154820
148.037 0.104272
148.362 0.0763464
149.013 0.0482663
149.664 0.0352993
150.315 0.0284700
151.618 0.0226726
152.920 0.0224629
153.571 0.0245592
154.222 0.0294609
154.873 0.0409079
155.198 0.0525437
155.524 0.0737418
155.850 0.118299
156.012 0.161591
156.175 0.238033
156.338 0.392590
156.419 0.537011
156.501 0.781284
156.582 1.24406
156.623 1.64721
156.663 2.28069
156.704 3.35246
156.745 5.35186
156.765 7.04824
156.785 9.58093
156.806 13.4926
156.826 19.5632
156.853 31.4504
156.880 39.4426
156.907 31.4558
156.934 19.5698
156.955 13.3095
156.976 9.36039
156.997 6.82698
157.018 5.16345
157.060 3.21129
157.102 2.17690
157.144 1.56754
157.186 1.18221
157.271 0.740867
157.355 0.508254
157.439 0.371402
157.607 0.225116
157.775 0.152731
157.944 0.111769
158.280 0.0694921
158.616 0.0492238
158.953 0.0379642
159.626 0.0265230
160.299 0.0211128
160.972 0.0181334
162.317 0.0151485
165.009 0.0130892
167.701 0.0125357
178.467 0.0133295
200.000 0.0191419
210.200 0.0241027
220.400 0.0317313
230.599 0.0442897
240.799 0.0671618
245.899 0.0864303
250.999 0.115885
256.099 0.164277
261.199 0.252309
263.749 0.326373
266.298 0.439381
267.573 0.519666
268.848 0.624479
269.486 0.689338
269.805 0.725667
270.123 0.764961
270.442 0.807578
270.761 0.853874
271.080 0.904303
271.398 0.959371
271.717 1.01969
272.036 1.08590
272.355 1.15885
272.673 1.23943
273.311 1.42823
273.948 1.66403
274.586 1.96382
275.223 2.35307
275.861 2.87131
276.498 3.58237
277.136 4.59565
277.773 6.10982
278.411 8.51824
279.048 12.6898
279.367 16.0282
279.686 20.8717
280.004 28.2781
280.323 40.3960
280.642 62.1724
280.801 80.1410
280.961 106.837
281.120 148.654
281.279 218.218
281.439 341.944
281.598 569.745
281.749 911.263
281.900 1138.35
282.051 910.104
282.202 568.611
282.341 363.313
282.479 242.921
282.618 170.846
282.757 125.624
283.034 75.2335
283.311 49.7173
283.589 35.1769
283.866 26.1533
284.420 16.0400
284.975 10.8161
285.530 7.77703
286.084 5.85660
286.639 4.56702
287.748 2.99761
288.857 2.11590
289.966 1.57209
291.076 1.21342
293.294 0.785042
295.512 0.549647
297.731 0.411486
298.840 0.382009
299.395 0.439591
299.533 0.508496
299.672 0.687240
299.741 0.899717
299.810 1.36721
299.845 1.83921
299.880 2.68898
299.914 4.39778
299.932 5.89402
299.949 8.10710
299.975 12.7787
300.000 15.8906
300.026 12.7780
300.051 8.10491
300.077 5.05453
300.103 3.37252
300.129 2.41058
300.155 1.82577
300.207 1.19270
300.259 0.881073
300.363 0.597494
300.467 0.476104
300.676 0.374319
300.884 0.331340
301.717 0.269977
303.382 0.221069
306.713 0.163231
313.376 0.100312
320.038 0.0677987
326.700 0.0488273
333.363 0.0368196
340.025 0.0287564
353.350 0.0189718
366.675 0.0135352
379.999 0.0102989
393.324 0.00869618
396.655 0.00886187
399.986 0.0101467
401.652 0.0122874
403.318 0.0186701
404.150 0.0276282
404.567 0.0365584
404.983 0.0527803
405.400 0.0870084
405.608 0.120519
405.816 0.180326
405.920 0.229609
406.024 0.303213
406.128 0.420167
406.232 0.622419
406.336 1.01779
406.389 1.37473
406.441 1.95535
406.493 2.99385
406.519 3.84346
406.545 5.09772
406.571 7.04250
406.597 10.2367
406.623 15.8073
406.649 25.8206
406.674 41.3064
406.700 51.6296
406.726 41.3089
406.751 25.8238
406.779 15.5024
406.806 9.89814
406.833 6.74414
406.860 4.84898
406.887 3.63821
406.914 2.82374
406.968 1.83651
407.022 1.28697
407.077 0.951225
407.185 0.580328
407.293 0.391267
407.402 0.282175
407.510 0.213616
407.619 0.167753
407.835 0.112138
408.052 0.0809888
408.486 0.0491635
408.919 0.0340435
409.353 0.0256875
410.220 0.0172309
411.954 0.0110095
413.689 0.00872181
417.157 0.00692399
420.626 0.00615612
434.500 0.00498619
448.374 0.00499885
451.843 0.00554664
455.311 0.00732870
457.046 0.00990224
458.780 0.0172636
459.647 0.0274637
460.081 0.0376008
460.514 0.0559903
460.948 0.0947951
461.165 0.132809
461.381 0.200675
461.490 0.256676
461.598 0.340402
461.707 0.473640
461.815 0.704557
461.923 1.15754
461.978 1.56755
462.032 2.23851
462.086 3.44349
462.113 4.43726
462.140 5.91399
462.167 8.22419
462.194 12.0658
462.221 18.8835
462.248 31.3556
462.274 50.1868
462.300 62.7498
462.326 50.1895
462.352 31.3590
462.370 22.0787
462.388 15.9362
462.407 11.8680
462.425 9.10584
462.462 5.77775
462.499 3.96413
462.536 2.87544
462.572 2.17685
462.646 1.36931
462.719 0.938677
462.793 0.683490
462.866 0.519921
462.940 0.408910
463.087 0.272237
463.234 0.194602
463.381 0.146335
463.528 0.114319
463.822 0.0757769
464.117 0.0543696
464.705 0.0326500
465.293 0.0224047
465.881 0.0167721
467.058 0.0111052
469.411 0.00699189
471.764 0.00552543
476.470 0.00446348
481.176 0.00411107
490.588 0.00405141
500.000 0.00471834
505.462 0.00593893
508.192 0.00720061
510.923 0.00953750
513.654 0.0145849
515.019 0.0196444
516.385 0.0289149
517.067 0.0367606
517.750 0.0487907
518.433 0.0686097
519.115 0.104739
519.457 0.135162
519.798 0.181564
520.139 0.257505
520.481 0.394505
520.651 0.508710
520.822 0.681209
520.993 0.959573
521.163 1.45151
521.249 1.85370
521.334 2.44842
521.419 3.38194
521.505 4.96824
521.590 7.99057
521.633 10.6395
521.675 14.8159
521.718 21.9572
521.761 35.4146
521.782 47.0029
521.803 64.5309
521.825 92.0363
521.846 135.468
521.873 216.655
521.900 270.742
521.927 216.343
521.954 135.229
521.974 93.5145
521.995 66.6210
522.015 49.1191
522.035 37.3992
522.075 23.4787
522.116 15.9825
522.156 11.5298
522.197 8.69877
522.278 5.44189
522.358 3.71587
522.439 2.69697
522.520 2.04504
522.601 1.60414
522.763 1.06246
522.924 0.755373
523.086 0.564722
523.248 0.438321
523.571 0.286438
523.895 0.202148
524.218 0.150575
524.541 0.116752
525.188 0.0765318
525.835 0.0544517
526.482 0.0410443
527.128 0.0323017
528.422 0.0219769
529.715 0.0163585
532.303 0.0108040
534.890 0.00830917
537.477 0.00705754
542.651 0.00621788
547.825 0.00679611
552.999 0.00984166
555.586 0.0143574
556.880 0.0189065
558.174 0.0272422
559.467 0.0450954
560.114 0.0628806
560.761 0.0952725
561.084 0.122533
561.407 0.164107
561.731 0.232094
562.054 0.354712
562.216 0.456847
562.378 0.611028
562.539 0.859651
562.701 1.29892
562.782 1.65755
562.863 2.18732
562.944 3.01912
563.024 4.42873
563.105 7.10741
563.146 9.44499
563.186 13.1281
563.227 19.3834
563.267 31.1207
563.287 41.1075
563.307 56.1742
563.328 79.6240
563.348 116.302
563.374 186.181
563.400 232.514
563.426 185.904
563.452 116.312
563.482 67.8679
563.511 42.4644
563.540 28.5383
563.569 20.3219
563.598 15.1400
563.628 11.6869
563.686 7.54092
563.744 5.25415
563.803 3.86554
563.919 2.34111
564.036 1.56727
564.153 1.12230
564.270 0.843334
564.387 0.657190
564.620 0.431684
564.854 0.305695
565.087 0.228199
565.321 0.177209
565.788 0.116378
566.255 0.0828797
566.722 0.0625054
567.189 0.0492118
568.123 0.0335221
569.057 0.0250171
570.926 0.0167306
572.794 0.0131967
574.662 0.0116688
578.399 0.0116928
582.136 0.0155173
584.004 0.0200811
585.873 0.0288076
586.807 0.0363132
587.741 0.0479067
588.675 0.0671151
589.609 0.102303
590.076 0.132043
590.543 0.177560
591.011 0.252332
591.478 0.388027
591.711 0.501775
591.945 0.674434
592.178 0.955239
592.412 1.45702
592.529 1.87142
592.645 2.49154
592.762 3.47956
592.879 5.19296
592.996 8.56508
593.054 11.6259
593.112 16.6389
593.171 25.6930
593.200 33.1938
593.229 44.3896
593.258 62.0113
593.288 91.5657
593.317 144.657
593.346 243.367
593.373 389.608
593.400 486.597
593.427 389.045
593.454 243.385
593.479 154.888
593.504 103.223
593.529 72.4479
593.555 53.1858
593.605 31.7961
593.655 20.9944
593.705 14.8491
593.755 11.0392
593.856 6.77274
593.956 4.57026
594.057 3.28916
594.157 2.47959
594.257 1.93630
594.458 1.27410
594.659 0.901950
594.860 0.672077
595.060 0.520368
595.462 0.338733
595.863 0.238367
596.265 0.177120
596.666 0.137015
597.469 0.0894189
598.272 0.0633268
599.076 0.0474870
599.879 0.0371545
601.485 0.0249323
603.091 0.0182494
606.303 0.0115571
609.515 0.00843542
612.727 0.00673330
619.152 0.00505451
625.576 0.00433577
632.000 0.00411015
638.425 0.00485900
641.637 0.00860594
642.440 0.0124770
643.243 0.0232959
643.644 0.0379832
644.046 0.0779397
644.247 0.130457
644.347 0.180355
644.447 0.266369
644.548 0.434128
644.598 0.584908
644.648 0.829797
644.698 1.26465
644.724 1.61915
644.749 2.13993
644.774 2.94209
644.799 4.24746
644.824 6.49456
644.849 10.4450
644.875 16.7175
644.900 20.8752
644.926 16.6920
644.951 10.4458
644.979 6.19869
645.006 3.93130
645.034 2.66321
645.061 1.90939
645.089 1.42839
645.116 1.10720
645.171 0.718979
645.227 0.503164
645.282 0.371648
645.392 0.226799
645.502 0.153042
645.612 0.110579
645.832 0.0660830
646.273 0.0323797
646.713 0.0200342
647.594 0.0109493
648.475 0.00769254
651.999 0.00448382
659.048 0.00367346
673.144 0.00358690
701.337 0.00413258
729.530 0.00527868
757.723 0.00742702
785.916 0.0118988
800.013 0.0162038
814.109 0.0238182
821.157 0.0300894
828.206 0.0395160
835.254 0.0547396
842.302 0.0819633
845.826 0.104600
849.350 0.138863
852.875 0.194543
854.637 0.236568
856.399 0.294497
857.280 0.332088
858.161 0.377597
858.601 0.404041
859.042 0.433435
859.482 0.466238
859.923 0.502999
860.363 0.544395
860.804 0.591218
861.244 0.644476
861.685 0.705408
862.566 0.856910
863.447 1.06397
864.328 1.35757
865.209 1.79344
866.090 2.48077
866.530 2.98369
866.971 3.65686
867.412 4.58648
867.852 5.91944
868.293 7.92495
868.733 11.1350
869.174 16.7140
869.394 21.1656
869.614 27.5663
869.834 37.1581
870.055 52.1801
870.275 76.7567
870.495 117.500
870.748 187.952
871.000 234.852
871.253 187.818
871.505 117.370
871.701 80.2453
871.896 56.5623
872.092 41.3653
872.288 31.3020
872.679 19.4843
873.070 13.1944
873.461 9.49259
873.853 7.14504
874.635 4.45853
875.418 3.04369
876.200 2.21039
876.983 1.67940
877.765 1.32077
879.330 0.882075
880.895 0.634855
882.460 0.482594
884.025 0.382797
887.155 0.266085
890.285 0.205965
893.415 0.175003
896.545 0.162479
902.805 0.183886
905.935 0.226971
909.065 0.315358
910.630 0.392427
912.195 0.511113
913.760 0.705405
914.151 0.773200
914.543 0.851978
914.934 0.944266
915.325 1.05324
915.716 1.18322
915.912 1.25777
916.108 1.33984
916.499 1.53094
916.890 1.76726
917.281 2.06434
917.673 2.44462
918.064 2.94241
918.455 3.61091
918.846 4.53801
919.238 5.87441
919.629 7.89975
920.020 11.1720
920.411 16.9415
920.607 21.6088
920.803 28.4151
920.998 38.8036
921.194 55.4788
921.389 83.6666
921.585 132.368
921.793 211.741
922.000 264.598
922.208 211.625
922.415 132.254
922.591 87.3728
922.767 59.9272
922.943 42.9448
923.119 32.0093
923.470 19.5251
923.822 13.0545
924.174 9.31230
924.526 6.96631
925.229 4.31155
925.933 2.92759
926.637 2.11750
927.340 1.60330
928.044 1.25678
929.451 0.833391
930.858 0.594407
932.265 0.446400
933.673 0.348404
936.487 0.230702
939.301 0.165360
942.116 0.125384
944.930 0.0992566
950.559 0.0690626
956.188 0.0561689
959.002 0.0568704
961.816 0.0711752
963.224 0.0956437
963.927 0.121136
964.631 0.168433
964.983 0.208579
965.334 0.270070
965.686 0.370961
966.038 0.553398
966.214 0.705605
966.390 0.935634
966.566 1.30703
966.742 1.96426
966.830 2.50160
966.917 3.29655
967.005 4.54693
967.093 6.67173
967.181 10.7257
967.225 14.2841
967.269 19.9037
967.313 29.5348
967.357 47.7509
967.379 63.4509
967.401 87.4007
967.423 125.209
967.445 184.984
967.473 295.976
967.500 369.980
967.528 295.982
967.555 184.992
967.587 106.177
967.618 65.6844
967.650 43.8173
967.682 31.0474
967.714 23.0512
967.745 17.7503
967.809 11.4255
967.872 7.94739
967.935 5.84257
968.062 3.53900
968.189 2.37313
968.316 1.70433
968.442 1.28513
968.569 1.00563
968.823 0.667395
969.076 0.478406
969.330 0.362188
969.583 0.285664
970.090 0.194201
970.597 0.143657
971.611 0.0924128
972.625 0.0680766
973.639 0.0545009
975.666 0.0404385
979.722 0.0295527
983.778 0.0257129
987.833 0.0251271
991.889 0.0282524
993.917 0.0324330
995.944 0.0403787
997.972 0.0566441
998.986 0.0715545
1000.00 0.0960389
1000.66 0.121186
1001.31 0.159811
1001.97 0.223482
1002.62 0.339230
1002.95 0.436827
1003.27 0.585014
1003.60 0.826668
1003.93 1.26063
1004.09 1.62183
1004.26 2.16550
1004.42 3.03863
1004.58 4.55948
1004.67 5.79751
1004.75 7.61659
1004.83 10.4437
1004.87 12.4833
1004.91 15.1032
1004.93 16.8190
1004.95 18.7370
1004.97 21.1220
1004.99 23.8371
1005.01 27.2825
1005.03 31.2940
1005.05 36.5148
1005.07 42.7675
1005.10 51.1694
1005.12 61.5993
1005.14 76.1931
1005.16 95.1392
1005.18 122.975
1005.20 160.934
1005.22 215.746
1005.24 294.475
1005.27 471.855
1005.30 584.295
1005.32 549.408
1005.33 465.954
1005.36 289.849
1005.40 170.314
1005.43 107.150
1005.47 72.2883
1005.50 51.6166
1005.54 38.5316
1005.57 29.7880
1005.64 19.3690
1005.71 13.5011
1005.78 9.97591
1005.92 6.05453
1006.06 4.04887
1006.20 2.90321
1006.34 2.18345
1006.48 1.70210
1006.76 1.11708
1007.04 0.791041
1007.31 0.590293
1007.59 0.457994
1008.15 0.299764
1008.70 0.212648
1009.26 0.159448
1009.82 0.124693
1010.93 0.0833669
1012.04 0.0606915
1013.16 0.0468768
1014.27 0.0378157
1016.50 0.0269805
1018.72 0.0209361
1023.18 0.0146325
1027.63 0.0114528
1032.08 0.00954100
1040.99 0.00731291
1058.80 0.00513120
1076.61 0.00399470
1112.23 0.00291372
1121.13 0.00287149
1130.04 0.00312774
1138.94 0.00520136
1141.17 0.00743908
1143.40 0.0138248
1144.51 0.0226857
1145.62 0.0475752
1146.18 0.0816794
1146.46 0.115221
1146.74 0.175497
1147.01 0.301427
1147.15 0.422588
1147.29 0.635263
1147.43 1.06096
1147.50 1.45834
1147.57 2.11470
1147.64 3.35579
1147.68 4.42334
1147.71 6.01927
1147.74 8.72198
1147.78 13.5962
1147.80 17.7134
1147.81 23.3479
1147.83 31.5888
1147.85 43.6038
1147.87 69.7662
1147.90 87.2087
1147.93 69.7676
1147.95 43.6056
1147.98 25.4537
1148.01 16.1702
1148.04 10.8452
1148.07 7.79517
1148.10 5.79212
1148.12 4.49976
1148.18 2.90989
1148.24 2.03045
1148.29 1.49540
1148.41 0.910159
1148.52 0.609531
1148.64 0.436625
1148.86 0.256336
1149.09 0.168457
1149.32 0.119524
1149.77 0.0695322
1150.68 0.0326797
1151.59 0.0195011
1153.41 0.00993664
1155.23 0.00654719
1162.50 0.00324575
1169.78 0.00267702
1177.05 0.00261340
1184.33 0.00292034
1191.60 0.00413081
1195.24 0.00592068
1198.87 0.0110840
1200.69 0.0182970
1202.51 0.0386973
1203.42 0.0669050
1203.88 0.0949338
1204.33 0.145668
1204.78 0.252970
1205.01 0.357907
1205.24 0.545340
1205.35 0.700762
1205.47 0.933602
1205.58 1.30514
1205.69 1.94398
1205.81 3.21114
1205.86 4.36360
1205.92 6.21601
1205.98 9.60583
1206.01 12.4758
1206.03 16.6133
1206.06 23.3699
1206.09 34.3078
1206.12 53.7318
1206.15 89.4492
1206.17 143.786
1206.20 178.069
1206.23 141.651
1206.25 89.4526
1206.28 56.6087
1206.30 38.1382
1206.33 26.6257
1206.35 19.6969
1206.40 11.7892
1206.45 7.84964
1206.50 5.54779
1206.55 4.12201
1206.64 2.53814
1206.74 1.71051
1206.84 1.23376
1206.94 0.931636
1207.03 0.728291
1207.23 0.479257
1207.42 0.339284
1207.81 0.196103
1208.20 0.127757
1208.59 0.0900774
1209.37 0.0519678
1210.15 0.0340770
1210.93 0.0242713
1212.48 0.0144458
1215.60 0.00735222
1218.72 0.00484693
1224.95 0.00304210
1231.18 0.00240793
1256.10 0.00188584
1268.56 0.00196087
1281.03 0.00225718
1287.26 0.00261140
1293.49 0.00344860
1299.72 0.00715161
1301.28 0.0107138
1302.83 0.0205373
1303.61 0.0339444
1304.39 0.0711358
1304.78 0.121544
1304.98 0.170799
1305.17 0.257967
1305.37 0.437248
1305.46 0.606283
1305.56 0.896715
1305.66 1.46715
1305.71 1.97983
1305.75 2.79042
1305.80 4.24837
1305.85 7.08105
1305.88 9.75518
1305.90 13.8871
1305.92 20.8157
1305.95 32.6726
1305.97 52.3658
1306.00 65.5331
1306.03 52.3667
1306.05 32.6739
1306.07 23.6527
1306.09 17.7747
1306.12 10.6085
1306.15 6.91528
1306.18 4.82447
1306.22 3.54289
1306.25 2.70620
1306.32 1.72169
1306.38 1.18912
1306.45 0.869839
1306.58 0.523220
1306.71 0.349370
1306.84 0.250087
1307.11 0.146930
1307.64 0.0696030
1308.16 0.0415713
1309.22 0.0212633
1310.28 0.0142945
1312.39 0.0101060
1314.50 0.0102620
1316.61 0.0137009
1318.72 0.0253082
1319.78 0.0417975
1320.31 0.0582686
1320.83 0.0882478
1321.36 0.151733
1321.63 0.214156
1321.89 0.326130
1322.15 0.558130
1322.29 0.780968
1322.42 1.17033
1322.55 1.94402
1322.62 2.65404
1322.68 3.83350
1322.75 5.99990
1322.78 7.82847
1322.81 10.6094
1322.85 15.1001
1322.88 22.9107
1322.91 37.6978
1322.95 66.0631
1322.97 106.590
1323.00 132.373
1323.03 105.047
1323.06 66.0652
1323.08 40.9710
1323.11 27.1829
1323.14 18.7869
1323.16 13.7910
1323.19 10.4040
1323.21 8.17685
1323.27 5.41141
1323.32 3.81109
1323.37 2.82489
1323.48 1.73389
1323.58 1.16684
1323.69 0.840880
1323.79 0.634752
1323.90 0.496237
1324.11 0.326918
1324.32 0.232230
1324.74 0.134930
1325.16 0.0886493
1325.58 0.0630804
1326.42 0.0372788
1328.11 0.0185616
1329.79 0.0119614
1333.16 0.00731671
1336.53 0.00583621
1343.27 0.00523419
1350.00 0.00576258
1356.74 0.00709339
1363.48 0.00965601
1366.84 0.0118629
1370.21 0.0156072
1371.90 0.0190099
1373.58 0.0260452
1374.42 0.0341962
1375.26 0.0550350
1375.69 0.0822977
1376.11 0.155409
1376.32 0.251401
1376.42 0.342195
1376.53 0.498882
1376.63 0.808659
1376.69 1.08934
1376.74 1.53796
1376.79 2.35487
1376.82 3.01277
1376.84 3.98108
1376.87 5.54985
1376.90 8.04609
1376.92 12.3899
1376.95 20.1873
1376.97 32.4559
1377.00 40.7070
1377.03 32.4566
1377.05 20.1882
1377.07 13.5602
1377.09 9.58505
1377.11 6.92959
1377.13 5.26770
1377.18 3.27127
1377.22 2.23465
1377.26 1.60840
1377.30 1.22069
1377.38 0.769916
1377.46 0.530133
1377.54 0.390936
1377.70 0.242073
1378.03 0.126836
1378.35 0.0844213
1379.00 0.0539904
1379.65 0.0442686
1380.95 0.0401996
1382.25 0.0427108
1384.85 0.0568847
1387.45 0.0859571
1388.75 0.110940
1390.05 0.149272
1391.35 0.212353
1392.65 0.326712
1393.30 0.422555
1393.95 0.568013
1394.60 0.804280
1395.24 1.22528
1395.57 1.57276
1395.73 1.80551
1395.89 2.09202
1396.06 2.45498
1396.22 2.91784
1396.38 3.52472
1396.46 3.90153
1396.54 4.34194
1396.71 5.48698
1396.87 7.13688
1397.03 9.67147
1397.11 11.4592
1397.19 13.7851
1397.28 16.9297
1397.36 21.1983
1397.44 27.2583
1397.52 36.2247
1397.60 50.1701
1397.68 73.1725
1397.76 113.532
1397.84 186.649
1397.92 298.626
1398.00 373.259
1398.08 298.589
1398.16 186.612
1398.21 131.671
1398.27 95.7298
1398.32 71.7007
1398.38 55.2575
1398.49 35.2783
1398.60 24.2760
1398.71 17.6087
1398.82 13.3589
1399.04 8.41865
1399.26 5.76791
1399.48 4.19941
1399.70 3.19212
1399.92 2.50753
1400.36 1.66251
1400.80 1.18305
1401.24 0.884034
1401.68 0.685937
1402.57 0.447025
1403.45 0.314438
1404.33 0.233231
1405.21 0.179923
1406.97 0.116486
1408.73 0.0816600
1410.50 0.0604995
1412.26 0.0466900
1415.78 0.0303599
1419.31 0.0214497
1422.83 0.0160627
1426.36 0.0125655
1433.40 0.00846347
1440.45 0.00626221
1447.50 0.00497258
1454.55 0.00418531
1468.65 0.00347422
1482.75 0.00372876
1489.80 0.00458729
1496.85 0.00727484
1500.37 0.0110773
1503.90 0.0218801
1505.66 0.0368871
1506.54 0.0518635
1507.42 0.0792089
1508.30 0.137523
1508.74 0.195429
1509.18 0.300081
1509.40 0.388069
1509.62 0.520937
1509.84 0.736389
1510.06 1.12016
1510.17 1.43930
1510.28 1.91182
1510.39 2.66146
1510.50 3.95498
1510.61 6.47493
1510.67 8.73881
1510.72 12.4139
1510.78 18.9344
1510.81 24.3613
1510.83 32.0405
1510.86 44.3052
1510.89 63.5059
1510.92 97.7252
1510.94 155.685
1510.97 247.785
1511.00 308.649
1511.03 244.286
1511.06 152.958
1511.08 102.712
1511.10 72.4642
1511.13 52.3591
1511.15 39.7267
1511.19 24.5984
1511.24 16.5997
1511.28 11.9136
1511.33 8.94953
1511.42 5.59284
1511.51 3.80347
1511.60 2.75174
1511.69 2.08230
1511.78 1.63448
1511.96 1.07928
1512.13 0.767006
1512.31 0.573172
1512.49 0.444678
1512.85 0.289993
1513.21 0.204462
1513.93 0.117713
1514.64 0.0768972
1515.36 0.0545041
1516.79 0.0320553
1519.66 0.0159201
1522.53 0.0103088
1528.27 0.00650516
1534.00 0.00551494
1539.74 0.00554035
1545.48 0.00636105
1548.35 0.00727303
1551.21 0.00916145
1554.08 0.0165327
1554.80 0.0233664
1555.52 0.0418941
1555.87 0.0667362
1556.23 0.133444
1556.41 0.220890
1556.59 0.443691
1556.68 0.716584
1556.77 1.33912
1556.82 2.01289
1556.86 3.33042
1556.88 4.53244
1556.91 6.34036
1556.93 9.27520
1556.95 14.0943
1556.98 22.6072
1557.00 27.9482
1557.03 22.2605
1557.05 14.0948
1557.08 8.32461
1557.11 5.33231
1557.13 3.64302
1557.16 2.62526
1557.22 1.52124
1557.27 0.994427
1557.38 0.517102
1557.49 0.318794
1557.70 0.157836
1557.92 0.0964969
1558.36 0.0500334
1558.79 0.0331853
1560.53 0.0173066
1562.27 0.0155486
1564.01 0.0162983
1567.49 0.0211356
1570.97 0.0312192
1572.71 0.0399090
1574.44 0.0532676
1576.18 0.0752859
1577.92 0.115405
1578.79 0.149196
1579.66 0.200765
1580.53 0.285208
1581.40 0.437628
1581.84 0.565020
1582.27 0.757856
1582.71 1.07003
1583.14 1.62311
1583.36 2.07897
1583.58 2.75395
1583.68 3.22422
1583.79 3.82584
1583.90 4.61247
1584.01 5.65681
1584.12 7.11405
1584.23 9.21116
1584.34 12.3804
1584.39 14.5844
1584.45 17.4233
1584.50 21.2404
1584.55 26.3168
1584.61 33.3856
1584.66 43.5850
1584.72 59.2770
1584.77 83.6608
1584.83 123.869
1584.88 191.201
1584.94 306.157
1585.00 380.802
1585.06 304.129
1585.12 189.610
1585.17 129.751
1585.22 92.1707
1585.26 67.8218
1585.31 51.5668
1585.40 32.1669
1585.49 21.8898
1585.59 15.7492
1585.68 11.8852
1585.86 7.43850
1586.05 5.07355
1586.23 3.67832
1586.42 2.78796
1586.60 2.18841
1586.97 1.44869
1587.34 1.03098
1587.71 0.771247
1588.08 0.599788
1588.82 0.394132
1589.56 0.280978
1590.30 0.212942
1591.03 0.169905
1592.51 0.126195
1593.25 0.120117
1593.99 0.127063
1594.73 0.159347
1595.10 0.197134
1595.47 0.269099
1595.84 0.425024
1596.02 0.578714
1596.21 0.850939
1596.30 1.07689
1596.39 1.40931
1596.49 1.94010
1596.58 2.83923
1596.67 4.58962
1596.72 6.12600
1596.76 8.57840
1596.81 12.8228
1596.85 21.0234
1596.88 28.2175
1596.90 39.4066
1596.92 57.5256
1596.95 87.2253
1596.97 139.540
1597.00 174.417
1597.03 139.541
1597.05 87.2271
1597.08 53.6933
1597.11 35.4366
1597.13 24.4014
1597.16 17.8709
1597.19 13.4612
1597.21 10.5702
1597.27 6.99121
1597.32 4.92622
1597.37 3.67535
1597.48 2.26285
1597.58 1.53589
1597.69 1.11372
1597.79 0.847121
1597.90 0.668088
1598.11 0.449966
1598.32 0.327048
1598.74 0.200340
1599.16 0.139171
1599.58 0.104866
1600.42 0.0690740
1602.10 0.0407700
1603.78 0.0291268
1605.46 0.0228466
1607.14 0.0189787
1610.50 0.0148229
1613.86 0.0136962
1617.22 0.0168379
1618.91 0.0231038
1620.59 0.0421903
1621.43 0.0690864
1621.85 0.0958756
1622.27 0.144515
1622.69 0.247063
1622.90 0.347378
1623.11 0.526250
1623.32 0.893275
1623.42 1.24206
1623.53 1.84425
1623.63 3.01838
1623.69 4.08673
1623.74 5.78971
1623.79 8.87747
1623.82 11.3527
1623.84 14.9789
1623.87 20.8142
1623.90 30.0087
1623.92 45.7767
1623.95 73.4768
1623.97 117.771
1624.00 145.587
1624.03 116.034
1624.05 72.1183
1624.07 51.7917
1624.09 38.6474
1624.12 23.1661
1624.16 15.1517
1624.19 10.5967
1624.23 7.73095
1624.26 5.91931
1624.33 3.77843
1624.40 2.60229
1624.47 1.90754
1624.60 1.15010
1624.74 0.766569
1624.87 0.548913
1625.15 0.321413
1625.42 0.211366
1625.69 0.150292
1626.24 0.0881032
1627.33 0.0423819
1628.43 0.0259518
1630.61 0.0138704
1632.80 0.00943428
1637.17 0.00599203
1641.54 0.00459925
1650.28 0.00338585
1659.03 0.00285208
1676.51 0.00245200
1694.00 0.00246018
1711.48 0.00277149
1728.97 0.00354109
1737.71 0.00432719
1746.46 0.00600604
1750.83 0.00796098
1755.20 0.0129875
1757.39 0.0196740
1759.57 0.0382097
1760.66 0.0636359
1761.21 0.0888803
1761.76 0.134599
1762.30 0.231384
1762.58 0.326252
1762.85 0.496133
1762.99 0.637246
1763.12 0.847224
1763.26 1.18515
1763.40 1.76956
1763.53 2.93485
1763.60 3.99218
1763.67 5.73662
1763.74 8.97288
1763.77 11.6526
1763.81 15.6924
1763.84 22.1375
1763.87 33.1562
1763.91 53.5009
1763.94 92.8803
1763.97 148.852
1764.00 184.217
1764.03 146.875
1764.06 91.3340
1764.08 66.6737
1764.10 50.3631
1764.13 30.7221
1764.17 20.1069
1764.21 14.1889
1764.24 10.4243
1764.28 8.01855
1764.35 5.15087
1764.42 3.56302
1764.50 2.60848
1764.64 1.57448
1764.79 1.05004
1764.93 0.751911
1765.08 0.564244
1765.22 0.440080
1765.52 0.289541
1765.81 0.205608
1766.39 0.120337
1766.97 0.0799797
1767.55 0.0578410
1768.71 0.0356351
1771.04 0.0198191
1773.37 0.0145251
1778.02 0.0114305
1782.67 0.0112747
1791.98 0.0140806
1801.28 0.0207590
1805.93 0.0266119
1810.59 0.0356468
1815.24 0.0505554
1819.89 0.0776684
1822.22 0.100430
1824.54 0.135014
1826.87 0.191304
1829.20 0.292114
1830.36 0.375577
1830.94 0.431430
1831.52 0.500615
1832.11 0.588054
1832.40 0.640624
1832.69 0.700348
1832.98 0.769075
1833.27 0.848425
1833.56 0.940699
1833.85 1.04845
1834.14 1.17626
1834.43 1.32888
1835.01 1.73745
1835.59 2.36785
1835.89 2.81901
1836.18 3.40869
1836.47 4.20515
1836.76 5.31164
1837.05 6.90817
1837.34 9.31134
1837.63 13.1701
1837.92 19.8029
1838.07 24.9925
1838.21 32.1517
1838.36 42.2079
1838.50 56.2384
1838.75 89.9908
1839.00 112.335
1839.25 89.8168
1839.50 56.0968
1839.66 41.1354
1839.81 30.7188
1840.13 18.4367
1840.44 12.0445
1840.75 8.42259
1841.07 6.18897
1841.38 4.73257
1842.01 3.01234
1842.64 2.08016
1843.26 1.52068
1844.52 0.912701
1845.77 0.607492
1847.02 0.433095
1848.28 0.324240
1849.53 0.251790
1852.04 0.164400
1854.55 0.115722
1857.06 0.0858660
1859.56 0.0662533
1864.58 0.0428893
1869.59 0.0300432
1874.61 0.0222306
1879.63 0.0171299
1889.66 0.0110928
1899.69 0.00779293
1909.72 0.00579397
1919.75 0.00449178
1939.81 0.00295384
1959.88 0.00211424
1979.94 0.00160586
2000.00 0.00127487
2037.40 0.000904079
2074.79 0.000696333
2149.58 0.000490267
2224.37 0.000408041
2299.17 0.000389492
2373.96 0.000425786
2448.75 0.000550929
2486.14 0.000692442
2523.54 0.00100104
2542.24 0.00135237
2560.94 0.00222400
2570.28 0.00335583
2579.63 0.00646526
2584.31 0.0107374
2588.98 0.0227952
2591.32 0.0395124
2592.49 0.0562121
2593.66 0.0866880
2594.83 0.151785
2595.41 0.216334
2595.99 0.333344
2596.29 0.431717
2596.58 0.580586
2596.87 0.822389
2597.16 1.25416
2597.31 1.61020
2597.45 2.14236
2597.60 2.98888
2597.75 4.45529
2597.89 7.32983
2597.97 9.92973
2598.04 14.1813
2598.11 21.8090
2598.15 28.1974
2598.18 37.4246
2598.22 52.2593
2598.26 76.2241
2598.29 119.937
2598.33 199.474
2598.37 318.258
2598.40 398.986
2598.44 318.257
2598.47 199.475
2598.49 141.003
2598.52 102.748
2598.54 76.2270
2598.57 58.8939
2598.62 37.4272
2598.66 25.8570
2598.71 18.7460
2598.76 14.2590
2598.86 8.98094
2598.96 6.13893
2599.05 4.46990
2599.15 3.39802
2599.25 2.66952
2599.44 1.76836
2599.64 1.25883
2599.83 0.941543
2600.02 0.730726
2600.41 0.476379
2600.80 0.335377
2601.58 0.192081
2602.36 0.124525
2603.13 0.0874091
2604.69 0.0501399
2607.79 0.0232478
2610.90 0.0137875
2617.12 0.00707369
2623.33 0.00481443
2635.77 0.00347588
2648.20 0.00346878
2660.63 0.00425571
2666.85 0.00510373
2673.06 0.00660126
2679.28 0.00964686
2685.50 0.0178476
2688.60 0.0289551
2690.16 0.0399619
2691.71 0.0600060
2693.27 0.102753
2694.04 0.145228
2694.82 0.222438
2695.60 0.386001
2695.99 0.547312
2696.37 0.836477
2696.57 1.07785
2696.76 1.43932
2696.96 2.01924
2697.15 3.03632
2697.25 3.87014
2697.35 5.08476
2697.44 6.97223
2697.54 10.1337
2697.64 16.0151
2697.69 21.1101
2697.73 28.8057
2697.78 41.7564
2697.83 64.4749
2697.86 83.7408
2697.88 110.512
2697.90 149.745
2697.93 207.075
2697.96 333.153
2698.00 414.190
2698.04 329.520
2698.07 207.076
2698.11 133.231
2698.14 90.5500
2698.17 64.4778
2698.20 47.8414
2698.27 28.8082
2698.33 19.2135
2698.40 13.6156
2698.46 10.1784
2698.59 6.27035
2698.72 4.24235
2698.85 3.05882
2698.98 2.30919
2699.10 1.80813
2699.36 1.19161
2699.62 0.844569
2699.88 0.630168
2700.14 0.488989
2700.65 0.319233
2701.17 0.225557
2702.20 0.130881
2703.23 0.0865061
2704.26 0.0622624
2706.32 0.0381654
2710.44 0.0213825
2714.57 0.0162374
2718.69 0.0147180
2722.81 0.0149313
2731.06 0.0190635
2735.18 0.0234062
2739.31 0.0303401
2743.43 0.0419126
2747.55 0.0629914
2749.61 0.0806473
2751.67 0.107407
2753.74 0.150862
2755.80 0.228405
2756.83 0.292419
2757.86 0.388221
2758.38 0.455134
2758.89 0.540961
2759.41 0.653785
2759.92 0.806211
2760.18 0.903524
2760.44 1.01962
2760.69 1.15966
2760.95 1.32991
2761.21 1.54145
2761.47 1.80761
2761.73 2.14874
2761.98 2.59354
2762.24 3.19316
2762.50 4.02376
2762.76 5.21769
2763.01 7.00489
2763.27 9.85566
2763.53 14.6819
2763.66 18.4163
2763.79 23.5575
2763.92 30.7119
2764.04 40.5044
2764.27 64.8125
2764.50 80.8994
2764.73 64.6866
2764.96 40.4039
2765.11 29.3702
2765.25 21.8143
2765.55 12.9545
2765.84 8.41846
2766.14 5.86855
2766.43 4.30392
2766.73 3.28494
2767.32 2.09051
2767.91 1.44486
2768.50 1.05932
2769.67 0.641895
2770.85 0.434291
2772.03 0.317669
2773.21 0.247315
2774.39 0.203745
2776.75 0.166502
2777.93 0.170290
2779.11 0.197161
2780.29 0.273952
2780.88 0.356621
2781.46 0.510376
2781.76 0.640744
2782.05 0.839473
2782.35 1.16299
2782.64 1.73810
2782.79 2.21465
2782.94 2.92053
2783.09 4.03776
2783.23 5.95844
2783.38 9.71422
2783.45 13.0830
2783.53 18.4464
2783.60 28.0202
2783.67 46.7502
2783.71 63.8730
2783.75 91.3908
2783.79 137.941
2783.82 216.974
2783.86 348.043
2783.90 433.957
2783.94 348.039
2783.98 216.973
2784.02 127.071
2784.07 80.1169
2784.11 54.1331
2784.15 38.6981
2784.20 28.7333
2784.24 22.2480
2784.32 14.4227
2784.41 10.0467
2784.50 7.41779
2784.67 4.51784
2784.84 3.03499
2785.02 2.18211
2785.19 1.64721
2785.36 1.29157
2785.71 0.857842
2786.05 0.615573
2786.40 0.466082
2786.74 0.367273
2787.43 0.248468
2788.12 0.182357
2789.50 0.114346
2790.88 0.0812889
2792.27 0.0623789
2795.03 0.0420869
2797.79 0.0315924
2800.55 0.0252762
2806.08 0.0182051
2811.60 0.0145654
2817.13 0.0126151
2828.17 0.0116705
2839.22 0.0144580
2844.75 0.0183243
2850.27 0.0259560
2853.03 0.0325821
2855.80 0.0428270
2858.56 0.0597628
2861.32 0.0906003
2862.70 0.116470
2864.08 0.155759
2865.46 0.219602
2866.84 0.333623
2867.54 0.427726
2868.23 0.568159
2868.57 0.666281
2868.92 0.791851
2869.26 0.956611
2869.61 1.17867
2869.78 1.32026
2869.95 1.48892
2870.13 1.69196
2870.30 1.93774
2870.47 2.24284
2870.64 2.62301
2870.82 3.11087
2870.99 3.74258
2871.16 4.59048
2871.33 5.75617
2871.51 7.41548
2871.68 9.86153
2871.85 13.6999
2872.02 20.0192
2872.20 31.2364
2872.28 39.9173
2872.37 51.5776
2872.53 82.4452
2872.70 102.987
2872.87 82.2355
2873.03 51.4115
2873.19 32.2864
2873.35 21.3059
2873.51 14.8505
2873.67 10.8484
2873.83 8.23314
2873.99 6.44422
2874.30 4.24382
2874.62 2.99357
2874.94 2.22331
2875.57 1.36155
2876.21 0.917371
2876.85 0.659958
2877.48 0.497467
2878.12 0.388421
2879.39 0.255689
2880.66 0.181193
2881.93 0.135193
2883.20 0.104855
2885.74 0.0685397
2888.28 0.0484632
2890.82 0.0362038
2893.36 0.0281706
2898.44 0.0186129
2903.52 0.0133520
2908.61 0.0101433
2913.69 0.00803936
2923.85 0.00553230
2934.01 0.00415193
2954.34 0.00278392
2974.67 0.00222111
2994.99 0.00209490
3005.16 0.00221143
3015.32 0.00258585
3025.48 0.00414994
3030.57 0.00943120
3033.11 0.0293159
3033.74 0.0493217
3034.38 0.104595
3034.70 0.178959
3035.01 0.377419
3035.17 0.633817
3035.33 1.27932
3035.41 2.05479
3035.49 3.77064
3035.53 5.56694
3035.57 8.81662
3035.59 11.6181
3035.61 15.8220
3035.63 22.3136
3035.65 31.7456
3035.67 51.1741
3035.70 63.4892
3035.73 50.4079
3035.75 31.7461
3035.78 19.7083
3035.80 13.0917
3035.83 9.17183
3035.85 6.72626
3035.91 3.98069
3035.96 2.63203
3036.06 1.37968
3036.16 0.849271
3036.36 0.412306
3036.56 0.243846
3036.96 0.114879
3037.37 0.0673934
3038.17 0.0323848
3038.98 0.0198607
3042.20 0.00779543
3048.65 0.00554701
3055.09 0.00647964
3061.54 0.00907781
3067.99 0.0150098
3071.21 0.0210009
3074.44 0.0319728
3076.05 0.0412459
3077.66 0.0554391
3079.27 0.0787631
3080.88 0.121092
3081.69 0.156618
3082.49 0.210627
3083.30 0.298568
3084.11 0.456170
3084.51 0.586606
3084.91 0.782267
3085.32 1.09505
3085.72 1.64075
3086.12 2.72251
3086.32 3.71586
3086.52 5.35331
3086.73 8.36481
3086.83 10.9001
3086.93 14.6985
3087.03 20.8547
3087.13 31.3568
3087.23 51.1948
3087.33 89.9068
3087.42 144.229
3087.50 179.893
3087.59 143.546
3087.67 89.9013
3087.75 56.3732
3087.83 37.3335
3087.92 25.9831
3088.00 19.0274
3088.08 14.4216
3088.16 11.3083
3088.32 7.44010
3088.49 5.24994
3088.65 3.89650
3088.97 2.38865
3089.30 1.60939
3089.63 1.15816
3089.95 0.872376
3090.28 0.681166
3090.93 0.447859
3091.58 0.317044
3092.23 0.236327
3092.88 0.183056
3094.18 0.119317
3095.49 0.0841631
3096.79 0.0627448
3098.09 0.0487528
3100.70 0.0322321
3103.30 0.0233014
3108.51 0.0147628
3113.72 0.0116552
3118.93 0.0120633
3124.14 0.0222719
3125.44 0.0328389
3126.74 0.0619604
3127.39 0.101427
3128.04 0.209873
3128.37 0.355292
3128.53 0.496075
3128.69 0.742339
3128.86 1.24099
3128.94 1.70952
3129.02 2.49182
3129.10 3.98771
3129.14 5.29202
3129.18 7.27986
3129.22 10.7035
3129.26 16.8574
3129.28 22.2789
3129.30 29.9745
3129.32 41.6495
3129.34 60.2786
3129.37 95.8288
3129.40 120.439
3129.43 95.8294
3129.46 60.1706
3129.48 37.6130
3129.51 24.6284
3129.54 17.0718
3129.56 12.5602
3129.59 9.49332
3129.62 7.40774
3129.67 4.88712
3129.72 3.43601
3129.78 2.55795
3129.88 1.57460
3129.99 1.06333
3130.10 0.767194
3130.31 0.456612
3130.74 0.219573
3131.16 0.132954
3132.02 0.0700301
3132.87 0.0490193
3134.58 0.0386728
3136.28 0.0447295
3137.99 0.0678522
3138.84 0.0928400
3139.70 0.139151
3140.55 0.238181
3140.98 0.335849
3141.40 0.510696
3141.83 0.873696
3142.05 1.22339
3142.26 1.83138
3142.47 3.04511
3142.58 4.16033
3142.69 5.99252
3142.79 9.38398
3142.85 12.2159
3142.90 16.5058
3142.95 23.5656
3143.01 35.6067
3143.06 58.2510
3143.11 103.273
3143.16 165.991
3143.20 206.571
3143.25 164.503
3143.29 103.272
3143.33 69.4810
3143.36 48.8053
3143.40 35.6078
3143.43 26.9001
3143.50 16.7098
3143.57 11.2997
3143.64 8.12162
3143.71 6.10758
3143.85 3.80473
3143.99 2.58595
3144.13 1.87431
3144.27 1.42041
3144.41 1.11347
3144.69 0.736166
3144.97 0.523490
3145.53 0.304043
3146.09 0.198808
3146.65 0.140523
3147.77 0.0813611
3150.02 0.0380568
3152.26 0.0225351
3156.74 0.0111519
3161.23 0.00701715
3170.20 0.00392474
3179.17 0.00280257
3197.11 0.00232748
3206.08 0.00336058
3210.56 0.00699540
3212.81 0.0198820
3213.93 0.0674847
3214.21 0.114165
3214.49 0.237844
3214.63 0.395586
3214.77 0.786354
3214.84 1.24251
3214.91 2.23744
3214.94 3.23482
3214.98 5.02827
3215.01 8.60433
3215.03 11.8373
3215.05 16.3341
3215.07 26.1174
3215.10 32.6335
3215.13 26.1176
3215.15 16.3030
3215.18 9.88076
3215.21 6.44037
3215.23 4.45275
3215.26 3.23508
3215.31 1.89240
3215.36 1.24280
3215.47 0.647306
3215.57 0.397630
3215.78 0.194096
3215.99 0.115591
3216.83 0.0341750
3218.50 0.0133431
3221.85 0.0131922
3223.52 0.0202440
3225.20 0.0417471
3226.03 0.0717639
3226.87 0.155601
3227.29 0.269424
3227.50 0.380305
3227.71 0.577484
3227.92 0.980404
3228.02 1.36395
3228.13 2.01660
3228.23 3.29279
3228.28 4.42156
3228.33 6.23674
3228.39 9.49644
3228.44 15.8393
3228.47 21.5305
3228.49 30.5917
3228.52 45.7396
3228.54 72.2236
3228.57 115.967
3228.60 144.450
3228.63 115.968
3228.66 72.2245
3228.69 41.4931
3228.72 25.8581
3228.75 17.1378
3228.79 12.2040
3228.82 9.01586
3228.85 6.96772
3228.92 4.47633
3228.98 3.10982
3229.05 2.28313
3229.18 1.38294
3229.31 0.923415
3229.44 0.659916
3229.69 0.385802
3230.21 0.178520
3230.73 0.102940
3231.77 0.0473142
3232.81 0.0274278
3234.88 0.0129840
3236.96 0.00785133
3245.25 0.00280597
3261.85 0.00160804
3278.45 0.00215119
3286.75 0.00521129
3290.90 0.0173553
3291.93 0.0297644
3292.97 0.0644752
3293.49 0.111871
3294.01 0.241575
3294.27 0.414623
3294.53 0.868855
3294.66 1.44419
3294.72 1.97220
3294.79 2.83172
3294.85 4.42610
3294.88 5.79438
3294.92 7.80804
3294.95 11.1570
3294.98 16.7835
3295.01 27.2806
3295.05 48.3992
3295.07 77.7228
3295.10 96.7991
3295.13 77.7232
3295.15 48.3998
3295.17 35.2603
3295.19 26.3996
3295.22 15.8865
3295.26 10.4110
3295.29 7.28898
3295.33 5.36571
3295.36 4.10551
3295.43 2.61734
3295.50 1.80055
3295.56 1.31844
3295.70 0.793284
3295.97 0.376946
3296.25 0.219962
3296.79 0.101709
3297.34 0.0586683
3298.43 0.0271295
3299.52 0.0158919
3303.88 0.00491577
3312.60 0.00223936
3330.05 0.00210178
3347.49 0.00452525
3351.85 0.00689149
3356.22 0.0133445
3358.40 0.0221264
3360.58 0.0466816
3361.67 0.0804512
3362.76 0.174592
3363.30 0.302607
3363.58 0.428385
3363.85 0.652468
3364.12 1.11641
3364.26 1.55833
3364.39 2.32551
3364.53 3.85062
3364.60 5.22992
3364.67 7.49749
3364.73 11.5982
3364.77 15.0046
3364.80 20.1033
3364.84 28.1595
3364.87 41.7481
3364.90 66.3686
3364.94 113.481
3364.97 181.132
3365.00 226.785
3365.03 181.132
3365.06 113.299
3365.09 73.6944
3365.12 49.4084
3365.15 34.8164
3365.17 25.6298
3365.23 15.3745
3365.29 10.1716
3365.34 7.20341
3365.40 5.36001
3365.51 3.29243
3365.62 2.22357
3365.73 1.60132
3365.96 0.943546
3366.18 0.621606
3366.41 0.440555
3366.85 0.254979
3367.30 0.166697
3367.75 0.117943
3368.65 0.0688193
3370.44 0.0334293
3372.23 0.0212658
3375.81 0.0136957
3379.40 0.0133108
3382.98 0.0177929
3386.56 0.0336321
3388.36 0.0562605
3390.15 0.120192
3391.04 0.208061
3391.49 0.294907
3391.94 0.451634
3392.39 0.779571
3392.61 1.09801
3392.83 1.66132
3392.95 2.12146
3393.06 2.80287
3393.17 3.87317
3393.28 5.69363
3393.39 9.16137
3393.45 12.2029
3393.51 17.0161
3393.56 25.2422
3393.62 40.8254
3393.65 54.2139
3393.67 74.6025
3393.70 106.708
3393.73 156.452
3393.77 251.041
3393.80 312.922
3393.84 251.041
3393.87 156.452
3393.90 103.887
3393.93 71.1112
3393.96 50.8746
3393.99 37.8690
3394.05 23.0532
3394.11 15.3908
3394.17 10.9658
3394.23 8.19470
3394.35 5.08020
3394.47 3.44076
3394.59 2.48257
3394.71 1.87507
3394.83 1.46892
3395.07 0.968496
3395.31 0.687530
3395.79 0.398086
3396.27 0.260076
3396.74 0.183735
3397.70 0.106664
3399.62 0.0508957
3401.53 0.0315160
3405.36 0.0189021
3409.20 0.0172059
3413.03 0.0222327
3416.86 0.0420092
3418.77 0.0708195
3419.73 0.0997950
3420.69 0.152690
3421.65 0.265360
3422.13 0.376687
3422.61 0.577437
3422.85 0.745018
3423.08 0.996828
3423.32 1.40440
3423.56 2.12078
3423.68 2.70700
3423.80 3.57400
3423.92 4.93340
3424.04 7.21403
3424.16 11.5620
3424.22 15.3533
3424.28 21.1899
3424.34 31.1900
3424.40 49.8218
3424.43 65.5547
3424.46 89.1052
3424.49 125.372
3424.52 179.061
3424.56 286.514
3424.60 358.155
3424.64 286.512
3424.68 179.061
3424.71 126.879
3424.74 92.0596
3424.76 68.8347
3424.79 52.9756
3424.85 33.7534
3424.90 23.3387
3424.96 16.9438
3425.01 12.8928
3425.13 8.12898
3425.24 5.58028
3425.35 4.06321
3425.46 3.08898
3425.57 2.42688
3425.79 1.61098
3426.01 1.14672
3426.24 0.857743
3426.46 0.665794
3426.90 0.434328
3427.35 0.305985
3428.23 0.175672
3429.12 0.114121
3430.01 0.0803127
3431.79 0.0462916
3435.34 0.0215948
3438.89 0.0128020
3446.00 0.00639696
3453.11 0.00410628
3481.54 0.00208970
3509.96 0.00361211
3517.07 0.00561189
3524.18 0.0113979
3527.73 0.0194764
3531.29 0.0423127
3533.06 0.0738279
3533.95 0.105128
3534.84 0.161813
3535.73 0.281460
3536.17 0.398476
3536.62 0.607330
3536.84 0.779474
3537.06 1.03665
3537.28 1.44551
3537.50 2.15311
3537.73 3.53820
3537.84 4.78901
3537.95 6.83100
3538.06 10.4852
3538.12 13.5205
3538.17 17.9346
3538.23 24.9371
3538.28 36.2988
3538.34 56.6684
3538.39 93.4845
3538.45 149.313
3538.50 187.001
3538.55 149.310
3538.61 93.4828
3538.67 54.3107
3538.73 33.7585
3538.79 22.5856
3538.85 16.0324
3538.91 11.9168
3538.97 9.18282
3539.10 5.91037
3539.22 4.11093
3539.34 3.02048
3539.58 1.82829
3539.83 1.22166
3540.07 0.874452
3540.31 0.655921
3540.56 0.510640
3541.04 0.334156
3541.53 0.235794
3542.51 0.135505
3543.48 0.0879736
3544.45 0.0618168
3546.40 0.0354681
3550.30 0.0163871
3554.20 0.00963904
3562.00 0.00479650
3569.79 0.00311115
3585.38 0.00196617
3600.97 0.00167443
3632.16 0.00206545
3647.75 0.00353549
3655.54 0.00828695
3659.44 0.0260473
3660.42 0.0440148
3661.39 0.0940040
3661.88 0.161796
3662.37 0.346252
3662.61 0.589524
3662.73 0.821183
3662.85 1.21767
3662.97 1.99729
3663.04 2.70010
3663.10 3.84516
3663.16 5.88779
3663.19 7.59357
3663.22 10.0288
3663.25 13.9313
3663.28 20.1213
3663.31 30.7828
3663.34 49.6437
3663.37 79.9500
3663.40 99.2882
3663.43 78.9085
3663.46 49.6441
3663.50 28.5587
3663.53 17.6939
3663.57 11.8142
3663.60 8.37562
3663.64 6.22030
3663.67 4.79046
3663.74 3.09886
3663.81 2.15286
3663.88 1.58072
3664.02 0.957672
3664.16 0.639952
3664.30 0.458806
3664.58 0.269210
3665.13 0.125541
3665.69 0.0731915
3666.81 0.0347589
3667.92 0.0210776
3672.38 0.00793027
3681.30 0.00549854
3690.21 0.00651850
3699.13 0.00934267
3703.59 0.0118653
3708.05 0.0157873
3712.51 0.0222993
3716.97 0.0342369
3719.20 0.0443369
3721.42 0.0598017
3723.65 0.0852415
3725.88 0.131522
3727.00 0.170435
3728.11 0.229710
3729.23 0.326493
3730.34 0.500442
3730.90 0.645247
3731.46 0.862956
3732.01 1.21279
3732.57 1.82775
3732.85 2.32798
3733.13 3.06478
3733.41 4.21366
3733.69 6.13820
3733.96 9.75300
3734.10 12.8541
3734.24 17.6626
3734.38 25.7197
3734.52 40.2556
3734.59 52.3066
3734.66 69.6395
3734.73 95.8939
3734.80 134.481
3734.90 215.656
3735.00 269.074
3735.10 214.784
3735.20 134.472
3735.31 79.5888
3735.42 50.3018
3735.53 34.0339
3735.64 24.3477
3735.75 18.1993
3735.86 14.0828
3736.07 9.11693
3736.29 6.36540
3736.51 4.68951
3736.95 2.84350
3737.38 1.90509
3737.82 1.36461
3738.25 1.02541
3738.69 0.799213
3739.56 0.524666
3740.43 0.371512
3741.30 0.277524
3742.17 0.216171
3743.92 0.145167
3745.66 0.113681
3746.53 0.112908
3747.40 0.138432
3747.84 0.183446
3748.28 0.314709
3748.49 0.491244
3748.71 0.953406
3748.82 1.52786
3748.93 2.89324
3748.98 4.42542
3749.04 7.48338
3749.07 10.3005
3749.09 14.9105
3749.12 22.9093
3749.15 37.1931
3749.17 59.4762
3749.20 74.3318
3749.23 59.4761
3749.25 37.1927
3749.27 25.8634
3749.29 18.4842
3749.31 13.6657
3749.33 10.4309
3749.37 6.57887
3749.41 4.49954
3749.49 2.47661
3749.57 1.56885
3749.73 0.802769
3749.89 0.496820
3750.21 0.257836
3750.53 0.167373
3751.17 0.0979056
3751.81 0.0709729
3754.37 0.0378758
3756.93 0.0270448
3759.49 0.0209985
3764.61 0.0141612
3769.73 0.0104030
3779.96 0.00654610
3790.20 0.00472507
3810.67 0.00325135
3831.14 0.00297206
3851.61 0.00348481
3872.08 0.00535164
3882.31 0.00761986
3892.55 0.0127859
3897.67 0.0186435
3902.78 0.0325505
3905.34 0.0497334
3906.62 0.0660333
3907.90 0.0948725
3909.18 0.154948
3909.82 0.213787
3910.46 0.319495
3911.10 0.541343
3911.42 0.757849
3911.74 1.14196
3911.90 1.45878
3912.06 1.93149
3912.22 2.68184
3912.38 3.97773
3912.54 6.50626
3912.62 8.78184
3912.70 12.4829
3912.78 19.0682
3912.82 24.4475
3912.86 32.3648
3912.90 44.5891
3912.94 64.5430
3912.98 99.0181
3913.02 158.161
3913.06 254.303
3913.10 316.321
3913.14 251.801
3913.18 158.161
3913.22 94.6151
3913.27 60.2583
3913.31 40.9851
3913.35 29.6424
3913.40 22.1995
3913.44 17.3007
3913.52 11.2660
3913.61 7.90001
3913.69 5.84075
3913.86 3.56304
3914.03 2.39572
3914.20 1.72673
3914.37 1.30608
3914.54 1.02468
3914.88 0.682948
3915.22 0.492673
3915.90 0.299413
3916.59 0.209071
3917.27 0.160782
3918.63 0.116063
3921.35 0.0990915
3924.07 0.123116
3925.43 0.150899
3926.79 0.196111
3928.15 0.272257
3929.52 0.411309
3930.20 0.527617
3930.88 0.702959
3931.56 0.985750
3932.24 1.48308
3932.58 1.88863
3932.92 2.48466
3933.26 3.41424
3933.60 4.97925
3933.94 7.92562
3934.11 10.4627
3934.28 14.4098
3934.45 20.9926
3934.62 33.0073
3934.70 42.9449
3934.79 57.5331
3934.87 79.4695
3934.96 112.458
3935.08 180.286
3935.20 225.020
3935.32 179.672
3935.44 112.448
3935.52 82.0370
3935.60 60.9972
3935.75 36.3284
3935.90 23.6468
3936.06 16.5156
3936.21 12.1150
3936.36 9.24554
3936.67 5.88118
3936.98 4.05596
3937.29 2.96571
3937.90 1.78132
3938.52 1.18612
3939.13 0.846247
3939.75 0.634168
3940.36 0.493216
3941.59 0.322847
3942.82 0.227958
3944.05 0.169687
3945.28 0.131345
3947.74 0.0855800
3950.19 0.0603371
3952.65 0.0449396
3955.11 0.0348558
3960.03 0.0228654
3964.95 0.0162759
3969.86 0.0122675
3974.78 0.00965200
3984.62 0.00657206
3994.45 0.00492525
4014.12 0.00345826
4033.79 0.00325211
4053.46 0.00456151
4063.30 0.00685949
4068.21 0.00924714
4073.13 0.0136766
4078.05 0.0232368
4080.51 0.0327916
4082.97 0.0502123
4084.20 0.0648930
4085.42 0.0872699
4086.65 0.123863
4087.88 0.189846
4088.50 0.244844
4089.11 0.327872
4089.73 0.461763
4090.34 0.697808
4090.65 0.890955
4090.96 1.17565
4091.26 1.62164
4091.57 2.37736
4091.88 3.81513
4092.03 5.07124
4092.19 7.03444
4092.34 10.3843
4092.49 16.6076
4092.57 21.9177
4092.65 29.9137
4092.72 42.3258
4092.80 61.3630
4092.90 98.3989
4093.00 122.770
4093.10 98.0016
4093.20 61.3592
4093.27 43.9641
4093.34 32.3373
4093.47 18.9705
4093.61 12.1967
4093.74 8.45191
4093.87 6.16390
4094.01 4.69281
4094.28 2.96717
4094.55 2.04049
4094.82 1.48758
4095.08 1.13192
4095.35 0.889920
4095.89 0.591342
4096.43 0.421241
4096.97 0.315278
4097.50 0.244961
4098.58 0.160075
4099.66 0.112857
4100.73 0.0839187
4101.81 0.0649276
4103.96 0.0423005
4106.11 0.0298672
4110.41 0.0173753
4114.72 0.0115448
4119.02 0.00837473
4127.62 0.00527676
4144.83 0.00389337
4153.44 0.00700761
4157.74 0.0209157
4158.82 0.0352395
4159.89 0.0753508
4160.43 0.130120
4160.97 0.280427
4161.24 0.480185
4161.51 1.00660
4161.64 1.67433
4161.71 2.28223
4161.78 3.28890
4161.84 5.12947
4161.88 6.70401
4161.91 9.01755
4161.94 12.8491
4161.98 19.2650
4162.01 31.6770
4162.04 56.0261
4162.07 89.9586
4162.10 112.052
4162.13 89.9589
4162.16 56.0266
4162.19 34.3382
4162.21 22.4118
4162.24 15.5044
4162.27 11.2667
4162.30 8.43887
4162.33 6.59320
4162.38 4.32636
4162.44 3.03043
4162.50 2.24861
4162.61 1.37117
4162.72 0.921953
4162.83 0.662049
4163.06 0.389613
4163.51 0.181388
4163.96 0.105077
4164.87 0.0487550
4165.77 0.0285581
4169.38 0.00872669
4176.60 0.00392469
4183.82 0.00481772
4187.43 0.0120422
4189.24 0.0406561
4189.69 0.0693763
4190.14 0.147494
4190.37 0.250636
4190.59 0.517177
4190.71 0.848602
4190.82 1.63613
4190.88 2.52007
4190.93 4.28810
4190.96 5.92069
4190.99 8.60031
4191.02 13.2736
4191.04 22.0523
4191.07 35.0333
4191.10 44.0634
4191.13 35.0334
4191.16 22.0126
4191.17 15.7358
4191.19 11.6497
4191.23 6.81069
4191.27 4.38183
4191.30 3.05845
4191.38 1.69368
4191.45 1.07542
4191.60 0.540036
4191.74 0.324711
4192.04 0.154697
4192.33 0.0906154
4193.50 0.0251294
4195.85 0.00780321
4200.54 0.00332402
4209.92 0.00226838
4228.68 0.00286315
4238.07 0.00420811
4247.45 0.00812744
4252.14 0.0135579
4256.83 0.0288424
4259.18 0.0499478
4261.52 0.109191
4262.69 0.190521
4263.28 0.270834
4263.87 0.415767
4264.45 0.719847
4264.75 1.01496
4265.04 1.53739
4265.19 1.96620
4265.33 2.59734
4265.48 3.59676
4265.62 5.28751
4265.77 8.53971
4265.84 11.3821
4265.92 15.8865
4265.99 23.7431
4266.06 38.5599
4266.10 51.5828
4266.14 70.9983
4266.17 102.724
4266.21 152.682
4266.26 243.897
4266.30 305.221
4266.35 243.894
4266.39 152.511
4266.44 89.7971
4266.49 56.6439
4266.54 38.2773
4266.59 27.3606
4266.64 20.4394
4266.68 15.8094
4266.78 10.2286
4266.88 7.11483
4266.98 5.24263
4267.18 3.17965
4267.37 2.12658
4267.57 1.52368
4267.77 1.14349
4267.96 0.890835
4268.35 0.584015
4268.75 0.412489
4269.53 0.237610
4270.32 0.154844
4271.11 0.109307
4272.68 0.0636792
4275.82 0.0314163
4278.96 0.0215970
4282.11 0.0203679
4285.25 0.0294637
4286.82 0.0452164
4288.39 0.0915159
4289.18 0.155816
4289.96 0.334453
4290.36 0.574835
4290.55 0.808736
4290.75 1.21973
4290.95 2.05501
4291.05 2.83232
4291.14 4.14842
4291.24 6.63794
4291.29 8.80537
4291.34 12.2090
4291.39 17.9619
4291.44 28.6775
4291.46 37.9502
4291.49 51.2771
4291.51 72.7011
4291.54 104.500
4291.57 168.228
4291.60 209.003
4291.63 166.170
4291.67 104.500
4291.69 72.7019
4291.71 52.6600
4291.74 38.8663
4291.76 29.9299
4291.81 18.9278
4291.85 13.0415
4291.90 9.43551
4291.95 7.12878
4292.04 4.48793
4292.13 3.06711
4292.23 2.23369
4292.41 1.33185
4292.60 0.883653
4292.79 0.629141
4293.16 0.365958
4293.91 0.169510
4294.66 0.0983544
4296.15 0.0461709
4297.65 0.0274432
4300.64 0.0136939
4303.63 0.00867545
4315.59 0.00342639
4339.51 0.00207158
4363.43 0.00286763
4375.39 0.00510776
4381.37 0.00978020
4384.36 0.0225397
4385.85 0.0664629
4386.23 0.109340
4386.60 0.224748
4386.79 0.374984
4386.97 0.759378
4387.07 1.23040
4387.16 2.30676
4387.21 3.47292
4387.25 5.68864
4387.28 7.73703
4387.30 10.8247
4387.32 15.8480
4387.35 24.5103
4387.37 38.9529
4387.40 48.9651
4387.43 38.9532
4387.45 24.4647
4387.48 15.5732
4387.50 10.4952
4387.53 7.33006
4387.55 5.42512
4387.60 3.25111
4387.65 2.15152
4387.75 1.13697
4387.84 0.704922
4388.04 0.348609
4388.23 0.210003
4388.62 0.104257
4389.01 0.0655936
4390.58 0.0291129
4393.70 0.0310446
4395.26 0.0448191
4396.82 0.0831303
4397.60 0.134233
4398.38 0.272965
4398.77 0.457912
4398.96 0.636823
4399.16 0.952592
4399.35 1.59111
4399.45 2.19271
4399.55 3.20398
4399.65 5.14809
4399.70 6.85598
4399.74 9.49303
4399.79 14.0746
4399.84 22.7573
4399.87 30.4057
4399.89 41.5850
4399.91 59.0253
4399.94 86.8148
4399.97 138.552
4400.00 173.466
4400.03 138.553
4400.06 86.6756
4400.08 64.7806
4400.10 48.6047
4400.14 29.3143
4400.18 19.2327
4400.21 13.5935
4400.25 10.0029
4400.29 7.70399
4400.36 4.93484
4400.44 3.42665
4400.51 2.51852
4400.66 1.52896
4400.81 1.03121
4400.96 0.746736
4401.26 0.451662
4401.86 0.233499
4402.46 0.158983
4403.66 0.119924
4404.86 0.136240
4406.06 0.205875
4406.66 0.280830
4407.26 0.418082
4407.56 0.532428
4407.86 0.704213
4408.16 0.978697
4408.46 1.45636
4408.76 2.39815
4408.91 3.25484
4409.06 4.66410
4409.21 7.21460
4409.29 9.33478
4409.36 12.5103
4409.44 17.5321
4409.51 26.0113
4409.59 41.3943
4409.66 70.5169
4409.73 112.836
4409.80 141.051
4409.87 112.832
4409.94 70.5146
4409.99 49.1309
4410.04 35.1593
4410.09 26.0110
4410.14 19.9578
4410.23 12.6150
4410.33 8.62616
4410.43 6.22873
4410.53 4.71198
4410.73 2.95926
4410.93 2.02366
4411.13 1.47233
4411.33 1.11764
4411.52 0.878395
4411.92 0.583385
4412.32 0.415871
4412.72 0.311718
4413.11 0.242712
4413.91 0.159385
4414.70 0.113009
4416.29 0.0658370
4417.87 0.0434621
4419.46 0.0311104
4422.64 0.0186374
4428.98 0.00971068
4435.33 0.00700605
4448.03 0.00998042
4451.21 0.0152849
4454.38 0.0309007
4455.97 0.0527604
4457.56 0.114307
4458.35 0.198735
4458.75 0.282030
4459.14 0.431511
4459.54 0.743594
4459.74 1.04626
4459.94 1.57625
4460.14 2.64746
4460.23 3.63854
4460.33 5.30589
4460.43 8.42901
4460.48 11.1535
4460.53 15.3015
4460.58 22.3544
4460.63 34.9339
4460.66 45.5166
4460.68 61.0840
4460.71 84.5442
4460.73 119.031
4460.77 190.994
4460.80 238.071
4460.84 190.994
4460.87 119.031
4460.89 88.0754
4460.91 66.7012
4460.96 40.8082
4461.00 26.7865
4461.04 18.9117
4461.08 13.9122
4461.13 10.7004
4461.21 6.87098
4461.29 4.75365
4461.38 3.49168
4461.55 2.10364
4461.72 1.40380
4461.89 1.00279
4462.22 0.584798
4462.56 0.382819
4462.90 0.270123
4463.58 0.155388
4464.93 0.0712329
4466.28 0.0411489
4468.98 0.0193361
4471.69 0.0116003
4482.51 0.00405212
4504.14 0.00266114
4525.77 0.00619614
4531.18 0.0102718
4536.59 0.0219641
4539.29 0.0382429
4542.00 0.0841793
4543.35 0.147411
4544.03 0.210031
4544.70 0.323298
4545.38 0.561163
4545.72 0.793052
4546.05 1.20510
4546.22 1.54320
4546.39 2.04609
4546.56 2.84079
4546.73 4.20427
4546.90 6.83717
4546.98 9.19762
4547.07 12.9465
4547.15 19.5840
4547.24 32.4641
4547.28 44.2639
4547.32 62.5675
4547.36 92.8631
4547.41 144.672
4547.45 230.993
4547.50 289.370
4547.55 230.991
4547.59 144.671
4547.63 98.6435
4547.67 69.6842
4547.70 50.6375
4547.74 38.4039
4547.81 23.8432
4547.89 16.1147
4547.96 11.5765
4548.03 8.70166
4548.18 5.41621
4548.32 3.68757
4548.47 2.66977
4548.62 2.02113
4548.76 1.58279
4549.05 1.04575
4549.35 0.741923
4549.93 0.428819
4550.51 0.279085
4551.10 0.196080
4552.26 0.112103
4554.60 0.0508539
4556.93 0.0290721
4561.61 0.0133440
4566.28 0.00778959
4575.62 0.00379325
4584.96 0.00238818
4622.32 0.00111806
4659.69 0.00132166
4678.37 0.00207321
4687.71 0.00320080
4692.38 0.00518275
4694.71 0.0107238
4695.88 0.0303027
4696.47 0.100153
4696.76 0.327686
4696.90 0.942205
4696.98 2.15992
4697.01 3.73954
4697.05 7.28446
4697.07 11.6288
4697.10 14.5716
4697.13 11.6289
4697.15 7.28456
4697.18 4.60994
4697.20 3.07461
4697.25 1.56856
4697.35 0.620201
4697.54 0.202824
4697.93 0.0611310
4698.71 0.0200640
4700.26 0.00946532
4703.37 0.00811616
4709.59 0.0139935
4712.70 0.0222341
4715.81 0.0438226
4717.36 0.0720839
4718.92 0.148440
4719.69 0.250974
4720.08 0.351232
4720.47 0.530131
4720.86 0.901604
4721.05 1.25802
4721.25 1.88182
4721.44 3.13496
4721.54 4.28678
4721.64 6.21118
4721.73 9.77792
4721.78 12.8559
4721.83 17.4869
4721.88 25.2381
4721.93 38.7278
4721.98 65.7349
4722.00 88.4872
4722.03 121.925
4722.06 195.722
4722.10 243.675
4722.14 195.722
4722.17 121.762
4722.21 75.1055
4722.25 49.0137
4722.29 33.9030
4722.32 24.6354
4722.36 18.6265
4722.40 14.5398
4722.47 9.53132
4722.55 6.68396
4722.62 4.96025
4722.77 3.04164
4722.92 2.05209
4723.07 1.48368
4723.36 0.885781
4723.66 0.594575
4723.96 0.432664
4724.55 0.270949
4725.74 0.165635
4726.92 0.155072
4728.11 0.205843
4728.70 0.269722
4729.30 0.390533
4729.59 0.492621
4729.89 0.646908
4730.19 0.894607
4730.48 1.32559
4730.78 2.18130
4730.93 2.95961
4731.08 4.24268
4731.23 6.59375
4731.30 8.54645
4731.37 11.4827
4731.45 16.1512
4731.52 24.0947
4731.60 38.6675
4731.67 66.6734
4731.74 107.005
4731.80 133.352
4731.87 106.350
4731.93 66.6711
4732.01 38.3996
4732.08 23.9527
4732.15 16.0697
4732.23 11.4319
4732.30 8.51233
4732.38 6.56924
4732.52 4.23887
4732.67 2.94822
4732.82 2.17134
4733.12 1.31777
4733.41 0.883636
4733.71 0.634817
4734.01 0.478188
4734.30 0.373863
4734.90 0.247119
4735.49 0.176047
4736.68 0.103154
4737.86 0.0682771
4739.05 0.0488356
4741.42 0.0289258
4746.16 0.0140081
4750.91 0.00850112
4760.39 0.00441104
4769.88 0.00303358
4788.85 0.00326024
4798.34 0.00827258
4803.08 0.0285986
4804.27 0.0493225
4805.46 0.107144
4806.05 0.185648
4806.64 0.399468
4806.94 0.681628
4807.09 0.949329
4807.23 1.41187
4807.38 2.31489
4807.46 3.12808
4807.53 4.45166
4807.60 6.80964
4807.64 8.73853
4807.68 11.5820
4807.72 15.9830
4807.75 23.1944
4807.79 35.7355
4807.83 58.6195
4807.86 93.5377
4807.90 117.243
4807.94 93.5374
4807.97 58.6195
4808.00 40.5912
4808.03 29.0715
4808.06 21.5232
4808.08 16.4402
4808.14 10.3671
4808.19 7.07748
4808.24 5.11967
4808.30 3.86772
4808.41 2.42388
4808.51 1.65760
4808.62 1.20388
4808.84 0.716823
4809.27 0.337366
4809.70 0.195887
4810.57 0.0902974
4811.43 0.0521180
4813.16 0.0242898
4814.89 0.0144244
4821.81 0.00507141
4828.73 0.00429635
4832.19 0.00631899
4833.92 0.0137797
4834.78 0.0408426
4835.22 0.134322
4835.43 0.417774
4835.54 1.09396
4835.59 2.22038
4835.62 3.46426
4835.65 5.80272
4835.67 9.24030
4835.70 11.5898
4835.73 9.24036
4835.75 5.79157
4835.78 3.17407
4835.82 1.88796
4835.88 0.856308
4836.02 0.306801
4836.28 0.0958187
4836.81 0.0299648
4837.86 0.0119403
4839.97 0.00839891
4844.19 0.0138040
4846.30 0.0230671
4848.41 0.0496679
4849.47 0.0864611
4850.52 0.189131
4851.05 0.328627
4851.32 0.465102
4851.58 0.707311
4851.84 1.20581
4851.97 1.67973
4852.11 2.49835
4852.24 4.09573
4852.30 5.53327
4852.37 7.87117
4852.44 12.0304
4852.47 15.4272
4852.50 20.4255
4852.54 28.1404
4852.57 40.7266
4852.60 62.4524
4852.63 99.4045
4852.67 159.998
4852.70 198.815
4852.73 158.099
4852.77 99.4049
4852.80 60.7525
4852.84 39.2912
4852.87 27.0036
4852.90 19.7047
4852.94 14.8293
4852.97 11.5329
4853.04 7.56038
4853.11 5.29699
4853.17 3.92779
4853.31 2.40186
4853.44 1.61319
4853.58 1.15987
4853.84 0.680588
4854.11 0.446978
4854.38 0.315929
4854.92 0.181875
4856.00 0.0830410
4857.07 0.0475777
4859.23 0.0218169
4861.38 0.0126783
4869.99 0.00373486
4887.21 0.00150555
4904.43 0.00161163
4913.04 0.00371723
4917.34 0.0123336
4919.49 0.0458788
4920.03 0.0796259
4920.57 0.172301
4920.84 0.295584
4921.11 0.620962
4921.24 1.03453
4921.38 2.03758
4921.44 3.20930
4921.51 5.67833
4921.55 8.13326
4921.58 12.2843
4921.61 20.4285
4921.65 36.3624
4921.67 58.6022
4921.70 72.7250
4921.73 57.7562
4921.76 36.3627
4921.78 25.4331
4921.79 18.5481
4921.81 13.9295
4921.83 10.7588
4921.87 6.89162
4921.91 4.75332
4921.99 2.61194
4922.06 1.65055
4922.21 0.824026
4922.37 0.491913
4922.67 0.232390
4922.98 0.135199
4923.59 0.0622834
4924.20 0.0358992
4926.65 0.00972912
4931.54 0.00300661
4941.32 0.00132382
4960.88 0.00106555
4980.44 0.00157246
5000.00 0.00508610
5008.02 0.0173961
5010.02 0.0298470
5012.02 0.0647576
5013.02 0.112711
5014.03 0.245951
5014.53 0.426036
5014.78 0.601996
5015.03 0.913313
5015.28 1.55125
5015.40 2.15167
5015.53 3.18035
5015.65 5.16229
5015.72 6.93946
5015.78 9.74308
5015.84 14.7105
5015.90 24.2534
5015.94 33.0209
5015.97 46.4377
5016.00 68.4419
5016.03 105.855
5016.07 169.851
5016.10 211.716
5016.14 169.851
5016.17 105.855
5016.20 70.2895
5016.23 48.1138
5016.26 34.4215
5016.29 25.6218
5016.35 15.5972
5016.41 10.4127
5016.47 7.41874
5016.53 5.54376
5016.65 3.43645
5016.77 2.32719
5016.89 1.67887
5017.13 0.993037
5017.37 0.654452
5017.61 0.464356
5018.09 0.268531
5019.04 0.123523
5020.00 0.0713927
5021.92 0.0336716
5023.83 0.0205414
5027.67 0.0118855
5031.50 0.0103976
5035.33 0.0129236
5039.16 0.0235894
5041.08 0.0391812
5042.99 0.0835005
5043.95 0.144490
5044.91 0.313670
5045.39 0.541574
5045.63 0.763569
5045.87 1.15482
5046.11 1.95196
5046.23 2.70123
5046.35 3.96500
5046.47 6.39462
5046.53 8.53232
5046.59 11.9263
5046.65 17.7539
5046.71 28.8724
5046.74 38.4944
5046.77 53.2501
5046.80 76.6886
5046.83 112.632
5046.86 180.214
5046.90 225.271
5046.94 180.214
5046.97 112.632
5047.02 65.9616
5047.06 41.3784
5047.10 27.8562
5047.14 20.0124
5047.18 14.9072
5047.22 11.5053
5047.30 7.45707
5047.38 5.18998
5047.46 3.82832
5047.63 2.31908
5047.79 1.55290
5047.95 1.11197
5048.28 0.650631
5048.60 0.426944
5048.93 0.301886
5049.58 0.174377
5050.89 0.0808259
5052.19 0.0475619
5054.80 0.0241724
5057.41 0.0173554
5062.62 0.0264312
5063.93 0.0414066
5065.23 0.0849415
5065.88 0.145037
5066.53 0.311003
5066.86 0.532779
5067.02 0.746558
5067.19 1.12155
5067.35 1.87128
5067.43 2.56932
5067.51 3.72313
5067.59 5.89524
5067.64 7.75820
5067.68 10.5502
5067.72 15.2453
5067.76 23.6678
5067.80 40.3880
5067.82 54.4924
5067.84 75.3526
5067.87 120.271
5067.90 150.583
5067.93 120.271
5067.96 75.2311
5067.98 55.3490
5068.00 40.9736
5068.04 24.2356
5068.08 15.7020
5068.12 10.9079
5068.16 7.98525
5068.20 6.08480
5068.28 3.87738
5068.36 2.66887
5068.44 1.95417
5068.60 1.17275
5068.76 0.779287
5068.92 0.556414
5069.24 0.324716
5069.87 0.150593
5070.51 0.0873226
5071.78 0.0408245
5073.05 0.0241210
5078.15 0.00739215
5088.33 0.00271073
5108.70 0.00133696
5129.07 0.00158175
5139.26 0.00378380
5144.35 0.0126674
5146.90 0.0472983
5147.53 0.0823004
5148.17 0.178734
5148.49 0.308342
5148.81 0.653043
5148.97 1.09428
5149.13 2.19279
5149.21 3.49431
5149.28 6.32032
5149.32 9.21562
5149.36 14.5043
5149.38 18.8802
5149.40 25.3021
5149.42 34.9462
5149.44 48.5363
5149.47 78.2023
5149.50 97.0733
5149.53 77.1127
5149.56 48.5367
5149.58 34.3640
5149.60 24.9167
5149.62 18.6208
5149.64 14.5047
5149.68 9.31140
5149.71 6.43139
5149.79 3.54062
5149.87 2.23938
5150.03 1.11910
5150.19 0.668358
5150.50 0.315824
5150.81 0.183427
5151.44 0.0844701
5152.07 0.0485971
5154.58 0.0130849
5159.60 0.00413101
5164.63 0.00334772
5167.14 0.00655544
5168.39 0.0200129
5169.02 0.0693463
5169.34 0.232757
5169.49 0.685592
5169.57 1.60744
5169.61 2.87222
5169.65 5.90104
5169.67 9.41146
5169.70 11.8006
5169.73 9.41150
5169.75 5.90108
5169.78 3.40759
5169.81 2.09824
5169.87 0.996898
5169.99 0.368518
5170.23 0.114411
5170.70 0.0329482
5171.65 0.00973671
5173.54 0.00348881
5177.33 0.00180465
5184.90 0.00142112
5192.47 0.00198936
5196.26 0.00451166
5198.16 0.0142376
5199.10 0.0507000
5199.58 0.178860
5199.81 0.578588
5199.93 1.56612
5199.99 3.29352
5200.02 5.34150
5200.05 9.17155
5200.07 14.6541
5200.10 18.3244
5200.13 14.6541
5200.15 9.15400
5200.19 4.73661
5200.22 2.73712
5200.30 1.20397
5200.44 0.421650
5200.73 0.126548
5201.30 0.0355626
5202.45 0.0102304
5204.74 0.00360081
5209.33 0.00203900
5218.50 0.00227459
5227.67 0.00506889
5232.26 0.0147087
5234.55 0.0501310
5235.13 0.0854640
5235.70 0.182224
5235.99 0.311387
5236.27 0.652046
5236.42 1.08825
5236.56 2.15591
5236.63 3.40294
5236.70 6.05119
5236.74 8.70413
5236.77 13.4188
5236.81 22.6400
5236.83 30.5339
5236.84 41.2087
5236.87 65.9319
5236.90 82.4143
5236.93 65.9322
5236.96 41.2091
5236.98 27.5650
5237.00 19.3818
5237.02 13.9649
5237.05 10.5736
5237.09 6.52786
5237.14 4.39731
5237.23 2.36663
5237.32 1.47837
5237.50 0.728328
5237.67 0.434004
5238.03 0.205945
5238.39 0.121330
5239.11 0.0589497
5239.83 0.0370690
5242.70 0.0216528
5244.13 0.0286224
5245.57 0.0543547
5246.29 0.0911778
5247.01 0.194044
5247.36 0.332612
5247.72 0.704315
5247.90 1.18570
5247.99 1.63643
5248.08 2.39061
5248.17 3.83321
5248.22 5.09276
5248.26 7.02064
5248.31 10.3436
5248.35 16.5510
5248.37 21.9499
5248.40 29.7012
5248.42 41.5752
5248.44 60.6534
5248.47 96.4711
5248.50 121.203
5248.53 96.4712
5248.56 60.5515
5248.58 40.9161
5248.61 28.8558
5248.63 21.1171
5248.65 15.9899
5248.70 9.96429
5248.74 6.75200
5248.79 4.85985
5248.84 3.65848
5248.93 2.28237
5249.02 1.55081
5249.11 1.12513
5249.30 0.669422
5249.67 0.315341
5250.04 0.183425
5250.77 0.0852880
5251.51 0.0498352
5254.46 0.0146493
5260.36 0.00578192
5272.16 0.00533448
5278.07 0.00784997
5283.97 0.0156443
5286.92 0.0265862
5289.87 0.0573799
5291.34 0.0996055
5292.08 0.141259
5292.82 0.216127
5293.56 0.372340
5293.93 0.523392
5294.29 0.788353
5294.48 1.00482
5294.66 1.32204
5294.85 1.81973
5295.03 2.65347
5295.22 4.22704
5295.31 5.57874
5295.40 7.68024
5295.49 11.1817
5295.59 17.5630
5295.63 22.8334
5295.68 30.5594
5295.72 42.1564
5295.77 59.5606
5295.84 95.5954
5295.90 119.136
5295.97 95.0110
5296.03 59.5594
5296.08 42.4651
5296.12 30.9706
5296.17 23.2506
5296.21 17.9497
5296.30 11.4868
5296.39 7.91630
5296.48 5.76354
5296.57 4.37442
5296.75 2.75842
5296.93 1.89373
5297.11 1.37901
5297.29 1.04846
5297.47 0.823821
5297.83 0.547010
5298.19 0.389508
5298.91 0.226520
5299.63 0.148074
5300.35 0.104519
5301.79 0.0602790
5304.67 0.0279660
5307.55 0.0164904
5313.30 0.00828211
5319.06 0.00550101
5324.82 0.00434305
5330.57 0.00387364
5342.08 0.00398974
5353.60 0.00531039
5359.35 0.00668333
5365.11 0.00898568
5370.87 0.0131645
5373.75 0.0166659
5376.62 0.0220487
5379.50 0.0312203
5380.94 0.0387165
5382.38 0.0503246
5383.82 0.0710582
5385.26 0.119729
5385.98 0.179945
5386.70 0.337071
5387.06 0.542622
5387.42 1.08522
5387.60 1.77798
5387.69 2.42118
5387.78 3.50439
5387.87 5.53757
5387.91 7.29373
5387.96 10.0291
5388.00 14.5986
5388.05 22.9588
5388.07 30.0746
5388.09 40.0820
5388.11 55.0229
5388.14 77.9420
5388.17 124.270
5388.20 155.811
5388.23 124.271
5388.26 77.9444
5388.30 44.1978
5388.34 27.2922
5388.38 18.2000
5388.41 12.9034
5388.45 9.52089
5388.49 7.35113
5388.56 4.75851
5388.64 3.32071
5388.71 2.46475
5388.86 1.52710
5389.01 1.05135
5389.16 0.780189
5389.45 0.501650
5390.05 0.301782
5390.64 0.242455
5391.83 0.240546
5393.02 0.317993
5393.62 0.392073
5394.21 0.505492
5394.81 0.685798
5395.11 0.817620
5395.40 0.992432
5395.70 1.23237
5396.00 1.57083
5396.15 1.79577
5396.30 2.07244
5396.45 2.41758
5396.59 2.85184
5396.74 3.41588
5396.89 4.15958
5397.04 5.16393
5397.19 6.54643
5397.34 8.53354
5397.49 11.4615
5397.64 15.8839
5397.78 22.5102
5397.99 36.0193
5398.20 44.9555
5398.41 35.9465
5398.62 22.4520
5398.75 16.5126
5398.88 12.3627
5399.14 7.45043
5399.40 4.87985
5399.66 3.41965
5399.92 2.51653
5400.18 1.92708
5400.69 1.22939
5401.21 0.850627
5401.73 0.622987
5402.77 0.375210
5403.81 0.250567
5404.85 0.179206
5405.88 0.134579
5406.92 0.104821
5409.00 0.0688315
5411.07 0.0487113
5413.15 0.0363273
5415.23 0.0281625
5419.38 0.0183982
5423.53 0.0129985
5427.68 0.00969913
5431.83 0.00753575
5440.14 0.00496184
5448.44 0.00354689
5456.74 0.00268659
5465.05 0.00212561
5481.65 0.00146608
5498.26 0.00111456
5531.48 0.000803244
5564.69 0.000753804
5581.30 0.000813985
5597.90 0.000961345
5614.51 0.00127764
5631.12 0.00204331
5647.73 0.00503757
5656.03 0.0143246
5658.11 0.0232106
5660.18 0.0476800
5661.22 0.0810307
5662.26 0.173525
5662.78 0.298675
5663.30 0.638498
5663.56 1.08562
5663.69 1.51058
5663.81 2.23686
5663.94 3.65985
5664.01 4.93819
5664.07 6.97215
5664.14 10.6177
5664.17 13.6365
5664.20 17.9249
5664.24 24.7196
5664.27 35.3864
5664.30 53.4739
5664.33 85.9177
5664.37 136.752
5664.40 171.707
5664.43 136.752
5664.47 85.7903
5664.49 60.6532
5664.51 44.3302
5664.54 32.9549
5664.56 25.5118
5664.61 16.2549
5664.65 11.2529
5664.70 8.16867
5664.75 6.22102
5664.84 3.92493
5664.93 2.68622
5665.03 1.95841
5665.21 1.17256
5665.40 0.778827
5665.59 0.556168
5665.96 0.325350
5666.70 0.152675
5667.45 0.0903218
5668.94 0.0453831
5670.43 0.0301757
5673.41 0.0216204
5676.39 0.0231528
5679.37 0.0328673
5682.35 0.0629640
5683.84 0.104040
5685.33 0.216671
5686.07 0.367972
5686.45 0.515624
5686.82 0.777734
5687.19 1.31693
5687.38 1.82854
5687.56 2.71269
5687.75 4.45352
5687.84 6.01839
5687.94 8.57078
5688.03 13.1323
5688.08 16.9242
5688.12 22.4115
5688.17 31.1315
5688.22 45.1914
5688.26 70.3845
5688.31 114.944
5688.36 184.710
5688.40 229.877
5688.45 183.092
5688.49 114.944
5688.52 80.4779
5688.56 58.3772
5688.59 43.6535
5688.62 33.6045
5688.68 21.4269
5688.75 14.7374
5688.81 10.6696
5688.88 8.09958
5689.01 5.11415
5689.13 3.50956
5689.26 2.56453
5689.52 1.54341
5689.78 1.03658
5690.03 0.749831
5690.55 0.456642
5691.06 0.320881
5691.58 0.251437
5692.60 0.203881
5693.63 0.236764
5694.15 0.295045
5694.66 0.412461
5695.17 0.669576
5695.43 0.922632
5695.69 1.37183
5695.94 2.28170
5696.07 3.13662
5696.20 4.57362
5696.33 7.31543
5696.39 9.68587
5696.46 13.4019
5696.52 19.6671
5696.59 31.2912
5696.62 41.0677
5696.65 55.6515
5696.68 78.0264
5696.71 112.450
5696.76 179.909
5696.80 224.882
5696.84 179.907
5696.89 112.449
5696.93 66.3182
5696.98 42.1931
5697.03 28.4662
5697.07 20.4605
5697.12 15.2606
5697.17 11.8518
5697.26 7.68346
5697.35 5.37251
5697.44 3.96433
5697.63 2.41234
5697.82 1.62274
5698.00 1.16752
5698.37 0.690119
5698.75 0.457811
5699.12 0.327390
5699.86 0.193580
5701.35 0.0934731
5702.84 0.0565556
5705.81 0.0286211
5708.78 0.0181566
5714.73 0.0104265
5720.68 0.00830344
5726.63 0.00908016
5732.58 0.0149177
5735.55 0.0239604
5738.53 0.0499995
5740.01 0.0859268
5740.76 0.121466
5741.50 0.185451
5742.24 0.319225
5742.62 0.448835
5742.99 0.676679
5743.36 1.13713
5743.55 1.56660
5743.73 2.29287
5743.92 3.66399
5744.01 4.85521
5744.10 6.72163
5744.20 9.86581
5744.29 15.6914
5744.34 20.6467
5744.38 27.8672
5744.43 38.8649
5744.47 55.6451
5744.54 89.0375
5744.60 111.301
5744.66 89.0357
5744.73 55.6441
5744.77 38.5718
5744.82 27.6765
5744.87 20.5202
5744.91 15.6918
5745.00 9.86624
5745.10 6.74752
5745.19 4.87135
5745.28 3.68515
5745.47 2.31392
5745.65 1.58151
5745.83 1.15005
5746.20 0.685135
5746.57 0.454271
5746.94 0.323243
5747.68 0.187824
5748.42 0.122891
5749.16 0.0868356
5750.63 0.0502904
5753.58 0.0236785
5756.54 0.0143934
5762.44 0.00985794
5765.39 0.0179893
5766.87 0.0543902
5767.61 0.189388
5767.79 0.317821
5767.98 0.642497
5768.07 1.03893
5768.16 1.93553
5768.21 2.88126
5768.25 4.68894
5768.30 8.66802
5768.32 12.5145
5768.34 18.7080
5768.37 29.9306
5768.40 37.4123
5768.43 29.9306
5768.46 18.7081
5768.48 13.1674
5768.50 9.50139
5768.54 5.49586
5768.57 3.51505
5768.61 2.42252
5768.69 1.33101
5768.77 0.841654
5768.93 0.421563
5769.08 0.252913
5769.71 0.0717059
5770.97 0.0211765
5773.48 0.00748240
5778.50 0.00344970
5788.55 0.00192582
5798.60 0.00171805
5803.62 0.00287532
5806.14 0.00795503
5807.39 0.0275291
5808.02 0.0986649
5808.33 0.333208
5808.49 0.978380
5808.57 2.27670
5808.61 4.03322
5808.65 8.11117
5808.67 13.0580
5808.70 16.2062
5808.73 12.8621
5808.75 8.09593
5808.79 4.16788
5808.83 2.40079
5808.90 1.06246
5809.05 0.369740
5809.34 0.110812
5809.93 0.0310420
5811.10 0.00880917
5813.45 0.00291356
5818.15 0.00134079
5827.55 0.000859992
5846.35 0.000680145
5865.15 0.000788215
5874.55 0.00133043
5879.25 0.00331829
5881.60 0.0109129
5882.77 0.0396562
5883.36 0.143023
5883.65 0.479780
5883.80 1.38628
5883.87 3.15272
5883.91 5.50625
5883.95 10.7276
5883.97 17.2080
5884.00 21.4647
5884.03 17.2081
5884.05 10.7277
5884.08 7.01879
5884.10 4.75526
5884.14 2.50006
5884.24 1.00467
5884.42 0.328243
5884.79 0.0948582
5885.52 0.0260485
5887.00 0.00739090
5889.94 0.00259148
5895.82 0.00156301
5907.59 0.00231049
5919.36 0.00807009
5922.30 0.0140700
5925.24 0.0310700
5926.71 0.0545816
5928.18 0.120457
5928.92 0.210467
5929.65 0.457325
5930.02 0.786207
5930.21 1.10234
5930.39 1.65521
5930.57 2.75533
5930.67 3.76652
5930.76 5.44916
5930.85 8.54801
5930.90 11.1710
5930.94 15.1715
5930.99 21.6578
5931.03 33.0075
5931.08 54.6932
5931.10 72.8509
5931.13 97.3557
5931.16 156.602
5931.20 194.718
5931.24 154.940
5931.28 97.3557
5931.31 62.5638
5931.34 42.0051
5931.38 29.6380
5931.41 22.0260
5931.48 13.2994
5931.54 8.83560
5931.61 6.27506
5931.68 4.67862
5931.81 2.88122
5931.95 1.94347
5932.08 1.40124
5932.35 0.826363
5932.62 0.543455
5932.89 0.384803
5933.42 0.221638
5934.50 0.100951
5935.57 0.0575476
5937.72 0.0259970
5939.87 0.0148038
5948.46 0.00387913
5965.64 0.00109888
6000.00 0.000373873
6000.00 0.512677
7000.00 0.482666
8000.00 0.452655
9000.00 0.430877
10000.0 0.409100
15000.0 0.336173
20000.0 0.291130
30000.0 0.234627
40000.0 0.200385
50000.0 0.181382
60000.0 0.162379
70000.0 0.152523
80000.0 0.142667
90000.0 0.136554
100000 0.130440
150000 0.116782
200000 0.110490
250000 0.109924
300000 0.109358
350000 0.108359
400000 0.107360
450000 0.0975319
500000 0.0877038
516726 0.0845716
516726 0.0845716
550000 0.0783407
600000 0.0689777
650000 0.0654169
700000 0.0618560
750000 0.0612013
800000 0.0605466
850000 0.0600117
900000 0.0594767
950000 0.0590289
1.00000E+06 0.0585810
1.10000E+06 0.0578188
1.13875E+06 0.0575589
1.13876E+06 0.0575589
1.14457E+06 0.0575199
1.14457E+06 0.0575199
1.20000E+06 0.0571482
1.24096E+06 0.0569037
1.24096E+06 0.0569037
1.30000E+06 0.0565513
1.40000E+06 0.0559543
1.50000E+06 0.0552996
1.57249E+06 0.0548251
1.57249E+06 0.0548250
1.57713E+06 0.0547947
1.57713E+06 0.0547947
1.60000E+06 0.0546449
1.70000E+06 0.0535815
1.72264E+06 0.0533407
1.72264E+06 0.0533407
1.80000E+06 0.0525181
1.90000E+06 0.0514280
1.92766E+06 0.0511266
1.92766E+06 0.0511266
1.95068E+06 0.0508756
1.95069E+06 0.0508756
2.00000E+06 0.0503380
2.02055E+06 0.0500977
2.02055E+06 0.0500976
2.09607E+06 0.0492146
2.09607E+06 0.0492146
2.09641E+06 0.0492106
2.09641E+06 0.0492106
2.10000E+06 0.0491686
2.10371E+06 0.0491253
2.10371E+06 0.0491252
2.20000E+06 0.0479992
2.26385E+06 0.0472526
2.26385E+06 0.0472526
2.29981E+06 0.0468321
2.29981E+06 0.0468320
2.30000E+06 0.0468298
2.30468E+06 0.0467750
2.30469E+06 0.0467750
2.32752E+06 0.0465080
2.32752E+06 0.0465080
2.33080E+06 0.0464696
2.33080E+06 0.0464696
2.37320E+06 0.0459738
2.37320E+06 0.0459738
2.38849E+06 0.0457950
2.38850E+06 0.0457949
2.40000E+06 0.0456604
2.42034E+06 0.0454226
2.42034E+06 0.0454226
2.42427E+06 0.0453766
2.42427E+06 0.0453766
2.46233E+06 0.0449315
2.46233E+06 0.0449315
2.49625E+06 0.0445348
2.49625E+06 0.0445348
2.50000E+06 0.0444910
2.60000E+06 0.0430204
2.70000E+06 0.0415498
2.78593E+06 0.0402861
2.78593E+06 0.0402861
2.80000E+06 0.0400792
2.82827E+06 0.0396634
2.82827E+06 0.0396634
2.90000E+06 0.0386086
3.00000E+06 0.0371380
3.10000E+06 0.0359046
3.20000E+06 0.0346712
3.26330E+06 0.0338904
3.26330E+06 0.0338904
3.50000E+06 0.0309709
4.00000E+06 0.0260320
4.50000E+06 0.0218176
5.00000E+06 0.0182750
5.50000E+06 0.0153100
6.00000E+06 0.0127520
6.50000E+06 0.0105361
7.00000E+06 0.00865660
7.19028E+06 0.00807606
7.19028E+06 0.00807606
7.32130E+06 0.00767634
7.32130E+06 0.00767633
7.34089E+06 0.00761656
7.34089E+06 0.00761655
7.50000E+06 0.00713113
7.58667E+06 0.00690598
7.58667E+06 0.00690598
7.65023E+06 0.00674088
7.65023E+06 0.00674088
7.66413E+06 0.00670477
7.66413E+06 0.00670477
7.66880E+06 0.00669266
7.66880E+06 0.00669265
7.69435E+06 0.00662628
7.69435E+06 0.00662628
7.71927E+06 0.00656153
7.71927E+06 0.00656153
7.83504E+06 0.00626080
7.83505E+06 0.00626080
7.92151E+06 0.00603619
7.92151E+06 0.00603619
7.95965E+06 0.00593712
7.95965E+06 0.00593712
7.98074E+06 0.00588234
7.98074E+06 0.00588233
7.98370E+06 0.00587465
7.98370E+06 0.00587465
8.00000E+06 0.00583230
8.00390E+06 0.00582386
8.00390E+06 0.00582386
8.01506E+06 0.00579969
8.01506E+06 0.00579969
8.02819E+06 0.00577127
8.02819E+06 0.00577127
8.04092E+06 0.00574371
8.04092E+06 0.00574371
8.06453E+06 0.00569258
8.06453E+06 0.00569258
8.09683E+06 0.00562263
8.09684E+06 0.00562263
8.50000E+06 0.00474969
9.00000E+06 0.00391240
9.43605E+06 0.00334393
9.43606E+06 0.00334393
9.50000E+06 0.00326057
9.65346E+06 0.00310252
9.65346E+06 0.00310252
1.00000E+07 0.00274560
1.05000E+07 0.00241825
1.10000E+07 0.00209090
1.15000E+07 0.00190315
1.20000E+07 0.00171540
1.25000E+07 0.00159375
1.25715E+07 0.00157635
1.25715E+07 0.00157635
1.30000E+07 0.00147210
1.35000E+07 0.00137930
1.40000E+07 0.00128650
1.45000E+07 0.00120445
1.50000E+07 0.00112240
1.55000E+07 0.00104813
1.60000E+07 0.000973850
1.62441E+07 0.000937813
1.65000E+07 0.000900029
1.68154E+07 0.000853460
1.68155E+07 0.000853453
1.70000E+07 0.000826207
1.75000E+07 0.000761564
1.80000E+07 0.000696920
1.84899E+07 0.000642697
1.85000E+07 0.000641573
1.90000E+07 0.000586226
1.95000E+07 0.000542018
2.00000E+07 0.000497810
2.10000E+07 0.000446710
2.20000E+07 0.000395610
2.30000E+07 0.000366706
2.40000E+07 0.000337802
2.50000E+07 0.000326416
2.60000E+07 0.000315030
2.69040E+07 0.000320443
2.70000E+07 0.000321018
2.80000E+07 0.000327007
2.90000E+07 0.000349108
3.00000E+07 0.000371210