Sb-121(n,g) ENDF/B-VII.1
Energy(eV) XS(b)
1.00000E-05 288.386
1.25000E-05 257.941
1.50000E-05 235.467
2.00000E-05 203.920
2.75000E-05 173.904
3.50000E-05 154.150
4.25000E-05 139.889
5.00000E-05 128.972
6.25000E-05 115.356
7.50000E-05 105.306
0.000100000 91.1978
0.000125000 81.5703
0.000150000 74.4636
0.000200000 64.4882
0.000275000 54.9968
0.000350000 48.7504
0.000425000 44.2411
0.000500000 40.7891
0.000625000 36.4840
0.000750000 33.3063
0.00100000 28.8459
0.00125000 25.8022
0.00150000 23.5556
0.00200000 20.4023
0.00275000 17.4025
0.00350000 15.4286
0.00425000 14.0039
0.00500000 12.9135
0.00625000 11.5538
0.00750000 10.5505
0.0100000 9.14285
0.0125000 8.18284
0.0150000 7.47465
0.0200000 6.48152
0.0253000 5.77060
0.0314750 5.18186
0.0376500 4.74542
0.0500000 4.13096
0.0625000 3.70676
0.0750000 3.39474
0.100000 2.95904
0.125000 2.66394
0.150000 2.44779
0.200000 2.14797
0.275000 1.86881
0.350000 1.69050
0.500000 1.47434
0.750000 1.29379
1.00000 1.20897
1.50000 1.16494
2.00000 1.21678
2.75000 1.45119
3.50000 1.97867
3.87500 2.46015
4.25000 3.23763
4.62500 4.60615
5.00000 7.36233
5.14939 9.30903
5.29878 12.2352
5.44816 16.9353
5.59755 25.2137
5.67224 31.9581
5.74694 41.9313
5.82163 57.5828
5.89633 84.2046
5.97102 135.005
6.00837 179.695
6.04571 250.695
6.08306 372.825
6.10173 469.288
6.12041 606.752
6.13908 810.214
6.15775 1124.01
6.17643 1626.68
6.19510 2440.04
6.21755 3896.78
6.24000 4861.85
6.26245 3882.34
6.28490 2422.20
6.29941 1759.05
6.31393 1302.64
6.34295 770.875
6.37197 499.365
6.40100 346.671
6.43002 253.533
6.45905 192.963
6.51709 121.999
6.57514 83.7997
6.63319 60.9924
6.69124 46.3254
6.74929 36.3539
6.86539 24.0743
6.98148 17.1029
7.09758 12.7781
7.21368 9.91703
7.44587 6.49627
7.67806 4.61633
7.91026 3.48091
8.14245 2.74848
8.60684 1.90652
9.07123 1.47824
10.0000 1.14526
10.6677 1.12762
11.3354 1.25024
12.0031 1.55046
12.6708 2.16799
13.0046 2.70545
13.3384 3.53360
13.6723 4.89448
14.0061 7.35289
14.1731 9.40149
14.3400 12.4947
14.5069 17.4862
14.6738 26.3207
14.7573 33.5454
14.8407 44.2605
14.9242 61.1339
15.0077 89.9540
15.0494 112.691
15.0911 145.253
15.1329 194.158
15.1746 272.256
15.2163 407.561
15.2372 515.200
15.2580 669.523
15.2789 899.949
15.2998 1259.08
15.3206 1842.92
15.3415 2803.28
15.3658 4479.30
15.3900 5592.23
15.4143 4471.28
15.4385 2793.71
15.4563 1946.35
15.4741 1392.53
15.4920 1029.84
15.5098 785.801
15.5454 494.572
15.5811 337.100
15.6167 243.473
15.6523 183.672
15.7236 114.812
15.7949 78.3264
15.8662 56.7597
15.9374 42.9808
16.0087 33.6546
16.1512 22.2149
16.2938 15.7403
16.4363 11.7278
16.5789 9.07290
16.8640 5.89160
17.1491 4.13353
17.4342 3.06243
17.7193 2.36292
18.2894 1.53701
18.8596 1.08863
19.4298 0.820277
20.0000 0.648800
21.1944 0.450249
22.3888 0.362283
23.5832 0.337703
24.7777 0.372494
25.9721 0.508759
26.5693 0.661466
27.1665 0.949287
27.4651 1.19459
27.7637 1.57052
28.0623 2.18712
28.3609 3.30115
28.5102 4.23007
28.6595 5.63341
28.8088 7.89902
28.9581 11.9098
29.0328 15.1892
29.1074 20.0510
29.1821 27.7009
29.2567 40.7483
29.3314 65.7172
29.3687 87.7349
29.4060 122.766
29.4433 183.163
29.4620 230.933
29.4807 299.102
29.4993 400.220
29.5180 556.416
29.5366 807.233
29.5553 1214.26
29.5777 1942.40
29.6000 2427.31
29.6224 1940.82
29.6447 1212.34
29.6607 851.540
29.6768 613.388
29.6928 456.047
29.7089 349.485
29.7409 221.303
29.7730 151.452
29.8051 109.724
29.8371 82.9727
29.9013 52.0523
29.9654 35.6109
30.0296 25.8655
30.0937 19.6269
30.1578 15.3973
30.2861 10.1995
30.4144 7.25074
30.5427 5.41962
30.6710 4.20567
30.9275 2.74746
31.1841 1.93881
31.4406 1.44438
31.6972 1.12023
32.2103 0.735123
32.7235 0.523734
33.2366 0.395290
33.7497 0.311433
34.7760 0.212358
35.8022 0.159293
36.8285 0.134595
37.0850 0.136772
37.3416 0.153667
37.4699 0.179973
37.5981 0.249696
37.6623 0.333568
37.6944 0.406442
37.7264 0.520237
37.7585 0.710602
37.7906 1.05902
37.8066 1.34790
37.8226 1.77238
37.8387 2.41228
37.8547 3.37593
37.8774 5.34493
37.9000 6.66009
37.9227 5.34730
37.9453 3.37832
37.9689 2.08027
37.9924 1.36995
38.0159 0.967336
38.0395 0.724280
38.0866 0.463021
38.1337 0.334786
38.1808 0.262908
38.2278 0.218646
38.3220 0.169064
38.5104 0.127586
38.6987 0.110178
39.4521 0.0862433
40.9590 0.0705369
43.9727 0.0600005
46.9863 0.0666935
48.4932 0.0827140
49.2466 0.0988357
50.0000 0.126856
50.8737 0.194061
51.3106 0.260855
51.7474 0.381962
51.9658 0.483396
52.1843 0.637403
52.4027 0.887875
52.6211 1.33624
52.7303 1.70712
52.8395 2.26328
52.9487 3.15230
53.0580 4.70380
53.1672 7.78273
53.2218 10.6052
53.2764 15.2883
53.3310 23.8812
53.3583 31.1254
53.3856 42.1328
53.4129 59.8992
53.4402 90.7651
53.4675 149.189
53.4812 197.727
53.4948 266.405
53.5061 340.950
53.5174 426.130
53.5400 532.534
53.5626 425.943
53.5852 266.176
53.6066 167.863
53.6280 111.112
53.6494 77.6120
53.6708 56.7832
53.7136 33.8013
53.7564 22.2676
53.7992 15.7296
53.8420 11.6875
53.9276 7.17470
54.0132 4.85277
54.0988 3.50725
54.1844 2.66122
54.2700 2.09778
54.4411 1.43145
54.6123 1.11506
54.6979 1.07193
54.7835 1.17667
54.8263 1.36168
54.8691 1.77943
54.8905 2.17608
54.9119 2.82616
54.9333 3.93997
54.9547 5.87984
54.9774 9.04978
55.0000 11.1603
55.0227 9.02192
55.0453 5.82142
55.0636 4.07313
55.0819 2.97546
55.1003 2.27941
55.1186 1.82147
55.1552 1.28316
55.1918 0.992257
55.2651 0.699812
55.3384 0.556635
55.4849 0.413350
55.6314 0.337537
55.9244 0.252312
56.2175 0.203006
56.8036 0.147459
57.3897 0.118017
58.5618 0.0910192
59.7340 0.0836766
60.9062 0.0899126
61.4923 0.100326
62.0784 0.120774
62.6644 0.164756
62.9575 0.207935
63.2505 0.285262
63.5436 0.445802
63.6901 0.600882
63.8366 0.874223
63.9831 1.42598
64.0564 1.94163
64.1297 2.81604
64.2029 4.47467
64.2396 5.92336
64.2762 8.20626
64.3128 12.0848
64.3494 19.3673
64.3678 25.5705
64.3861 34.9315
64.4044 49.5253
64.4227 72.3700
64.4464 115.746
64.4700 144.654
64.4937 115.704
64.5173 72.3174
64.5353 49.8143
64.5532 35.3256
64.5712 25.9592
64.5892 19.7236
64.6251 12.3555
64.6610 8.40970
64.6970 6.07869
64.7329 4.59668
64.8048 2.89670
64.8766 1.99927
64.9485 1.47006
65.0922 0.904441
65.2360 0.625334
65.3797 0.468028
65.6671 0.307621
65.9546 0.233082
66.2421 0.193942
66.8170 0.160313
67.9668 0.159160
69.1167 0.204255
69.6916 0.248708
70.2665 0.319034
70.8414 0.436246
71.4163 0.650364
71.7038 0.830336
71.9913 1.10422
72.2787 1.55074
72.5662 2.35255
72.7099 3.01764
72.8536 4.01772
72.9974 5.62207
73.1411 8.43610
73.2848 14.0638
73.3567 19.2666
73.4286 27.9788
73.5004 44.1885
73.5364 58.0548
73.5723 79.4397
73.6082 114.666
73.6441 177.784
73.6621 229.047
73.6801 302.954
73.6980 411.776
73.7160 571.419
73.7430 914.073
73.7700 1142.34
73.7970 913.694
73.8240 570.966
73.8547 329.964
73.8854 205.071
73.9161 137.199
73.9468 97.4031
73.9775 72.4011
74.0082 55.7966
74.0696 35.9174
74.1310 24.9850
74.1924 18.3617
74.3151 11.1011
74.4379 7.42696
74.5607 5.31748
74.6835 3.99650
74.8063 3.11535
75.0518 2.05032
75.2974 1.45622
75.5430 1.09170
75.7885 0.852333
76.2797 0.568032
76.7708 0.412789
77.2619 0.319577
77.7531 0.259947
78.7353 0.193025
79.7176 0.161847
81.6821 0.150930
83.6466 0.193855
84.6289 0.248241
85.6112 0.351332
86.1023 0.438454
86.5934 0.570529
87.0846 0.784025
87.5757 1.16262
87.8213 1.47336
88.0668 1.93697
88.3124 2.67565
88.5579 3.96659
88.8035 6.56300
88.9263 9.00169
89.0491 13.1936
89.1719 21.3934
89.2333 28.8436
89.2946 41.1471
89.3560 63.6503
89.3867 82.6195
89.4174 111.465
89.4481 158.145
89.4788 239.663
89.4942 304.268
89.5095 395.410
89.5249 526.004
89.5402 712.070
89.5651 1138.00
89.5900 1422.20
89.6149 1138.22
89.6398 712.800
89.6580 499.055
89.6762 359.257
89.6944 267.694
89.7126 206.171
89.7490 133.012
89.7855 93.9515
89.8219 71.3735
89.8583 57.7564
89.9311 45.1262
90.0039 45.1940
90.0403 50.3028
90.0768 60.7711
90.1132 80.6967
90.1496 120.024
90.1678 154.054
90.1860 205.616
90.2042 286.001
90.2133 342.003
90.2224 411.470
90.2343 523.866
90.2462 652.356
90.2700 812.702
90.2819 765.044
90.2938 651.121
90.3176 409.128
90.3448 238.386
90.3719 149.920
90.3990 101.755
90.4262 73.4116
90.4533 55.5215
90.4805 43.5711
90.5347 29.1181
90.5890 21.0295
90.6433 16.0300
90.7519 10.3749
90.8605 7.37494
90.9690 5.56900
91.1862 3.56273
91.4033 2.51596
91.6204 1.90860
91.8376 1.60475
91.9461 1.72389
92.0004 2.15013
92.0276 2.70945
92.0547 3.85956
92.1000 6.51219
92.1453 3.76724
92.1760 2.45529
92.2067 1.83752
92.2680 1.32677
92.3908 0.996543
92.6362 0.759025
93.1271 0.532797
93.6181 0.403344
94.1090 0.318803
95.0908 0.217617
96.0727 0.161570
98.0363 0.105541
100.000 0.0809316
102.664 0.0687509
105.328 0.0737540
106.659 0.0871042
107.991 0.122029
108.657 0.162442
109.323 0.249985
109.656 0.339057
109.989 0.508071
110.156 0.660237
110.322 0.921457
110.405 1.14377
110.489 1.52299
110.530 1.85196
110.572 2.41380
110.613 3.57658
110.634 4.70303
110.655 6.57053
110.678 9.60022
110.700 11.6573
110.745 7.09018
110.779 4.84296
110.814 4.09961
110.882 4.18659
110.951 5.26798
111.019 7.41682
111.088 11.6208
111.122 15.3035
111.156 21.0581
111.190 30.7628
111.225 48.6149
111.242 63.6324
111.259 85.7836
111.276 119.495
111.293 170.889
111.305 219.007
111.317 273.565
111.340 342.091
111.364 273.497
111.387 170.800
111.402 124.887
111.417 93.0436
111.447 55.6752
111.476 36.3625
111.506 25.4087
111.536 18.6856
111.565 14.2921
111.625 9.11719
111.684 6.31494
111.744 4.63365
111.862 2.80686
111.981 1.88920
112.100 1.36535
112.219 1.03835
112.338 0.820741
112.575 0.558398
112.813 0.412714
113.288 0.265749
113.764 0.197895
114.239 0.162173
115.189 0.130715
117.090 0.125289
118.992 0.156654
120.893 0.238334
121.843 0.321122
122.794 0.471209
123.269 0.596831
123.744 0.787711
124.220 1.09909
124.695 1.66041
124.933 2.12915
125.170 2.83899
125.408 3.99116
125.646 6.04701
125.764 7.74460
125.883 10.2823
126.002 14.3251
126.121 21.3458
126.180 26.9762
126.240 35.1672
126.299 47.7283
126.358 68.3779
126.388 84.0603
126.418 105.721
126.448 136.742
126.477 183.174
126.507 256.538
126.537 380.260
126.566 604.305
126.581 783.551
126.596 1027.31
126.623 1642.13
126.650 2051.26
126.677 1641.67
126.704 1026.78
126.724 716.355
126.744 513.150
126.763 379.902
126.783 290.153
126.823 182.928
126.862 124.865
126.902 90.3217
126.942 68.2401
127.021 42.8085
127.100 29.2980
127.179 21.3120
127.258 16.1984
127.337 12.7393
127.496 8.49058
127.654 6.08575
127.812 4.59746
127.971 3.61594
128.287 2.45194
128.604 1.82968
128.920 1.47854
129.237 1.28780
129.870 1.24490
130.187 1.41520
130.504 1.82358
130.820 2.77469
130.979 3.72904
131.137 5.43706
131.295 8.91946
131.374 12.1937
131.453 17.7579
131.533 28.3686
131.572 37.6732
131.612 52.3457
131.651 77.4537
131.671 97.1345
131.691 124.974
131.711 165.773
131.731 227.882
131.750 325.693
131.770 479.897
131.795 769.908
131.820 964.149
131.833 906.862
131.845 769.737
131.870 479.691
131.888 334.941
131.906 240.604
131.925 178.286
131.943 136.474
131.979 86.2548
132.015 59.0597
132.051 42.8002
132.088 32.3959
132.160 20.4007
132.233 14.0187
132.305 10.2420
132.450 6.17971
132.596 4.15938
132.741 3.01036
132.886 2.29456
133.031 1.81850
133.321 1.24267
133.611 0.920290
134.191 0.589311
134.772 0.431182
135.352 0.344368
136.513 0.262628
137.673 0.238770
138.834 0.252013
139.994 0.311631
140.575 0.376603
140.865 0.439974
141.010 0.524987
141.083 0.664311
141.119 0.850478
141.155 1.29871
141.200 2.13268
141.245 1.31956
141.267 1.00669
141.290 0.833490
141.334 0.677465
141.424 0.598393
141.603 0.610964
141.960 0.753592
142.318 1.00559
142.675 1.46023
142.854 1.83744
143.033 2.40485
143.211 3.31824
143.390 4.92924
143.479 6.24443
143.569 8.19156
143.658 11.2506
143.748 16.4506
143.837 26.3820
143.882 35.1125
143.926 48.9642
143.971 72.7315
143.993 91.4988
144.016 118.047
144.038 157.362
144.060 217.400
144.083 312.790
144.105 465.724
144.133 746.567
144.160 934.404
144.188 746.397
144.215 465.529
144.236 318.606
144.257 225.136
144.279 164.769
144.300 124.928
144.342 77.9444
144.384 52.8903
144.427 38.1332
144.469 28.7654
144.553 18.0399
144.638 12.3891
144.723 9.06122
144.892 5.51357
145.061 3.76875
145.230 2.79256
145.568 1.81573
145.907 1.39101
146.245 1.20693
146.922 1.21679
147.260 1.38209
147.598 1.69460
147.937 2.25301
148.275 3.29885
148.444 4.18047
148.613 5.51437
148.782 7.66595
148.951 11.4516
149.121 19.0532
149.205 26.1006
149.290 37.9179
149.332 47.0890
149.374 60.0050
149.417 78.9748
149.459 108.346
149.501 156.995
149.522 194.095
149.544 244.876
149.565 317.011
149.586 421.358
149.607 576.180
149.628 805.527
149.659 1288.62
149.690 1610.53
149.721 1288.27
149.752 805.125
149.781 513.572
149.809 343.334
149.838 241.248
149.866 177.434
149.923 106.264
149.980 70.2981
150.037 49.7661
150.094 37.0462
150.209 22.7724
150.323 15.3969
150.437 11.1041
150.551 8.38995
150.665 6.56621
150.893 4.34442
151.121 3.09406
151.350 2.32134
151.578 1.81053
152.034 1.19810
152.491 0.858915
152.947 0.651650
153.403 0.516044
154.316 0.356745
155.229 0.274856
156.142 0.247318
156.370 0.259261
156.598 0.305242
156.712 0.369047
156.827 0.529992
156.884 0.717651
156.941 1.12117
156.969 1.52056
156.998 2.22226
157.026 3.57729
157.041 4.72937
157.055 6.37271
157.077 10.0867
157.100 12.5483
157.123 10.0701
157.145 6.37340
157.171 3.78475
157.196 2.43431
157.222 1.69677
157.247 1.26403
157.298 0.808636
157.349 0.590155
157.400 0.469516
157.451 0.396477
157.553 0.316436
157.756 0.253740
157.960 0.232441
158.367 0.227845
158.775 0.252488
159.182 0.321483
159.386 0.392934
159.589 0.522452
159.793 0.791134
159.895 1.04811
159.997 1.49465
160.099 2.37531
160.149 3.17545
160.200 4.49134
160.251 6.87246
160.277 8.85640
160.302 11.8161
160.328 16.5157
160.353 24.4196
160.379 38.8180
160.404 65.9602
160.427 105.463
160.450 131.612
160.473 105.266
160.496 65.7994
160.521 39.1860
160.546 24.9451
160.571 16.9589
160.595 12.2056
160.620 9.16795
160.645 7.13861
160.694 4.68013
160.744 3.31574
160.793 2.48403
160.892 1.56765
160.991 1.10228
161.090 0.834971
161.288 0.557298
161.486 0.425561
161.684 0.355043
162.080 0.292303
162.872 0.284505
163.664 0.360115
164.060 0.437420
164.456 0.561179
164.852 0.768726
165.248 1.14826
165.446 1.46644
165.644 1.94855
165.842 2.72886
166.040 4.11357
166.139 5.24781
166.238 6.93177
166.337 9.58584
166.436 14.1220
166.535 22.8281
166.585 30.5256
166.634 42.8104
166.684 64.0662
166.708 80.9848
166.733 105.113
166.758 141.182
166.783 196.990
166.807 287.089
166.832 434.057
166.861 690.844
166.890 860.512
166.920 685.987
166.949 426.528
166.978 262.027
167.008 170.434
167.037 117.629
167.066 85.3386
167.096 64.3866
167.125 50.2147
167.184 32.8670
167.242 23.1037
167.301 17.1122
167.418 10.4485
167.536 7.03381
167.653 5.05692
167.770 3.81170
167.887 2.97793
168.122 1.96420
168.356 1.39570
168.591 1.04500
168.826 0.813674
169.295 0.536790
169.764 0.383579
170.233 0.289883
170.702 0.228355
171.640 0.155016
172.578 0.114761
173.517 0.0916938
173.986 0.0883250
174.220 0.101259
174.279 0.114030
174.338 0.142548
174.396 0.222456
174.425 0.323072
174.455 0.535164
174.477 0.812197
174.500 0.995920
174.523 0.810490
174.545 0.534286
174.575 0.318636
174.605 0.217663
174.665 0.137383
174.724 0.108165
174.784 0.0944835
175.023 0.0771459
175.500 0.0742533
175.739 0.0810596
175.977 0.104522
176.097 0.136490
176.157 0.166551
176.216 0.217160
176.276 0.311838
176.306 0.392799
176.335 0.517581
176.365 0.723682
176.395 1.09098
176.425 1.81575
176.440 2.44243
176.455 3.35839
176.477 5.34780
176.500 6.66659
176.523 5.33877
176.545 3.35852
176.561 2.39221
176.577 1.75140
176.593 1.32110
176.609 1.02906
176.640 0.673607
176.672 0.478236
176.704 0.360792
176.736 0.285128
176.799 0.197242
176.862 0.150033
176.926 0.121843
177.052 0.0910708
177.306 0.0661075
177.559 0.0558760
178.573 0.0421224
180.600 0.0338586
182.627 0.0343645
183.134 0.0387242
183.641 0.0521947
183.894 0.0707840
184.021 0.0888723
184.148 0.120781
184.275 0.184967
184.338 0.244655
184.401 0.344939
184.465 0.533109
184.496 0.695315
184.528 0.946390
184.560 1.36536
184.591 2.12776
184.607 2.75876
184.623 3.67633
184.639 5.04880
184.655 7.10021
184.677 11.3415
184.700 14.1679
184.723 11.3429
184.745 7.10189
184.760 5.19036
184.774 3.87448
184.803 2.32543
184.832 1.52571
184.861 1.07247
184.890 0.793686
184.918 0.612332
184.976 0.398783
185.034 0.283026
185.091 0.213740
185.207 0.138430
185.322 0.100657
185.437 0.0790949
185.668 0.0567352
185.898 0.0460469
186.129 0.0402059
186.590 0.0346548
187.513 0.0324850
188.435 0.0360407
189.357 0.0473815
189.818 0.0595695
190.280 0.0822506
190.510 0.101481
190.741 0.130862
190.971 0.178887
191.202 0.265186
191.317 0.336795
191.432 0.444413
191.548 0.616850
191.663 0.918652
191.778 1.51990
191.836 2.07384
191.894 2.99532
191.951 4.69944
191.980 6.14317
192.009 8.35024
192.038 11.9410
192.067 18.2578
192.095 30.4363
192.110 40.7337
192.124 55.5123
192.147 88.8909
192.170 111.013
192.193 88.7252
192.216 55.4988
192.231 39.9600
192.246 29.4408
192.277 17.3112
192.307 11.1805
192.338 7.75363
192.368 5.67111
192.398 4.31982
192.459 2.73932
192.520 1.88820
192.581 1.38089
192.703 0.831948
192.824 0.557278
192.946 0.400856
193.067 0.303360
193.189 0.238528
193.432 0.160354
193.676 0.116839
193.919 0.0901219
194.162 0.0725533
194.649 0.0515761
195.135 0.0399845
196.108 0.0282406
197.081 0.0227131
198.054 0.0197866
199.027 0.0186045
199.514 0.0195840
199.757 0.0221917
200.000 0.0342732
200.127 0.0679378
200.191 0.134481
200.223 0.221972
200.255 0.417306
200.277 0.658947
200.300 0.819280
200.323 0.657846
200.345 0.417322
200.372 0.244932
200.398 0.157267
200.451 0.0824907
200.556 0.0403065
200.767 0.0233028
201.188 0.0176532
202.030 0.0157957
203.715 0.0153034
207.085 0.0176423
208.770 0.0215653
209.612 0.0253405
210.454 0.0319372
211.297 0.0453634
211.718 0.0582942
212.139 0.0813318
212.560 0.129275
212.771 0.175950
212.982 0.259159
213.087 0.327793
213.192 0.430510
213.297 0.594315
213.403 0.879298
213.508 1.44214
213.561 1.95610
213.613 2.80276
213.666 4.34625
213.692 5.63424
213.719 7.57358
213.745 10.6781
213.771 15.9619
213.798 25.7017
213.824 44.5445
213.847 71.3531
213.870 89.1345
213.893 71.2215
213.916 44.5350
213.933 31.1873
213.949 22.4557
213.966 16.6940
213.983 12.7930
214.016 8.10653
214.049 5.55463
214.082 4.03073
214.115 3.05400
214.182 1.92519
214.248 1.32501
214.315 0.969291
214.447 0.587276
214.580 0.397761
214.713 0.290446
214.846 0.224019
214.979 0.180199
215.244 0.128151
215.510 0.100088
216.041 0.0738860
216.572 0.0647124
217.104 0.0634947
218.166 0.0768292
218.697 0.0925306
219.229 0.118212
219.760 0.161636
220.291 0.241272
220.557 0.308142
220.822 0.409515
221.088 0.573767
221.354 0.865723
221.486 1.10529
221.619 1.46158
221.752 2.02451
221.885 2.99010
222.018 4.85395
222.084 6.51212
222.150 9.17619
222.217 13.8318
222.283 22.9674
222.316 31.1155
222.350 44.0064
222.383 65.3667
222.416 101.391
222.435 129.906
222.453 162.564
222.490 203.484
222.527 162.536
222.564 101.356
222.588 73.7277
222.612 54.6899
222.659 32.4674
222.707 21.0926
222.754 14.6818
222.802 10.7641
222.850 8.21194
222.945 5.21752
223.040 3.59890
223.135 2.62996
223.325 1.57990
223.516 1.05361
223.706 0.753482
223.896 0.566349
224.087 0.441928
224.467 0.292080
224.848 0.208931
225.229 0.158276
225.609 0.125416
226.371 0.0879548
227.132 0.0716512
227.513 0.0703491
227.893 0.0780363
228.084 0.0911048
228.274 0.125930
228.369 0.168903
228.417 0.207536
228.464 0.270299
228.512 0.382738
228.560 0.612546
228.583 0.827111
228.607 1.18365
228.631 1.81610
228.655 2.97200
228.677 4.72097
228.700 5.88104
228.723 4.71455
228.745 2.97525
228.771 1.74165
228.797 1.10851
228.823 0.765731
228.849 0.565464
228.901 0.357336
228.953 0.259755
229.005 0.207556
229.056 0.177562
229.160 0.149120
229.368 0.144679
229.575 0.179068
229.782 0.269212
229.886 0.359545
229.990 0.518875
230.093 0.835686
230.145 1.12565
230.197 1.60358
230.249 2.47477
230.275 3.20129
230.301 4.29432
230.327 6.03335
230.353 8.99500
230.378 14.4350
230.404 24.9053
230.427 39.8488
230.450 49.7449
230.473 39.7748
230.496 24.8995
230.519 15.3205
230.542 9.96103
230.564 6.87440
230.587 4.98918
230.610 3.77058
230.633 2.94371
230.679 1.93424
230.725 1.36589
230.770 1.01665
230.862 0.628983
230.954 0.429952
231.045 0.314703
231.228 0.193044
231.411 0.133415
231.594 0.0997040
231.961 0.0647131
232.327 0.0476376
232.693 0.0379018
233.425 0.0276083
234.158 0.0226024
234.890 0.0204728
235.622 0.0241045
235.806 0.0292727
235.989 0.0434255
236.080 0.0612742
236.172 0.103806
236.218 0.151004
236.263 0.246600
236.286 0.335160
236.309 0.480677
236.332 0.734561
236.355 1.18842
236.377 1.89525
236.400 2.36412
236.423 1.89203
236.445 1.18849
236.463 0.807865
236.482 0.568431
236.518 0.317168
236.554 0.201428
236.590 0.140478
236.662 0.0820514
236.735 0.0562344
236.879 0.0345685
237.024 0.0258928
237.314 0.0189738
237.603 0.0162069
238.760 0.0127605
241.075 0.0116341
242.232 0.0124741
243.390 0.0158678
243.969 0.0207570
244.547 0.0342727
244.837 0.0523352
244.981 0.0698035
245.126 0.100598
245.271 0.162903
245.343 0.221303
245.415 0.320434
245.488 0.509463
245.524 0.675302
245.560 0.936924
245.596 1.38520
245.632 2.23178
245.650 2.96101
245.669 4.07245
245.687 5.82501
245.705 8.58889
245.727 13.7409
245.750 17.1782
245.773 13.7423
245.795 8.59067
245.818 5.29014
245.841 3.44851
245.863 2.38134
245.886 1.73171
245.909 1.30953
245.931 1.02417
245.977 0.674156
246.022 0.477590
246.067 0.356819
246.158 0.222798
246.248 0.154312
246.339 0.114856
246.520 0.0738877
246.701 0.0546921
246.883 0.0448579
247.245 0.0383776
247.607 0.0439167
247.789 0.0530643
247.970 0.0711689
248.151 0.110050
248.242 0.147581
248.332 0.212791
248.423 0.340488
248.468 0.455599
248.513 0.642991
248.559 0.976726
248.581 1.25028
248.604 1.65146
248.627 2.27447
248.649 3.28891
248.672 5.05589
248.695 8.19441
248.717 13.1101
248.740 16.3899
248.763 13.1111
248.785 8.19564
248.810 4.82763
248.835 3.04820
248.860 2.05988
248.885 1.47554
248.910 1.10384
248.935 0.856348
248.984 0.557471
249.034 0.392067
249.084 0.291382
249.183 0.180570
249.282 0.124129
249.382 0.0915771
249.580 0.0574019
249.779 0.0407091
249.978 0.0313040
250.375 0.0215803
251.170 0.0142266
251.965 0.0114920
253.555 0.00950880
255.145 0.00901341
256.735 0.00926234
258.325 0.0106136
259.120 0.0124741
259.915 0.0174372
260.312 0.0239944
260.710 0.0416328
260.909 0.0647997
261.008 0.0868886
261.107 0.125175
261.207 0.200581
261.256 0.269107
261.306 0.381472
261.356 0.584965
261.381 0.754402
261.405 1.00696
261.430 1.40761
261.455 2.08032
261.480 3.29642
261.505 5.58760
261.527 8.94053
261.550 11.1622
261.573 8.92560
261.595 5.58866
261.611 3.95981
261.627 2.87398
261.643 2.15035
261.659 1.65917
261.691 1.06131
261.722 0.732776
261.754 0.534908
261.786 0.408033
261.849 0.260786
261.913 0.182100
261.976 0.135448
262.103 0.0852689
262.230 0.0603675
262.357 0.0463278
262.610 0.0320760
263.118 0.0225145
263.625 0.0210672
264.133 0.0243741
264.640 0.0372302
264.894 0.0552277
265.021 0.0727368
265.147 0.103568
265.274 0.165592
265.338 0.223152
265.401 0.319997
265.465 0.501797
265.496 0.658304
265.528 0.901490
265.560 1.30635
265.591 2.04329
265.607 2.65345
265.623 3.54112
265.639 4.88000
265.655 6.87271
265.677 10.9945
265.700 13.7246
265.723 10.9761
265.745 6.87392
265.762 4.81998
265.778 3.46837
265.795 2.57789
265.811 1.97888
265.844 1.25529
265.876 0.862950
265.909 0.628101
265.942 0.478129
266.007 0.304768
266.073 0.212470
266.138 0.157865
266.269 0.0992002
266.400 0.0701231
266.531 0.0537207
266.793 0.0370156
267.316 0.0255353
267.840 0.0232238
268.364 0.0257467
268.887 0.0370305
269.149 0.0530520
269.280 0.0686660
269.411 0.0962256
269.542 0.151737
269.607 0.203457
269.673 0.290572
269.738 0.454693
269.771 0.596532
269.804 0.817821
269.837 1.18987
269.869 1.87177
269.886 2.44164
269.902 3.27838
269.918 4.55462
269.935 6.47942
269.957 10.3652
269.980 12.9588
270.003 10.3661
270.025 6.48055
270.044 4.32442
270.063 2.99690
270.082 2.16236
270.100 1.62360
270.138 1.00162
270.175 0.676801
270.213 0.488038
270.250 0.369314
270.325 0.234562
270.400 0.164139
270.475 0.122874
270.625 0.0790719
270.775 0.0575950
270.925 0.0455829
271.225 0.0335341
271.825 0.0257086
272.425 0.0248236
273.025 0.0279155
273.625 0.0387206
273.925 0.0533985
274.075 0.0675855
274.225 0.0925874
274.375 0.143210
274.450 0.190700
274.525 0.271613
274.600 0.426283
274.637 0.562507
274.675 0.779069
274.712 1.15172
274.750 1.86534
274.769 2.48754
274.787 3.44095
274.806 4.96354
274.825 7.41810
274.847 11.8544
274.870 14.8112
274.893 11.8554
274.915 7.41950
274.931 5.34116
274.946 3.93629
274.976 2.31930
275.006 1.50160
275.036 1.04701
275.067 0.770219
275.097 0.591412
275.157 0.382359
275.218 0.269856
275.278 0.202774
275.399 0.130434
275.520 0.0944198
275.641 0.0740715
275.883 0.0533424
276.367 0.0389566
276.850 0.0351360
277.818 0.0361334
278.785 0.0422358
279.753 0.0530641
280.720 0.0715895
281.687 0.109581
281.929 0.128953
282.171 0.165040
282.292 0.202399
282.413 0.285117
282.473 0.376807
282.534 0.571423
282.564 0.764719
282.594 1.10870
282.625 1.78932
282.640 2.38051
282.655 3.24833
282.677 5.11085
282.700 6.34546
282.723 5.10631
282.745 3.25644
282.773 1.90177
282.800 1.22683
282.827 0.869718
282.854 0.664663
282.908 0.455978
282.962 0.360570
283.071 0.284224
283.179 0.261245
283.613 0.292009
284.046 0.399153
284.480 0.604401
284.697 0.777310
284.914 1.03917
285.130 1.46259
285.347 2.21290
285.456 2.82734
285.564 3.73776
285.673 5.17040
285.781 7.61350
285.889 12.2865
285.944 16.4035
285.998 22.9496
286.052 34.2159
286.079 43.1152
286.106 55.7960
286.133 74.5565
286.160 103.470
286.187 149.733
286.215 224.486
286.247 359.372
286.280 448.910
286.296 422.414
286.313 358.886
286.346 224.430
286.374 146.493
286.403 99.5369
286.431 70.8392
286.460 52.5833
286.517 31.8722
286.574 21.2226
286.631 15.0944
286.688 11.2658
286.802 6.94736
286.917 4.70303
287.031 3.39203
287.145 2.56114
287.259 2.00193
287.488 1.31968
287.716 0.935335
287.944 0.697774
288.173 0.540797
288.630 0.352822
289.087 0.248963
289.543 0.185662
290.000 0.144334
290.914 0.0958395
291.827 0.0709956
292.284 0.0647553
292.741 0.0653360
292.970 0.0726436
293.198 0.0972971
293.312 0.130771
293.426 0.214862
293.483 0.312729
293.541 0.523570
293.569 0.731947
293.598 1.09793
293.626 1.80781
293.641 2.40978
293.655 3.26826
293.677 5.20761
293.700 6.49222
293.723 5.19847
293.745 3.26792
293.771 1.89673
293.797 1.18991
293.823 0.807256
293.849 0.583371
293.901 0.349728
293.953 0.238115
294.057 0.139240
294.161 0.0979224
294.369 0.0641435
294.577 0.0504578
294.993 0.0386934
295.409 0.0331704
297.073 0.0238193
298.736 0.0199292
300.400 0.0183387
302.064 0.0187811
303.727 0.0226429
304.559 0.0276425
305.391 0.0387420
305.807 0.0507396
306.223 0.0775311
306.431 0.108543
306.535 0.136493
306.639 0.183374
306.743 0.273434
306.795 0.354338
306.847 0.486812
306.899 0.726486
306.925 0.926328
306.951 1.22706
306.977 1.70625
307.003 2.52494
307.029 4.03683
307.055 6.95321
307.077 11.0880
307.100 13.8263
307.123 11.0721
307.145 6.95966
307.161 4.98239
307.176 3.66072
307.192 2.76700
307.208 2.15736
307.239 1.41180
307.270 1.00184
307.301 0.754661
307.332 0.596581
307.394 0.414789
307.456 0.320564
307.518 0.267791
307.642 0.219828
307.891 0.217755
308.139 0.285737
308.264 0.352675
308.388 0.457406
308.512 0.628910
308.636 0.932407
308.761 1.54270
308.823 2.10735
308.885 3.05330
308.947 4.81271
308.978 6.32019
309.009 8.63609
309.040 12.4601
309.071 19.2791
309.102 32.8147
309.118 44.5134
309.133 61.6369
309.157 98.6516
309.180 123.169
309.204 98.4754
309.227 61.6266
309.249 39.2726
309.270 26.2469
309.292 18.4329
309.314 13.5570
309.357 8.11845
309.400 5.37268
309.443 3.80459
309.487 2.83199
309.573 1.74321
309.660 1.18003
309.746 0.852647
309.833 0.645403
309.919 0.506301
310.092 0.336701
310.266 0.241239
310.439 0.182236
310.612 0.143230
310.958 0.0964728
311.304 0.0705737
311.996 0.0443832
312.689 0.0321200
313.381 0.0254999
314.766 0.0193419
316.151 0.0176405
317.535 0.0198807
318.228 0.0245380
318.920 0.0383037
319.266 0.0571687
319.439 0.0756232
319.612 0.108496
319.785 0.175818
319.872 0.239709
319.959 0.349636
320.045 0.563488
320.088 0.755144
320.132 1.06454
320.175 1.61225
320.218 2.70234
320.240 3.69691
320.261 5.29271
320.283 8.00079
320.305 12.7020
320.327 20.3066
320.350 25.3730
320.373 20.3081
320.395 12.7038
320.416 8.13454
320.437 5.45806
320.458 3.85119
320.478 2.83955
320.520 1.70788
320.561 1.13512
320.603 0.807468
320.644 0.604434
320.727 0.376508
320.810 0.258474
320.893 0.189765
321.058 0.117187
321.224 0.0816746
321.390 0.0617552
321.721 0.0414395
322.384 0.0268122
323.047 0.0220923
324.373 0.0203675
325.699 0.0229376
327.025 0.0302190
327.688 0.0374804
328.351 0.0503847
329.014 0.0770599
329.346 0.102974
329.677 0.149309
329.843 0.187767
330.009 0.245718
330.175 0.339264
330.340 0.504890
330.423 0.640611
330.506 0.842247
330.589 1.16049
330.672 1.70490
330.755 2.75500
330.796 3.68632
330.837 5.17910
330.879 7.78728
330.920 12.8700
330.941 17.3784
330.962 24.4699
330.982 36.1276
331.003 55.5897
331.027 89.0360
331.050 111.218
331.074 88.8777
331.097 55.5820
331.111 41.2132
331.125 31.0717
331.154 18.8839
331.182 12.4555
331.210 8.77055
331.239 6.47856
331.267 4.97144
331.324 3.18795
331.381 2.21468
331.437 1.62968
331.551 0.991897
331.664 0.670756
331.778 0.487246
331.891 0.372858
332.005 0.296998
332.232 0.206064
332.459 0.156327
332.912 0.108292
333.366 0.0891982
333.820 0.0830211
334.728 0.0931778
335.182 0.109437
335.636 0.137162
336.090 0.184826
336.543 0.272930
336.770 0.347214
336.997 0.460172
337.224 0.643956
337.451 0.972665
337.565 1.24427
337.678 1.65092
337.792 2.29933
337.905 3.42520
338.019 5.64588
338.075 7.66429
338.132 10.9848
338.189 17.0105
338.217 22.0267
338.245 29.5177
338.274 41.4176
338.302 61.4642
338.316 76.8914
338.331 98.0347
338.345 127.305
338.359 167.188
338.384 267.507
338.410 334.390
338.436 267.484
338.461 167.160
338.482 112.485
338.503 78.2765
338.523 56.6979
338.544 42.6526
338.585 26.2891
338.627 17.7064
338.668 12.6841
338.709 9.52349
338.792 5.92030
338.875 4.03165
338.957 2.92248
339.040 2.21699
339.123 1.74149
339.288 1.15940
339.453 0.831383
339.619 0.628787
339.784 0.495523
340.115 0.337817
340.446 0.253867
340.776 0.206892
341.107 0.181952
341.769 0.179722
342.099 0.206545
342.430 0.268899
342.761 0.413095
342.926 0.557912
343.091 0.817683
343.174 1.03178
343.257 1.35067
343.340 1.85478
343.422 2.71775
343.505 4.38203
343.546 5.86135
343.588 8.22581
343.629 12.3510
343.670 20.3707
343.691 27.4866
343.712 38.5952
343.732 56.8822
343.753 87.1290
343.765 111.540
343.776 139.454
343.800 174.364
343.824 139.443
343.847 87.1156
343.862 64.3142
343.876 48.3082
343.905 29.2011
343.934 19.1934
343.963 13.4828
343.992 9.94237
344.021 7.61945
344.079 4.87628
344.137 3.38217
344.195 2.48499
344.311 1.50733
344.427 1.01478
344.542 0.732983
344.658 0.556603
344.774 0.439119
345.006 0.297085
345.238 0.217955
345.469 0.169714
345.701 0.138652
346.164 0.105500
346.628 0.101267
346.859 0.117762
346.975 0.137817
347.091 0.175698
347.207 0.254542
347.265 0.328356
347.323 0.452381
347.381 0.683296
347.410 0.880192
347.439 1.18112
347.468 1.67436
347.497 2.54341
347.526 4.23727
347.540 5.68071
347.555 7.74797
347.577 12.3858
347.600 15.4618
347.623 12.3641
347.646 7.74748
347.661 5.51550
347.677 4.02928
347.693 3.02752
347.709 2.34558
347.740 1.51291
347.772 1.05381
347.803 0.777285
347.835 0.598900
347.897 0.391498
347.960 0.280048
348.023 0.213545
348.149 0.141141
348.275 0.104406
348.401 0.0830448
348.653 0.0599756
349.157 0.0407693
349.660 0.0323355
350.668 0.0243384
351.675 0.0205566
352.683 0.0188942
353.690 0.0198269
354.194 0.0228616
354.697 0.0325467
354.949 0.0460380
355.201 0.0824250
355.327 0.129231
355.390 0.172737
355.453 0.245821
355.516 0.382894
355.547 0.500990
355.579 0.683678
355.610 0.988277
355.642 1.54183
355.658 1.99938
355.673 2.66386
355.689 3.65621
355.705 5.13681
355.727 8.21517
355.750 10.2541
355.773 8.20120
355.795 5.13739
355.818 3.17695
355.840 2.07808
355.863 1.44128
355.885 1.05057
355.907 0.797176
355.930 0.624811
355.975 0.413513
356.019 0.294581
356.064 0.221371
356.154 0.139915
356.333 0.0738536
356.512 0.0482807
356.871 0.0286967
357.229 0.0213891
357.946 0.0158343
358.663 0.0137267
361.530 0.0117275
362.964 0.0120844
364.397 0.0138927
365.114 0.0165306
365.831 0.0238950
366.189 0.0338558
366.548 0.0608973
366.727 0.0964012
366.817 0.130125
366.906 0.188334
366.996 0.301800
367.041 0.403813
367.085 0.569558
367.130 0.864042
367.153 1.10426
367.175 1.45738
367.197 2.00178
367.220 2.88884
367.242 4.41883
367.265 7.13031
367.287 11.4019
367.310 14.2496
367.333 11.4026
367.355 7.13119
367.380 4.21076
367.405 2.66330
367.430 1.80202
367.454 1.29210
367.479 0.967425
367.504 0.751111
367.553 0.490124
367.603 0.345267
367.652 0.257102
367.751 0.160124
367.850 0.110798
367.949 0.0824312
368.147 0.0527456
368.543 0.0303403
368.938 0.0222133
369.730 0.0164117
370.521 0.0145449
373.687 0.0141778
376.853 0.0168640
380.018 0.0224392
383.184 0.0345607
384.767 0.0466323
386.350 0.0686284
387.141 0.0871790
387.932 0.115559
388.724 0.162229
389.515 0.247192
389.911 0.318683
390.307 0.427729
390.702 0.606151
391.098 0.928274
391.296 1.19699
391.494 1.60297
391.692 2.25917
391.889 3.42122
391.988 4.37305
392.087 5.78362
392.186 8.00414
392.285 11.7931
392.335 14.7820
392.384 19.0579
392.434 25.4692
392.483 35.6554
392.533 53.2563
392.557 67.1588
392.582 86.9971
392.607 116.547
392.631 162.065
392.656 235.155
392.681 353.764
392.710 566.117
392.740 707.710
392.770 566.058
392.799 353.698
392.824 233.235
392.850 159.963
392.875 114.628
392.900 85.4357
392.950 52.1061
393.000 34.8290
393.050 24.8204
393.101 18.5605
393.201 11.4751
393.302 7.77795
393.402 5.61640
393.502 4.24434
393.603 3.31984
393.804 2.19020
394.004 1.55349
394.205 1.15945
394.406 0.899058
394.808 0.586962
395.210 0.414389
395.611 0.309086
396.013 0.240185
396.817 0.158598
397.620 0.114143
398.423 0.0874662
399.227 0.0704294
400.834 0.0517640
402.441 0.0459413
403.244 0.0493238
403.646 0.0547300
404.047 0.0658770
404.449 0.0909431
404.650 0.116099
404.851 0.161476
405.052 0.255599
405.152 0.345695
405.253 0.502339
405.353 0.811339
405.403 1.09203
405.453 1.55342
405.504 2.38759
405.529 3.08026
405.554 4.11660
405.579 5.75305
405.604 8.51044
405.629 13.4977
405.654 22.9007
405.677 36.6204
405.700 45.7645
405.723 36.6182
405.746 22.8980
405.763 15.9093
405.780 11.3613
405.797 8.39403
405.814 6.40326
405.848 4.03432
405.882 2.75646
405.916 1.99809
405.950 1.51411
406.018 0.957620
406.086 0.662261
406.154 0.487792
406.290 0.300450
406.426 0.207414
406.561 0.154644
406.833 0.100021
407.105 0.0737284
407.377 0.0590673
407.921 0.0441063
409.008 0.0332338
410.095 0.0300074
411.183 0.0302054
412.270 0.0352629
412.814 0.0431702
413.357 0.0654371
413.629 0.0954034
413.765 0.124414
413.901 0.175573
414.037 0.278757
414.105 0.375109
414.173 0.537867
414.241 0.845837
414.275 1.11375
414.309 1.53255
414.343 2.24099
414.377 3.55746
414.394 4.66643
414.411 6.32313
414.428 8.86933
414.445 12.7654
414.467 20.4303
414.490 25.5116
414.513 20.3955
414.536 12.7669
414.562 7.35540
414.588 4.57443
414.614 3.06617
414.640 2.18272
414.666 1.62835
414.692 1.26026
414.744 0.819899
414.796 0.577509
414.848 0.431015
414.952 0.270446
415.056 0.189163
415.160 0.142572
415.368 0.0939985
415.576 0.0706273
415.784 0.0577150
416.200 0.0449453
417.033 0.0370223
417.865 0.0368474
418.697 0.0418857
419.114 0.0477459
419.530 0.0586500
419.946 0.0817941
420.154 0.104479
420.362 0.145000
420.570 0.228605
420.674 0.308625
420.778 0.447731
420.882 0.722735
420.934 0.973289
420.986 1.38659
421.038 2.13787
421.064 2.76526
421.090 3.70934
421.116 5.21193
421.142 7.77251
421.168 12.4806
421.194 21.5562
421.217 34.4743
421.240 43.0867
421.263 34.4724
421.286 21.5539
421.308 13.4899
421.330 8.89878
421.352 6.20492
421.374 4.53715
421.418 2.70425
421.462 1.78749
421.506 1.26813
421.550 0.948338
421.638 0.591553
421.726 0.407884
421.814 0.301476
421.990 0.189344
422.166 0.134729
422.342 0.104173
422.695 0.0731607
423.047 0.0587179
423.399 0.0510260
424.103 0.0439620
425.512 0.0409999
426.920 0.0427992
429.738 0.0533577
431.146 0.0657278
431.498 0.0728302
431.850 0.0884273
432.027 0.106999
432.203 0.153046
432.291 0.208872
432.379 0.339219
432.423 0.481673
432.467 0.767072
432.489 1.02753
432.511 1.44965
432.533 2.17245
432.555 3.44174
432.577 5.46907
432.600 6.81238
432.623 5.46022
432.645 3.44287
432.666 2.23524
432.687 1.52271
432.707 1.09467
432.728 0.825121
432.769 0.524115
432.810 0.371419
432.893 0.230456
432.975 0.170255
433.140 0.121915
433.305 0.104116
433.634 0.0927124
433.964 0.0909866
435.282 0.104387
436.600 0.131717
437.919 0.177975
439.237 0.266605
439.896 0.347982
440.555 0.487997
441.215 0.770132
441.544 1.03957
441.874 1.51454
442.039 1.90414
442.203 2.48562
442.368 3.41158
442.533 5.02307
442.698 8.21513
442.780 11.1395
442.863 15.9923
442.945 24.8981
442.986 32.4114
443.027 43.8351
443.069 62.2816
443.110 94.3791
443.130 119.694
443.151 155.246
443.172 205.896
443.192 277.240
443.226 443.448
443.260 554.246
443.294 443.402
443.328 277.195
443.361 173.008
443.394 113.815
443.427 79.1973
443.460 57.8174
443.493 43.8516
443.526 34.3529
443.591 22.6681
443.657 16.0631
443.723 11.9984
443.855 7.47400
443.986 5.15571
444.118 3.82091
444.381 2.43742
444.645 1.79449
444.908 1.47067
445.435 1.27219
445.961 1.47556
446.225 1.78308
446.488 2.37377
446.751 3.61672
446.883 4.80712
447.014 6.87087
447.080 8.52722
447.146 10.9325
447.212 14.6205
447.278 20.6857
447.311 25.3119
447.344 31.6918
447.377 40.8426
447.409 54.5693
447.442 76.3263
447.475 113.189
447.492 141.624
447.508 180.410
447.525 234.529
447.541 308.572
447.571 493.404
447.600 616.683
447.630 493.380
447.659 308.563
447.679 222.607
447.698 164.041
447.737 96.6385
447.777 62.6479
447.816 43.7188
447.855 32.1982
447.894 24.7363
447.972 16.0429
448.051 11.3873
448.129 8.63521
448.286 5.72285
448.443 4.36093
448.599 3.69635
448.913 3.42265
449.226 4.25162
449.383 5.30845
449.539 7.26797
449.618 8.88300
449.657 9.95200
449.696 11.2604
449.735 12.8921
449.774 14.9550
449.814 17.6121
449.853 21.1009
449.892 25.8283
449.931 32.4269
449.970 42.0036
450.009 56.5464
450.049 80.1317
450.068 97.6703
450.088 121.162
450.107 153.676
450.127 199.457
450.146 264.880
450.166 357.306
450.198 571.311
450.230 713.348
450.262 570.552
450.294 357.264
450.321 239.097
450.347 166.024
450.373 120.058
450.400 90.2913
450.452 55.9107
450.505 37.9380
450.558 27.4926
450.610 20.9276
450.716 13.5006
450.821 9.64329
450.926 7.41637
451.137 5.14218
451.348 4.16467
451.558 3.78720
451.980 4.06250
452.401 5.73663
452.612 7.52294
452.823 10.6608
453.033 16.7205
453.139 22.0562
453.244 30.4895
453.349 44.8841
453.455 71.9973
453.507 95.1905
453.560 130.335
453.613 185.336
453.665 271.698
453.733 434.367
453.800 542.703
453.867 433.956
453.935 271.322
453.994 177.188
454.052 120.551
454.111 85.8605
454.170 63.7597
454.287 38.7212
454.405 25.8472
454.522 18.4374
454.640 13.8058
454.875 8.57775
455.110 5.85359
455.345 4.25815
455.580 3.24386
455.815 2.55908
456.285 1.71870
456.754 1.24162
457.224 0.944551
457.694 0.747237
458.634 0.512088
459.574 0.394388
460.044 0.372584
460.514 0.403411
460.749 0.478276
460.866 0.558237
460.984 0.703945
461.101 1.00185
461.160 1.27943
461.219 1.74377
461.278 2.60620
461.307 3.34039
461.336 4.46117
461.366 6.29532
461.395 9.52034
461.424 15.7869
461.439 21.1113
461.454 28.7194
461.477 45.8247
461.500 57.2308
461.523 45.8201
461.546 28.7121
461.563 20.2152
461.580 14.6395
461.596 10.9504
461.613 8.44730
461.646 5.43302
461.679 3.78753
461.713 2.80061
461.746 2.16920
461.812 1.43744
461.879 1.04619
461.945 0.813460
462.078 0.560932
462.211 0.433013
462.344 0.358606
462.609 0.277961
463.141 0.209877
463.672 0.179263
464.735 0.151172
465.798 0.144679
466.861 0.162231
467.392 0.188839
467.924 0.243008
468.455 0.364435
468.721 0.486446
468.987 0.707493
469.120 0.891701
469.252 1.16903
469.385 1.61488
469.518 2.39685
469.651 3.96194
469.717 5.40693
469.784 7.82433
469.850 12.3224
469.883 16.1595
469.917 22.0653
469.950 31.7660
469.983 49.0731
470.000 63.0645
470.016 83.1656
470.033 112.599
470.049 155.567
470.062 199.288
470.075 248.844
470.100 311.013
470.125 248.828
470.151 155.548
470.176 96.0966
470.201 62.7501
470.226 43.4238
470.251 31.5652
470.276 23.8490
470.301 18.6247
470.351 12.2192
470.401 8.60776
470.451 6.38998
470.551 3.92233
470.651 2.65499
470.751 1.92140
470.851 1.45849
470.951 1.14842
471.151 0.771043
471.351 0.559125
471.552 0.428220
471.752 0.341659
472.152 0.237724
472.552 0.179973
473.353 0.121412
474.153 0.0950456
474.954 0.0860878
475.354 0.0906963
475.754 0.114374
475.954 0.149850
476.054 0.184737
476.154 0.246013
476.255 0.367731
476.305 0.478651
476.355 0.661290
476.405 0.992853
476.430 1.26811
476.455 1.68032
476.480 2.33197
476.505 3.43162
476.530 5.42451
476.555 9.19110
476.577 14.6633
476.600 18.3077
476.623 14.6380
476.646 9.17129
476.665 6.08584
476.684 4.19580
476.703 3.02449
476.722 2.27249
476.761 1.40756
476.799 0.959632
476.837 0.699499
476.876 0.536651
476.952 0.351773
477.029 0.255155
477.106 0.198441
477.259 0.137894
477.566 0.0907642
477.873 0.0729971
478.486 0.0603359
479.100 0.0586316
479.713 0.0656888
480.020 0.0752542
480.327 0.0940402
480.634 0.135074
480.787 0.175599
480.941 0.247863
481.094 0.395277
481.171 0.534147
481.247 0.771340
481.324 1.22585
481.363 1.62757
481.401 2.26565
481.439 3.36926
481.478 5.48453
481.497 7.33422
481.516 10.1776
481.535 14.7675
481.554 22.1755
481.577 35.4946
481.600 44.3232
481.623 35.4310
481.646 22.1731
481.661 16.0731
481.676 11.9117
481.706 7.05632
481.736 4.58315
481.766 3.19385
481.795 2.34677
481.825 1.79582
481.885 1.14990
481.945 0.801688
482.005 0.593373
482.124 0.367721
482.244 0.254521
482.363 0.189856
482.603 0.122539
482.842 0.0899022
483.081 0.0715758
483.559 0.0526276
484.516 0.0381013
485.472 0.0324936
487.385 0.0283927
489.298 0.0283423
491.211 0.0325959
492.168 0.0379840
493.124 0.0484875
494.081 0.0715878
494.559 0.0947400
495.037 0.136865
495.276 0.172231
495.516 0.225966
495.755 0.313428
495.994 0.470110
496.113 0.599823
496.233 0.794431
496.353 1.10565
496.472 1.64838
496.592 2.72619
496.651 3.71424
496.711 5.35018
496.771 8.35376
496.801 10.8849
496.831 14.7284
496.861 20.9232
496.891 31.6721
496.920 51.9677
496.935 68.7191
496.950 92.3424
496.963 118.298
496.975 147.714
497.000 184.618
497.025 147.706
497.050 92.3327
497.073 59.2090
497.095 39.6902
497.118 27.9755
497.141 20.6025
497.186 12.3713
497.231 8.19392
497.277 5.81001
497.322 4.32908
497.413 2.66895
497.504 1.80947
497.595 1.30932
497.685 0.993327
497.776 0.781485
497.958 0.524009
498.139 0.380585
498.321 0.293695
498.502 0.238580
498.865 0.183172
499.228 0.186803
499.410 0.229991
499.501 0.278149
499.591 0.365882
499.682 0.542525
499.728 0.703491
499.773 0.965978
499.818 1.43542
499.864 2.38531
499.886 3.25960
499.909 4.68804
499.932 7.15989
499.954 11.5311
499.977 18.4183
500.000 22.9803
500.023 18.3855
500.046 11.5290
500.060 8.55501
500.074 6.45810
500.101 3.94158
500.129 2.61611
500.157 1.85691
500.185 1.38474
500.212 1.07418
500.268 0.706292
500.324 0.504998
500.379 0.383530
500.490 0.250041
500.601 0.181750
500.712 0.141890
500.934 0.0989285
501.379 0.0636943
501.823 0.0488075
502.712 0.0355961
503.600 0.0299629
504.489 0.0279082
505.377 0.0301274
505.822 0.0354985
506.266 0.0519110
506.488 0.0743948
506.710 0.134246
506.821 0.210162
506.877 0.279998
506.932 0.395899
506.988 0.609431
507.016 0.789965
507.044 1.06376
507.071 1.50814
507.099 2.28002
507.127 3.75342
507.141 4.98391
507.155 6.71695
507.177 10.7409
507.200 13.4061
507.223 10.7225
507.246 6.71744
507.273 3.79829
507.300 2.33321
507.327 1.55237
507.354 1.10037
507.381 0.818226
507.408 0.632814
507.462 0.412231
507.516 0.291458
507.570 0.218697
507.678 0.139149
507.894 0.0758612
508.110 0.0517415
508.542 0.0334154
508.975 0.0266054
509.839 0.0214414
510.704 0.0195186
514.162 0.0180913
517.620 0.0195222
521.078 0.0230254
524.537 0.0298837
527.995 0.0446455
529.724 0.0600448
530.588 0.0728940
531.453 0.0933521
532.318 0.131477
532.750 0.166199
533.182 0.225955
533.614 0.346873
533.830 0.462760
534.047 0.667545
534.263 1.08648
534.371 1.48528
534.479 2.17616
534.587 3.53649
534.641 4.77149
534.695 6.80152
534.749 10.4822
534.776 13.5369
534.803 18.1110
534.830 25.3427
534.857 37.5501
534.871 46.8992
534.884 59.6888
534.898 77.3582
534.911 101.585
534.923 130.142
534.936 162.513
534.960 203.146
534.972 191.099
534.985 162.506
535.009 101.577
535.024 74.9472
535.039 56.2714
535.069 34.0052
535.100 22.3588
535.130 15.7019
535.160 11.5950
535.190 8.90152
535.251 5.71852
535.311 3.99001
535.371 2.95154
535.492 1.82294
535.613 1.25749
535.734 0.935856
535.975 0.605577
536.217 0.451570
536.459 0.370990
536.942 0.303353
537.425 0.291530
537.908 0.309178
538.875 0.418411
539.358 0.523543
539.841 0.688372
540.324 0.960392
540.807 1.45020
541.049 1.85569
541.291 2.46322
541.532 3.43215
541.774 5.11604
541.895 6.46699
542.015 8.43266
542.136 11.4475
542.257 16.4040
542.378 25.3674
542.438 32.8130
542.499 43.9567
542.559 61.5617
542.619 91.2453
542.680 144.981
542.710 187.791
542.740 246.170
542.795 393.728
542.850 492.018
542.905 393.365
542.960 245.867
543.024 140.334
543.088 86.5398
543.152 57.6067
543.216 40.7558
543.280 30.2107
543.344 23.2424
543.472 14.9292
543.600 10.3695
543.728 7.61473
543.984 4.60002
544.241 3.07631
544.497 2.20224
544.753 1.65522
545.009 1.29059
545.521 0.849876
546.033 0.604270
546.545 0.453806
547.057 0.355386
548.082 0.240209
549.106 0.182525
549.618 0.169242
550.130 0.173714
550.386 0.194439
550.642 0.261316
550.771 0.351737
550.835 0.436833
550.899 0.580941
550.963 0.852154
550.995 1.08648
551.027 1.45116
551.059 2.05930
551.091 3.16850
551.107 4.08510
551.123 5.42933
551.139 7.44802
551.155 10.4789
551.177 16.7089
551.200 20.8370
551.223 16.6798
551.246 10.4784
551.260 7.69874
551.274 5.77897
551.303 3.50404
551.332 2.32674
551.360 1.66022
551.389 1.24911
551.418 0.980338
551.475 0.663918
551.532 0.491941
551.590 0.388704
551.704 0.275933
551.819 0.218861
551.934 0.185914
552.163 0.151114
552.622 0.124486
553.080 0.115780
553.998 0.117464
554.915 0.139656
555.833 0.200162
556.292 0.263966
556.750 0.381977
556.980 0.481632
557.209 0.633325
557.438 0.880383
557.668 1.32193
557.782 1.68637
557.897 2.23126
558.012 3.09823
558.126 4.59852
558.241 7.54134
558.298 10.2057
558.356 14.5544
558.413 22.3689
558.442 28.8085
558.470 38.3289
558.499 53.2448
558.528 77.8887
558.542 96.5795
558.556 121.606
558.571 155.573
558.585 201.285
558.613 322.101
558.640 402.667
558.668 322.081
558.695 201.262
558.713 144.732
558.732 106.317
558.769 62.2459
558.805 40.0897
558.842 27.7484
558.879 20.2666
558.916 15.4201
558.989 9.76633
559.063 6.72510
559.137 4.91084
559.284 2.95108
559.431 1.97147
559.578 1.41395
559.725 1.06679
559.872 0.836247
560.166 0.559151
560.461 0.406163
560.755 0.313987
561.049 0.255702
561.638 0.197197
562.226 0.201762
562.521 0.249798
562.668 0.304212
562.815 0.405614
562.962 0.617145
563.036 0.817653
563.109 1.15953
563.183 1.81265
563.220 2.38558
563.256 3.28851
563.293 4.83240
563.330 7.74875
563.348 10.2469
563.367 14.0404
563.385 19.9934
563.403 29.3293
563.427 46.9270
563.450 58.5935
563.473 46.8437
563.497 29.3246
563.513 20.9453
563.529 15.3050
563.545 11.5133
563.561 8.92117
563.593 5.73519
563.625 3.97810
563.657 2.91407
563.688 2.22901
563.752 1.42959
563.816 1.00106
563.880 0.745442
564.008 0.468686
564.136 0.329693
564.264 0.249834
564.519 0.165586
564.775 0.123680
565.030 0.0993417
565.541 0.0727585
566.564 0.0498064
567.586 0.0392861
569.631 0.0291511
571.675 0.0244572
573.720 0.0224278
575.765 0.0231914
576.787 0.0260418
577.810 0.0351350
578.321 0.0479245
578.832 0.0834063
579.087 0.130960
579.215 0.176904
579.343 0.257704
579.471 0.419930
579.535 0.570505
579.599 0.823779
579.663 1.29804
579.695 1.70733
579.726 2.34097
579.758 3.39853
579.790 5.31524
579.806 6.89912
579.822 9.19936
579.838 12.6613
579.854 17.8026
579.877 28.5084
579.900 35.6081
579.923 28.4576
579.946 17.8012
579.973 10.0330
580.001 6.13338
580.028 4.06247
580.056 2.86669
580.083 2.12376
580.110 1.63403
580.165 1.05308
580.220 0.735231
580.275 0.543856
580.384 0.334689
580.494 0.229243
580.603 0.168838
580.822 0.105920
581.041 0.0755590
581.260 0.0586813
581.698 0.0416405
582.574 0.0296758
583.450 0.0263462
584.326 0.0264971
585.202 0.0309638
585.641 0.0377741
586.079 0.0566316
586.298 0.0816597
586.517 0.147518
586.626 0.230570
586.736 0.432971
586.790 0.664850
586.845 1.15618
586.872 1.63466
586.900 2.46575
586.927 4.03742
586.941 5.34173
586.955 7.16949
586.977 11.4683
587.000 14.3178
587.023 11.4487
587.046 7.17010
587.069 4.37231
587.092 2.82703
587.115 1.94589
587.139 1.41332
587.185 0.837206
587.232 0.553925
587.325 0.298227
587.418 0.190556
587.604 0.103767
587.790 0.0705210
588.162 0.0455667
588.534 0.0367642
589.278 0.0311489
590.022 0.0302523
591.510 0.0328021
592.999 0.0389701
594.487 0.0502931
595.975 0.0744252
596.720 0.101064
597.092 0.124731
597.464 0.164700
597.836 0.244089
598.022 0.319272
598.208 0.450870
598.394 0.717330
598.487 0.968527
598.580 1.40020
598.673 2.23809
598.719 2.98891
598.766 4.20526
598.812 6.35793
598.836 8.11179
598.859 10.6696
598.882 14.6117
598.905 20.9658
598.929 31.8770
598.952 50.9154
598.964 65.2537
598.976 81.5049
599.000 101.797
599.024 81.3673
599.048 50.9137
599.072 31.4517
599.096 20.5527
599.120 14.2420
599.143 10.3725
599.167 7.85553
599.191 6.15261
599.239 4.06588
599.286 2.89031
599.334 2.16927
599.429 1.36808
599.525 0.958992
599.620 0.723658
599.810 0.480024
600.001 0.365949
600.192 0.306654
600.573 0.258814
601.335 0.273147
602.097 0.374493
602.478 0.469994
602.860 0.619212
603.241 0.865620
603.622 1.31052
603.812 1.68035
604.003 2.23676
604.194 3.12939
604.384 4.69308
604.575 7.81681
604.670 10.6990
604.765 15.5085
604.813 19.2273
604.861 24.4297
604.908 32.0419
604.956 43.7088
605.004 62.8573
605.051 96.7966
605.075 124.099
605.099 163.144
605.123 220.001
605.146 302.495
605.183 484.196
605.220 604.857
605.257 483.623
605.294 302.444
605.324 202.745
605.354 140.657
605.384 101.648
605.414 76.3044
605.474 46.9547
605.534 31.5633
605.594 22.5831
605.655 16.9355
605.775 10.5127
605.895 7.14676
606.015 5.17283
606.135 3.91746
606.256 3.07044
606.496 2.03427
606.737 1.44968
606.977 1.08795
607.217 0.849165
607.698 0.564175
608.179 0.408554
608.660 0.316330
609.141 0.259770
610.103 0.210785
610.584 0.213855
611.065 0.244183
611.546 0.332131
611.786 0.426316
612.026 0.600133
612.267 0.965645
612.387 1.31804
612.507 1.93377
612.628 3.15555
612.688 4.27208
612.748 6.11869
612.808 9.48751
612.838 12.3167
612.868 16.5748
612.898 23.4088
612.928 35.0966
612.958 56.8831
612.973 74.6081
612.988 99.3220
613.014 158.890
613.040 198.605
613.066 158.881
613.092 99.3112
613.108 72.4070
613.125 53.8121
613.158 32.0381
613.191 20.8598
613.225 14.5483
613.258 10.6866
613.291 8.16874
613.357 5.21290
613.424 3.61266
613.490 2.65512
613.623 1.61464
613.756 1.09214
613.888 0.793625
614.021 0.606977
614.154 0.482454
614.419 0.331524
614.685 0.246790
615.215 0.159347
615.746 0.116979
616.277 0.0930372
617.339 0.0682476
618.401 0.0567055
619.463 0.0512691
621.586 0.0511113
623.710 0.0659924
624.772 0.0842539
625.833 0.119394
626.364 0.149607
626.895 0.196140
627.426 0.272820
627.957 0.412066
628.223 0.528678
628.488 0.705424
628.753 0.992165
629.019 1.50264
629.152 1.92275
629.284 2.54852
629.417 3.54011
629.550 5.24815
629.683 8.57041
629.749 11.5483
629.815 16.3617
629.882 24.8807
629.915 31.7943
629.948 41.8688
629.981 57.3309
630.014 82.2846
630.048 124.755
630.081 198.464
630.115 317.608
630.150 397.058
630.185 317.580
630.219 198.435
630.246 135.644
630.273 95.6986
630.300 69.9599
630.327 52.9751
630.381 32.9817
630.434 22.3481
630.488 16.0751
630.541 12.1014
630.649 7.54655
630.756 5.14585
630.863 3.73073
630.971 2.82816
631.078 2.21785
631.293 1.46967
631.507 1.04614
631.722 0.783460
631.936 0.609426
632.366 0.400415
632.795 0.284527
633.224 0.213642
633.653 0.167148
634.512 0.111885
635.370 0.0815690
636.229 0.0631953
637.087 0.0512728
638.804 0.0374598
640.521 0.0306286
642.238 0.0293454
643.096 0.0385420
643.311 0.0484627
643.525 0.0750085
643.633 0.108634
643.740 0.190550
643.794 0.284169
643.847 0.481722
643.874 0.673642
643.901 1.00392
643.928 1.62265
643.955 2.84646
643.977 4.54287
644.000 5.67495
644.023 4.54299
644.045 2.84658
644.062 2.00199
644.078 1.44612
644.111 0.832059
644.144 0.534781
644.177 0.373467
644.242 0.214950
644.308 0.143526
644.439 0.0829443
644.570 0.0586909
645.094 0.0325597
646.143 0.0252711
648.240 0.0244853
650.337 0.0274480
652.434 0.0344315
654.531 0.0501135
655.579 0.0656948
656.628 0.0938242
657.152 0.117343
657.676 0.153082
658.201 0.211420
658.725 0.316712
658.987 0.404736
659.249 0.538168
659.511 0.754879
659.773 1.14220
659.904 1.46222
660.036 1.94145
660.167 2.70599
660.298 4.03476
660.429 6.65900
660.494 9.04810
660.560 12.9851
660.625 20.1453
660.658 26.1207
660.691 35.0715
660.724 49.3336
660.756 73.4917
660.773 92.1638
660.789 117.861
660.806 153.605
660.822 202.609
660.851 324.031
660.880 404.921
660.909 324.012
660.938 202.587
660.958 146.134
660.977 107.782
661.015 63.3858
661.054 40.9345
661.092 28.3820
661.131 20.7531
661.169 15.8026
661.246 10.0123
661.323 6.89813
661.400 5.03828
661.554 3.02644
661.708 2.02095
661.862 1.44820
662.016 1.09163
662.170 0.855028
662.478 0.570571
662.786 0.413354
663.094 0.317975
663.402 0.256395
664.018 0.186146
664.634 0.152089
665.866 0.134966
667.098 0.167551
667.713 0.212551
668.329 0.299644
668.637 0.374101
668.945 0.487918
669.253 0.673601
669.561 1.00610
669.715 1.28102
669.869 1.69290
670.023 2.35032
670.177 3.49397
670.331 5.75555
670.408 7.81982
670.485 11.2293
670.562 17.4391
670.601 22.6355
670.639 30.4708
670.678 42.9765
670.716 64.3720
670.735 81.0206
670.755 103.936
670.774 135.984
670.793 180.495
670.827 288.673
670.860 360.750
670.894 288.652
670.927 180.473
670.963 107.799
670.998 68.6628
671.034 46.7103
671.070 33.5498
671.105 25.1365
671.141 19.5025
671.212 12.6811
671.283 8.88437
671.355 6.57085
671.497 4.01679
671.640 2.71798
671.782 1.97096
671.925 1.50369
672.067 1.19333
672.352 0.823393
672.637 0.625780
672.922 0.516266
673.207 0.460493
673.777 0.470525
674.062 0.550432
674.347 0.727664
674.632 1.12871
674.774 1.52614
674.917 2.23084
675.059 3.64962
675.131 4.96647
675.202 7.17267
675.273 11.2900
675.309 14.8126
675.344 20.2500
675.380 29.2164
675.416 45.3063
675.433 58.3891
675.451 77.2866
675.469 105.142
675.487 146.109
675.513 233.986
675.540 292.312
675.553 274.914
675.567 233.622
675.593 146.092
675.614 99.4537
675.635 69.8580
675.656 50.9622
675.677 38.5469
675.719 23.9699
675.760 16.2296
675.802 11.6740
675.844 8.79527
675.927 5.50293
676.011 3.76735
676.094 2.74587
676.178 2.09342
676.261 1.65250
676.428 1.11073
676.595 0.803045
676.762 0.611376
676.928 0.483768
677.262 0.328999
677.596 0.241802
678.264 0.151148
678.931 0.106587
679.599 0.0809803
680.934 0.0535882
682.269 0.0396750
683.604 0.0315302
686.274 0.0228760
688.944 0.0189080
691.614 0.0174746
694.285 0.0194716
695.620 0.0289764
695.953 0.0382590
696.287 0.0631964
696.454 0.0956997
696.621 0.179172
696.704 0.281324
696.788 0.518975
696.830 0.776218
696.871 1.28411
696.892 1.74138
696.913 2.46605
696.934 3.68315
696.955 5.74599
696.977 9.17935
697.000 11.4667
697.023 9.17967
697.045 5.74642
697.071 3.36382
697.096 2.11269
697.121 1.42617
697.147 1.02211
697.197 0.595796
697.248 0.390843
697.349 0.209010
697.450 0.133531
697.652 0.0733074
697.854 0.0504437
698.258 0.0334407
698.662 0.0275539
700.278 0.0239083
701.895 0.0272808
703.511 0.0351046
705.127 0.0518881
705.936 0.0681882
706.744 0.0972387
707.148 0.121335
707.552 0.157759
707.956 0.216902
708.360 0.323083
708.562 0.411451
708.764 0.544893
708.966 0.760757
709.168 1.14404
709.269 1.45906
709.370 1.92768
709.471 2.66939
709.572 3.94530
709.673 6.41982
709.724 8.63264
709.774 12.2075
709.825 18.5059
709.850 23.6121
709.875 31.0261
709.901 42.3754
709.926 60.5147
709.951 91.2742
709.964 114.207
709.976 144.142
710.003 230.793
710.030 288.276
710.044 271.135
710.057 230.439
710.084 144.130
710.102 102.308
710.121 74.4643
710.140 55.7375
710.158 42.9898
710.196 27.4518
710.233 18.9146
710.270 13.7622
710.307 10.4508
710.382 6.59715
710.456 4.53578
710.531 3.31198
710.680 1.99349
710.829 1.33702
710.978 0.964800
711.127 0.733882
711.276 0.581480
711.574 0.400313
711.872 0.302843
712.469 0.214735
713.065 0.195199
713.363 0.205817
713.661 0.237061
713.959 0.311031
714.108 0.384299
714.257 0.513610
714.406 0.774222
714.481 1.01723
714.555 1.42917
714.630 2.21158
714.667 2.89774
714.704 3.97947
714.742 5.83150
714.779 9.32689
714.797 12.3456
714.816 16.9193
714.835 24.1172
714.853 35.5222
714.877 56.7130
714.900 70.8290
714.923 56.7136
714.947 35.5251
714.973 20.6538
715.000 12.9444
715.026 8.72571
715.053 6.25647
715.079 4.69802
715.106 3.66615
715.158 2.43020
715.211 1.75021
715.264 1.34042
715.370 0.895044
715.475 0.675498
715.581 0.555456
715.793 0.447187
716.004 0.419429
716.215 0.433965
716.638 0.564077
716.850 0.695220
717.061 0.902555
717.272 1.24525
717.484 1.85997
717.590 2.36582
717.695 3.11864
717.801 4.30774
717.907 6.34475
718.012 10.2660
718.065 13.7474
718.118 19.3100
718.171 28.9980
718.197 36.7130
718.224 47.8070
718.250 64.4945
718.277 90.5503
718.303 133.132
718.329 203.701
718.360 325.780
718.390 407.109
718.420 325.760
718.451 203.679
718.469 151.414
718.487 114.398
718.523 69.8132
718.560 46.1117
718.596 32.4816
718.632 23.9969
718.669 18.4230
718.741 11.7952
718.814 8.17957
718.887 5.99982
719.032 3.62223
719.178 2.42272
719.323 1.73541
719.468 1.30545
719.614 1.01891
719.904 0.672162
720.195 0.478448
720.486 0.359206
720.777 0.280624
721.358 0.186610
721.940 0.134600
722.521 0.102833
723.103 0.0820606
724.266 0.0577962
725.429 0.0460670
726.592 0.0476666
726.882 0.0557142
727.173 0.0799430
727.319 0.112385
727.464 0.195485
727.537 0.295615
727.609 0.522954
727.646 0.761885
727.682 1.21403
727.700 1.60420
727.718 2.19579
727.737 3.13433
727.755 4.61711
727.777 7.36487
727.800 9.19490
727.823 7.36497
727.845 4.61713
727.860 3.37818
727.874 2.52028
727.903 1.51597
727.932 0.996939
727.961 0.704341
728.019 0.407402
728.077 0.269595
728.193 0.150025
728.308 0.101294
728.540 0.0626330
728.771 0.0478414
729.697 0.0325026
730.623 0.0307833
731.549 0.0338394
732.475 0.0440907
732.938 0.0552946
733.401 0.0762705
733.864 0.121362
734.095 0.165945
734.327 0.246050
734.442 0.312527
734.558 0.412287
734.674 0.571956
734.790 0.850938
734.905 1.40587
734.963 1.91534
735.021 2.76013
735.079 4.31471
735.108 5.62500
735.137 7.61764
735.166 10.8504
735.195 16.4642
735.224 27.1208
735.238 36.0355
735.252 48.5901
735.264 62.2041
735.276 77.7698
735.300 97.2363
735.324 77.7670
735.348 48.5867
735.366 33.0476
735.385 23.1959
735.404 16.9109
735.422 12.7858
735.460 7.94322
735.497 5.37321
735.534 3.86086
735.572 2.90583
735.646 1.81405
735.721 1.23882
735.796 0.900596
735.870 0.684975
735.945 0.539217
736.094 0.360487
736.243 0.259352
736.542 0.155095
736.840 0.105153
737.139 0.0774258
737.736 0.0492544
738.333 0.0359131
738.930 0.0285356
740.124 0.0210579
742.513 0.0156624
744.901 0.0140193
749.678 0.0144259
752.066 0.0167687
753.261 0.0222256
753.858 0.0395331
754.156 0.0960595
754.231 0.144836
754.306 0.255833
754.343 0.372931
754.380 0.596855
754.417 1.09021
754.436 1.56919
754.455 2.33682
754.477 3.73050
754.500 4.65361
754.523 3.72412
754.545 2.33706
754.577 1.21988
754.608 0.712911
754.671 0.323515
754.733 0.186438
754.796 0.124083
754.921 0.0708824
755.046 0.0495925
755.547 0.0271559
756.548 0.0222404
758.550 0.0249059
760.552 0.0337019
761.553 0.0502727
761.804 0.0637018
762.054 0.0975014
762.179 0.139748
762.304 0.243657
762.367 0.365063
762.429 0.630344
762.461 0.898065
762.492 1.38293
762.523 2.36090
762.539 3.22183
762.555 4.50171
762.577 7.19047
762.600 8.97456
762.623 7.17839
762.646 4.50256
762.664 3.06050
762.682 2.15175
762.718 1.19628
762.754 0.755507
762.790 0.523326
762.863 0.301030
762.935 0.203250
763.080 0.122250
763.224 0.0909634
763.514 0.0683225
763.803 0.0616836
764.960 0.0664421
766.118 0.0878074
767.275 0.129123
767.854 0.164131
768.433 0.217563
769.011 0.304960
769.590 0.462671
769.879 0.594192
770.169 0.792915
770.458 1.11412
770.747 1.68323
770.892 2.14926
771.037 2.84091
771.181 3.93071
771.326 5.79104
771.471 9.36168
771.543 12.5200
771.615 17.5516
771.688 26.2659
771.724 33.1853
771.760 43.0608
771.796 57.7966
771.832 80.6169
771.869 117.602
771.905 177.915
771.947 284.839
771.990 355.910
772.033 284.544
772.075 177.886
772.110 119.809
772.144 83.5146
772.178 60.5692
772.213 45.5487
772.281 28.1160
772.350 18.9369
772.419 13.5681
772.487 10.1849
772.624 6.33061
772.762 4.30766
772.899 3.11995
773.036 2.36361
773.173 1.85344
773.448 1.22896
773.722 0.876209
773.997 0.657835
774.271 0.513468
774.820 0.340559
775.369 0.245199
775.918 0.187318
776.467 0.149796
777.565 0.106366
778.663 0.0841350
780.859 0.0672104
783.055 0.0702625
784.152 0.0794007
785.250 0.0974630
786.348 0.134880
786.897 0.170330
787.446 0.232249
787.995 0.358462
788.270 0.479745
788.544 0.694250
788.819 1.13379
788.956 1.55338
789.093 2.28283
789.230 3.72698
789.299 5.04666
789.368 7.23131
789.436 11.2251
789.470 14.5807
789.505 19.6616
789.539 27.8183
789.573 41.8925
789.591 52.9399
789.608 68.2506
789.625 90.0037
789.642 120.358
789.671 192.654
789.700 240.635
789.729 192.381
789.758 120.351
789.778 86.4905
789.797 63.5080
789.817 47.9423
789.836 37.1809
789.875 23.9656
789.914 16.6124
789.953 12.1580
789.992 9.27437
790.070 5.91313
790.148 4.10752
790.226 3.03313
790.382 1.87448
790.538 1.29966
790.694 0.976586
791.006 0.652693
791.317 0.512285
791.629 0.452324
792.253 0.458407
792.877 0.617001
793.189 0.797784
793.500 1.13060
793.812 1.82306
793.968 2.48487
794.124 3.63307
794.280 5.89089
794.358 7.93920
794.436 11.2947
794.514 17.3516
794.553 22.3686
794.592 29.8327
794.631 41.6023
794.670 61.3364
794.709 96.7750
794.728 124.800
794.748 162.720
794.784 260.362
794.820 325.200
794.856 260.059
794.892 162.705
794.930 97.8737
794.968 62.6766
795.006 42.8146
795.044 30.8571
795.082 23.1913
795.120 18.0457
795.196 11.8029
795.272 8.32219
795.347 6.19925
795.499 3.85688
795.651 2.66732
795.802 1.98676
796.106 1.28952
796.409 0.973829
796.712 0.825037
797.319 0.777880
797.926 1.00109
798.229 1.27796
798.532 1.79579
798.836 2.87754
798.988 3.91046
799.139 5.69581
799.215 7.12303
799.291 9.18737
799.367 12.3336
799.442 17.4618
799.480 21.3363
799.518 26.6358
799.556 34.1532
799.594 45.2645
799.632 62.5232
799.670 90.9392
799.708 140.671
799.727 179.207
799.746 230.465
799.783 368.597
799.820 460.282
799.857 368.182
799.894 230.144
799.919 166.409
799.943 122.979
799.992 72.6127
800.041 47.0771
800.090 32.8004
800.139 24.0946
800.188 18.4444
800.285 11.8444
800.383 8.29891
800.481 6.19392
800.676 3.94690
800.872 2.87059
801.067 2.31496
801.458 1.96054
801.849 2.31602
802.045 2.86907
802.240 3.93276
802.436 6.12658
802.534 8.15609
802.631 11.5147
802.729 17.6318
802.778 22.7352
802.827 30.3806
802.876 42.5290
802.925 63.0685
802.974 100.585
802.998 130.602
803.022 171.882
803.066 274.895
803.110 343.323
803.154 274.605
803.198 171.828
803.232 117.296
803.266 82.6639
803.300 60.4685
803.334 45.7841
803.403 28.5385
803.471 19.3786
803.539 13.9821
803.607 10.5632
803.744 6.64421
803.880 4.57568
804.017 3.35341
804.290 2.04067
804.563 1.38519
804.836 1.00996
805.382 0.615913
805.928 0.421657
806.473 0.310522
807.565 0.192923
808.657 0.134121
809.749 0.100041
811.933 0.0635601
814.117 0.0452448
816.300 0.0347692
820.668 0.0243418
825.035 0.0211219
827.219 0.0218536
829.403 0.0251639
831.587 0.0342037
832.678 0.0438680
833.770 0.0619413
834.316 0.0773476
834.862 0.101009
835.408 0.139976
835.954 0.210785
836.227 0.270178
836.500 0.360407
836.773 0.507147
837.046 0.769469
837.182 0.986172
837.319 1.31055
837.455 1.82761
837.592 2.72503
837.728 4.49305
837.797 6.10132
837.865 8.74102
837.933 13.5209
837.967 17.4850
838.001 23.4147
838.035 32.7757
838.070 48.5434
838.087 60.6352
838.104 77.0490
838.121 99.8108
838.138 130.763
838.169 209.366
838.200 261.547
838.231 209.086
838.262 130.751
838.282 95.7008
838.302 71.3522
838.341 42.6622
838.381 27.8383
838.420 19.4496
838.459 14.2864
838.499 10.9137
838.577 6.94682
838.656 4.79651
838.735 3.50846
838.892 2.10904
839.050 1.40630
839.207 1.00509
839.365 0.754511
839.522 0.587849
839.837 0.386738
840.152 0.274706
840.467 0.205984
840.782 0.160822
841.412 0.107042
842.041 0.0774869
842.671 0.0595437
843.301 0.0478642
844.561 0.0341812
845.820 0.0269448
848.340 0.0207612
850.859 0.0206168
852.119 0.0230251
853.378 0.0286646
854.638 0.0419317
855.268 0.0555316
855.897 0.0805481
856.527 0.133959
856.842 0.186761
857.157 0.281959
857.315 0.361225
857.472 0.480697
857.630 0.673219
857.787 1.01246
857.866 1.28905
857.944 1.69684
858.023 2.33451
858.102 3.41218
858.181 5.44845
858.220 7.21740
858.259 9.97996
858.299 14.6418
858.338 23.2461
858.358 30.4807
858.377 41.2499
858.397 57.7260
858.417 82.8283
858.443 132.543
858.470 165.487
858.497 132.339
858.523 82.6673
858.549 51.4769
858.575 33.8071
858.601 23.4862
858.627 17.1174
858.653 12.9696
858.679 10.1394
858.731 6.65906
858.783 4.69418
858.834 3.48234
858.938 2.13183
859.042 1.43781
859.145 1.03529
859.249 0.781444
859.352 0.611211
859.560 0.404211
859.767 0.288092
859.974 0.216498
860.181 0.169281
860.596 0.112872
861.010 0.0818236
861.425 0.0630161
861.839 0.0508868
862.668 0.0373673
863.497 0.0328845
864.326 0.0465246
864.533 0.0636208
864.740 0.110070
864.844 0.169005
864.947 0.311987
864.999 0.474076
865.051 0.813406
865.077 1.13802
865.103 1.69138
865.129 2.70926
865.154 4.67246
865.177 7.46657
865.200 9.32998
865.223 7.46662
865.246 4.67242
865.269 2.85298
865.292 1.85012
865.315 1.27460
865.339 0.926589
865.385 0.549940
865.432 0.364618
865.525 0.197150
865.618 0.126455
865.804 0.0691446
865.990 0.0468472
866.733 0.0227130
868.221 0.0147565
871.197 0.0115272
877.147 0.0118078
880.123 0.0143761
881.610 0.0170467
883.098 0.0218879
884.586 0.0320736
885.330 0.0421048
886.074 0.0602620
886.817 0.0987092
887.189 0.136661
887.561 0.205204
887.747 0.262437
887.933 0.349064
888.119 0.489298
888.305 0.738364
888.398 0.942883
888.491 1.24721
888.584 1.72840
888.677 2.55355
888.770 4.15017
888.817 5.57300
888.863 7.86296
888.910 11.8749
888.956 19.7775
888.979 26.8725
889.003 38.0918
889.026 56.7513
889.037 70.5288
889.049 88.3456
889.062 113.118
889.075 141.419
889.100 176.601
889.113 166.181
889.126 141.193
889.151 88.3400
889.172 58.9767
889.193 40.8508
889.214 29.4454
889.235 22.0701
889.277 13.5498
889.319 9.10365
889.362 6.51061
889.404 4.87921
889.488 3.02841
889.572 2.05910
889.656 1.49124
889.740 1.12986
889.824 0.886420
889.993 0.588589
890.161 0.420475
890.329 0.316434
890.498 0.247636
890.834 0.165235
891.171 0.119710
891.507 0.0919964
891.844 0.0739295
892.517 0.0527151
893.190 0.0413747
894.537 0.0307791
895.883 0.0268820
897.230 0.0259400
899.922 0.0290612
902.615 0.0388103
903.961 0.0478944
905.308 0.0626506
906.654 0.0895792
907.327 0.113133
908.001 0.151996
908.674 0.226892
909.010 0.296401
909.347 0.417020
909.684 0.661161
909.852 0.893699
910.020 1.30015
910.188 2.11436
910.273 2.87174
910.357 4.14866
910.441 6.55909
910.483 8.65254
910.525 11.9227
910.567 17.4422
910.588 21.6987
910.609 27.6387
910.630 36.2429
910.651 49.0005
910.672 68.5210
910.693 98.4590
910.722 157.397
910.750 196.666
910.778 157.393
910.807 98.4576
910.827 68.9828
910.848 49.6043
910.869 36.8473
910.889 28.2626
910.930 17.9327
910.971 12.3159
911.013 8.95906
911.054 6.81598
911.136 4.34233
911.218 3.02886
911.300 2.25399
911.465 1.42726
911.629 1.02427
911.794 0.803107
912.123 0.595300
912.452 0.524868
912.781 0.520867
913.439 0.649732
913.768 0.794156
914.097 1.02673
914.426 1.41371
914.755 2.10858
914.919 2.68001
915.084 3.52908
915.248 4.86691
915.412 7.14822
915.495 8.94712
915.577 11.5150
915.659 15.3648
915.741 21.4775
915.824 32.0078
915.865 40.3129
915.906 52.1400
915.947 69.6233
915.988 96.5399
916.029 139.548
916.070 208.928
916.120 334.433
916.170 417.882
916.220 334.130
916.270 208.891
916.306 145.478
916.343 104.159
916.380 77.0274
916.416 58.8231
916.490 37.0605
916.563 25.2991
916.636 18.2939
916.709 13.8227
916.856 8.66434
917.002 5.92797
917.149 4.30811
917.295 3.27182
917.442 2.56946
917.735 1.70605
918.028 1.21614
918.321 0.911621
918.614 0.709488
919.200 0.466183
919.786 0.330892
920.372 0.247946
920.958 0.193445
922.130 0.128579
923.302 0.0930332
924.474 0.0716372
925.646 0.0579875
927.990 0.0432572
930.335 0.0392436
931.507 0.0424600
932.679 0.0562965
933.265 0.0766655
933.558 0.0970007
933.851 0.133779
934.144 0.210715
934.290 0.285335
934.437 0.417142
934.583 0.683650
934.657 0.933157
934.730 1.35589
934.803 2.15926
934.840 2.86023
934.876 3.96466
934.913 5.84722
934.950 9.37380
934.968 12.3756
934.986 16.9061
935.004 23.9607
935.023 34.9998
935.035 44.8473
935.046 55.9963
935.070 69.9012
935.094 55.9004
935.117 34.9980
935.140 22.1327
935.162 14.6839
935.184 10.2768
935.207 7.53213
935.251 4.49890
935.296 2.97654
935.340 2.11047
935.385 1.57564
935.474 0.976845
935.563 0.667975
935.652 0.488788
935.830 0.299779
936.009 0.207514
936.187 0.155857
936.543 0.103327
937.256 0.0658922
937.969 0.0543656
939.395 0.0524714
940.821 0.0649950
941.534 0.0779137
942.247 0.0986272
942.960 0.133422
943.673 0.197263
944.030 0.251005
944.386 0.332812
944.743 0.466114
945.099 0.705105
945.278 0.903011
945.456 1.19976
945.634 1.67452
945.812 2.50260
945.991 4.14604
946.080 5.65068
946.169 8.14491
946.258 12.7124
946.303 16.5613
946.347 22.3846
946.392 31.7743
946.436 47.9860
946.458 60.7309
946.481 78.5501
946.503 103.804
946.525 139.191
946.563 222.745
946.600 278.464
946.637 222.731
946.675 139.176
946.704 95.4941
946.732 67.5711
946.761 49.5626
946.789 37.5894
946.847 23.4553
946.904 15.9159
946.961 11.4607
947.018 8.63462
947.133 5.39369
947.247 3.68173
947.362 2.67198
947.476 2.02772
947.591 1.59228
947.820 1.05784
948.049 0.755419
948.278 0.567805
948.506 0.443626
948.964 0.294680
949.422 0.212354
949.880 0.162297
950.338 0.129782
951.254 0.0920853
952.170 0.0728384
954.001 0.0591593
955.833 0.0666120
956.749 0.0811051
957.664 0.110919
958.122 0.137079
958.580 0.177666
959.038 0.244824
959.496 0.367018
959.725 0.469397
959.954 0.624532
960.183 0.876077
960.412 1.32334
960.526 1.69081
960.641 2.23784
960.755 3.10320
960.870 4.58839
960.984 7.46420
961.041 10.0264
961.099 14.1520
961.156 21.4016
961.185 27.2287
961.213 35.6828
961.242 48.4895
961.270 68.8617
961.299 102.860
961.328 160.667
961.359 257.165
961.390 321.195
961.421 256.824
961.453 160.653
961.483 99.9835
961.514 65.5318
961.544 45.4580
961.574 33.1266
961.605 25.0758
961.635 19.5892
961.696 12.8592
961.757 9.05699
961.818 6.71747
961.940 4.11081
962.062 2.77068
962.184 1.99429
962.306 1.50432
962.427 1.17604
962.671 0.776683
962.915 0.552613
963.159 0.414415
963.402 0.323219
963.890 0.214124
964.377 0.153855
964.865 0.117074
965.352 0.0930016
966.327 0.0644665
967.302 0.0489021
969.252 0.0336368
971.202 0.0271416
973.151 0.0244720
977.051 0.0254620
980.951 0.0351550
982.900 0.0463412
984.850 0.0674914
985.825 0.0855475
986.800 0.113272
987.775 0.158872
988.750 0.241607
989.237 0.310888
989.725 0.415958
990.212 0.586533
990.700 0.890709
990.943 1.14136
991.187 1.51545
991.431 2.10961
991.674 3.13660
991.918 5.14283
992.040 6.95158
992.162 9.89514
992.284 15.1489
992.345 19.4473
992.406 25.7886
992.467 35.6322
992.527 51.7598
992.588 79.8409
992.649 130.209
992.710 208.272
992.770 260.279
992.831 208.109
992.891 130.076
992.947 83.0699
993.002 55.5480
993.058 39.0591
993.113 28.7275
993.224 17.2097
993.335 11.3780
993.446 8.05477
993.558 5.99226
993.780 3.68100
994.002 2.48610
994.224 1.79098
994.446 1.35135
994.668 1.05615
995.113 0.696557
995.557 0.494458
996.001 0.369740
996.446 0.287448
997.334 0.189137
998.223 0.135049
999.111 0.102322
1000.00 0.0812220
1001.46 0.0604530
1002.91 0.0494484
1004.37 0.0447701
1005.82 0.0462118
1007.28 0.0578521
1008.01 0.0720318
1008.73 0.0994549
1009.10 0.123144
1009.46 0.159682
1009.83 0.219916
1010.19 0.329182
1010.37 0.420500
1010.55 0.558658
1010.74 0.781979
1010.92 1.17772
1011.01 1.50146
1011.10 1.98154
1011.19 2.73696
1011.28 4.02504
1011.37 6.48808
1011.42 8.68665
1011.46 12.1042
1011.51 18.1185
1011.55 29.3656
1011.58 39.3307
1011.60 53.9038
1011.62 78.0771
1011.64 115.017
1011.67 184.767
1011.70 231.582
1011.71 217.784
1011.73 184.761
1011.76 115.009
1011.78 76.7573
1011.80 53.0873
1011.83 38.2836
1011.85 28.6705
1011.89 17.6012
1011.94 11.8157
1011.99 8.45150
1012.03 6.33443
1012.12 3.93001
1012.22 2.67223
1012.31 1.93438
1012.40 1.46533
1012.49 1.15178
1012.68 0.763482
1012.86 0.545212
1013.04 0.409175
1013.23 0.319575
1013.59 0.211627
1013.96 0.151706
1014.33 0.114990
1014.69 0.0908474
1015.43 0.0619777
1016.16 0.0460041
1017.63 0.0296908
1019.10 0.0218477
1020.57 0.0174524
1023.50 0.0130438
1026.44 0.0114786
1029.38 0.0125154
1030.85 0.0153828
1032.32 0.0243380
1033.05 0.0369712
1033.78 0.0722956
1034.15 0.120201
1034.34 0.167153
1034.52 0.250290
1034.70 0.421541
1034.79 0.584281
1034.89 0.861169
1034.98 1.40449
1035.02 1.89210
1035.07 2.68271
1035.12 4.08279
1035.14 5.22072
1035.16 6.88706
1035.18 9.44182
1035.21 13.5698
1035.23 20.5955
1035.25 32.1119
1035.28 51.1573
1035.30 63.7646
1035.32 51.1560
1035.35 32.1103
1035.37 20.9972
1035.39 14.2819
1035.41 10.1712
1035.43 7.64821
1035.47 4.67452
1035.51 3.13026
1035.55 2.23587
1035.60 1.67457
1035.68 1.03871
1035.76 0.706875
1035.84 0.512515
1036.01 0.305925
1036.17 0.204311
1036.33 0.146996
1036.66 0.0881231
1037.32 0.0446181
1037.97 0.0292334
1039.29 0.0189073
1040.60 0.0170660
1041.91 0.0201185
1043.23 0.0332492
1043.88 0.0524828
1044.54 0.106575
1044.87 0.180149
1045.03 0.251676
1045.20 0.378576
1045.36 0.636848
1045.44 0.880109
1045.52 1.29595
1045.61 2.09429
1045.65 2.80039
1045.69 3.92772
1045.73 5.87959
1045.77 9.65336
1045.79 13.0661
1045.81 18.1228
1045.83 26.7414
1045.85 40.1950
1045.86 51.4408
1045.88 64.2892
1045.90 80.3437
1045.92 64.2876
1045.95 40.1931
1045.97 27.2707
1045.99 19.4440
1046.00 14.1245
1046.02 10.7834
1046.06 6.72152
1046.10 4.55536
1046.13 3.27937
1046.17 2.46929
1046.24 1.54152
1046.32 1.05238
1046.39 0.763992
1046.54 0.457024
1046.69 0.303841
1046.84 0.217173
1047.13 0.128037
1047.43 0.0851999
1047.72 0.0615056
1048.31 0.0374492
1048.90 0.0260686
1049.49 0.0198088
1050.67 0.0134851
1051.85 0.0105150
1053.04 0.00889413
1055.40 0.00732188
1060.12 0.00652709
1064.85 0.00703160
1069.57 0.00889582
1071.93 0.0108495
1074.29 0.0143942
1076.66 0.0218499
1077.84 0.0291911
1079.02 0.0424905
1079.61 0.0536749
1080.20 0.0707137
1080.79 0.0987036
1081.38 0.149394
1081.68 0.192066
1081.97 0.256763
1082.27 0.362157
1082.56 0.551230
1082.71 0.708544
1082.86 0.945207
1083.01 1.32506
1083.15 1.98557
1083.30 3.31215
1083.37 4.53716
1083.45 6.54962
1083.52 10.3161
1083.56 13.5235
1083.60 18.4454
1083.63 26.4939
1083.65 32.7271
1083.67 40.7507
1083.69 52.5550
1083.71 68.4898
1083.72 91.3481
1083.74 123.960
1083.77 197.848
1083.80 246.904
1083.83 197.841
1083.86 123.952
1083.88 80.1503
1083.91 54.8301
1083.94 38.7402
1083.96 28.8867
1084.01 17.4816
1084.06 11.7146
1084.11 8.31810
1084.16 6.20121
1084.26 3.83529
1084.37 2.59296
1084.47 1.87461
1084.57 1.41837
1084.67 1.11081
1084.87 0.733609
1085.07 0.522079
1085.28 0.390623
1085.48 0.304180
1085.88 0.200384
1086.29 0.143045
1086.69 0.108120
1087.10 0.0853256
1087.91 0.0584603
1088.72 0.0440227
1090.34 0.0302751
1091.96 0.0248846
1093.58 0.0231764
1096.82 0.0261617
1098.44 0.0308737
1100.06 0.0389247
1101.68 0.0528364
1103.30 0.0787452
1104.11 0.100759
1104.92 0.134418
1105.73 0.189622
1106.54 0.289464
1106.95 0.372822
1107.35 0.498931
1107.76 0.702878
1108.16 1.06474
1108.37 1.36211
1108.57 1.80161
1108.77 2.49834
1108.97 3.68455
1109.18 5.97754
1109.28 7.99998
1109.38 11.2315
1109.48 16.9082
1109.53 21.4493
1109.58 27.8431
1109.63 37.5977
1109.68 52.5402
1109.73 77.3973
1109.78 117.656
1109.84 189.227
1109.90 235.995
1109.96 187.912
1110.02 117.636
1110.07 74.3443
1110.13 49.6427
1110.18 34.6891
1110.24 25.5196
1110.34 15.2386
1110.45 10.0551
1110.56 7.10900
1110.67 5.28373
1110.89 3.24748
1111.11 2.19073
1111.32 1.57659
1111.54 1.18875
1111.76 0.929401
1112.20 0.612179
1112.63 0.434338
1113.07 0.324362
1113.50 0.251982
1114.37 0.165432
1115.24 0.117850
1116.11 0.0891308
1116.98 0.0707621
1118.73 0.0508758
1120.47 0.0464068
1121.34 0.0531686
1122.21 0.0804129
1122.65 0.120673
1122.86 0.160934
1123.08 0.233153
1123.30 0.383566
1123.41 0.527907
1123.52 0.776429
1123.63 1.27065
1123.68 1.72630
1123.73 2.46371
1123.79 3.82884
1123.82 4.94820
1123.84 6.62374
1123.87 9.27110
1123.90 13.7349
1123.92 21.8141
1123.95 37.0451
1123.96 48.0308
1123.98 59.5372
1124.00 73.6550
1124.03 58.5805
1124.05 37.0432
1124.07 24.8891
1124.09 17.2952
1124.11 12.5141
1124.13 9.52317
1124.17 5.85198
1124.21 3.96783
1124.25 2.83736
1124.29 2.14170
1124.37 1.33678
1124.44 0.914552
1124.52 0.666404
1124.68 0.401751
1124.84 0.271082
1125.00 0.197124
1125.31 0.120899
1125.63 0.0840871
1125.94 0.0635625
1126.57 0.0423823
1127.21 0.0320746
1127.84 0.0261994
1129.10 0.0199313
1131.62 0.0149895
1134.15 0.0136562
1136.67 0.0148491
1137.94 0.0170023
1139.20 0.0214635
1140.46 0.0315665
1141.09 0.0418091
1141.72 0.0605884
1142.36 0.100717
1142.67 0.140441
1142.99 0.211886
1143.30 0.361780
1143.46 0.507361
1143.62 0.762716
1143.70 0.972147
1143.78 1.28210
1143.86 1.76853
1143.93 2.59487
1144.01 4.16578
1144.05 5.56211
1144.09 7.71105
1144.13 11.4693
1144.17 18.3676
1144.19 24.4007
1144.21 33.0166
1144.23 47.0916
1144.25 67.8853
1144.26 87.2827
1144.28 109.414
1144.30 135.665
1144.31 127.399
1144.33 107.710
1144.35 67.8819
1144.37 47.9770
1144.39 35.3374
1144.42 20.7850
1144.46 13.2748
1144.49 9.22565
1144.52 6.70083
1144.56 5.11479
1144.63 3.25172
1144.70 2.23403
1144.76 1.62820
1144.90 0.977926
1145.04 0.650659
1145.18 0.465650
1145.45 0.272971
1145.73 0.180335
1146.00 0.128813
1146.55 0.0765723
1147.10 0.0518754
1147.65 0.0383308
1148.75 0.0247351
1149.85 0.0184296
1150.95 0.0150532
1153.15 0.0118921
1157.54 0.0105889
1161.94 0.0121306
1166.34 0.0168683
1168.54 0.0216645
1170.73 0.0301221
1172.93 0.0471445
1174.03 0.0631425
1175.13 0.0908414
1176.23 0.146356
1176.78 0.198908
1177.33 0.290595
1177.60 0.365519
1177.88 0.477201
1178.15 0.655452
1178.43 0.966844
1178.57 1.22230
1178.70 1.59806
1178.84 2.19480
1178.98 3.21017
1179.12 5.18914
1179.18 6.96016
1179.25 9.77187
1179.32 14.7853
1179.36 18.7733
1179.39 24.5546
1179.42 33.6274
1179.46 47.7433
1179.49 71.3306
1179.53 111.495
1179.56 178.146
1179.60 222.512
1179.64 178.144
1179.67 111.499
1179.70 81.0552
1179.72 60.8187
1179.77 36.7508
1179.81 24.1829
1179.86 17.0051
1179.91 12.5796
1179.95 9.67908
1180.04 6.25626
1180.14 4.40372
1180.23 3.29717
1180.41 2.11315
1180.60 1.54492
1180.78 1.25743
1181.15 1.09217
1181.52 1.32997
1181.70 1.67086
1181.89 2.31908
1182.07 3.66389
1182.16 4.90642
1182.25 6.97460
1182.35 10.7673
1182.39 13.9576
1182.44 18.7896
1182.48 26.5460
1182.53 39.9209
1182.55 50.3745
1182.58 64.9336
1182.60 85.4698
1182.62 114.244
1182.66 182.350
1182.70 227.602
1182.74 182.333
1182.78 114.221
1182.81 72.9700
1182.85 49.2932
1182.88 34.9559
1182.92 25.8683
1182.99 15.6489
1183.06 10.4248
1183.13 7.42857
1183.20 5.56013
1183.34 3.45489
1183.48 2.35475
1183.62 1.71667
1183.76 1.31098
1183.90 1.03688
1184.18 0.699441
1184.46 0.508209
1184.74 0.388617
1185.02 0.308627
1185.58 0.211060
1186.14 0.155992
1187.26 0.0989860
1188.39 0.0719312
1189.51 0.0577391
1191.75 0.0475664
1193.99 0.0540643
1195.11 0.0661940
1196.23 0.0910630
1196.79 0.112881
1197.35 0.146639
1197.92 0.202539
1198.48 0.303902
1198.76 0.389002
1199.04 0.517409
1199.32 0.725021
1199.60 1.09306
1199.74 1.39685
1199.88 1.84502
1200.02 2.55100
1200.16 3.75669
1200.30 6.06801
1200.37 8.10903
1200.44 11.3623
1200.51 16.9811
1200.54 21.4350
1200.58 27.8027
1200.61 37.2642
1200.65 51.9292
1200.68 75.5678
1200.72 114.094
1200.76 183.271
1200.80 227.863
1200.84 181.506
1200.88 114.082
1200.92 74.7081
1200.96 50.8873
1200.99 36.2812
1201.03 26.9409
1201.10 16.3506
1201.17 10.9534
1201.24 7.79044
1201.31 5.81510
1201.46 3.59869
1201.60 2.43700
1201.74 1.76273
1201.89 1.33209
1202.03 1.04417
1202.32 0.691265
1202.61 0.492359
1202.89 0.369359
1203.18 0.288281
1203.75 0.190769
1204.33 0.136858
1204.90 0.103997
1205.47 0.0825763
1206.62 0.0573624
1207.77 0.0440072
1210.06 0.0325908
1212.36 0.0323857
1213.51 0.0369105
1214.65 0.0474635
1215.80 0.0722748
1216.38 0.0976904
1216.95 0.144282
1217.24 0.183632
1217.52 0.243635
1217.81 0.341600
1218.10 0.516818
1218.24 0.663092
1218.38 0.881346
1218.53 1.23356
1218.67 1.84560
1218.81 3.07393
1218.89 4.20699
1218.96 6.06511
1219.03 9.53642
1219.06 12.4856
1219.10 16.8441
1219.14 24.0921
1219.17 36.8249
1219.19 46.9563
1219.21 61.2911
1219.23 81.8778
1219.24 109.339
1219.27 174.740
1219.30 218.259
1219.33 174.735
1219.36 109.332
1219.39 66.2726
1219.42 43.1884
1219.45 29.5010
1219.48 21.4592
1219.51 16.0934
1219.54 12.5831
1219.59 8.26737
1219.65 5.79821
1219.71 4.28562
1219.83 2.62045
1219.95 1.76050
1220.06 1.26737
1220.18 0.954192
1220.30 0.746239
1220.53 0.492488
1220.77 0.350218
1221.00 0.262548
1221.24 0.204732
1221.71 0.135615
1222.18 0.0974373
1222.65 0.0741411
1223.12 0.0589102
1224.06 0.0407861
1225.00 0.0308688
1226.88 0.0210144
1228.76 0.0166460
1230.63 0.0146249
1234.39 0.0142208
1238.15 0.0182531
1240.03 0.0232944
1241.91 0.0330327
1242.85 0.0414354
1243.79 0.0544179
1244.73 0.0759091
1245.67 0.115144
1246.14 0.148245
1246.61 0.198776
1247.08 0.281496
1247.55 0.430419
1247.78 0.554751
1248.02 0.742574
1248.25 1.04574
1248.49 1.58211
1248.61 2.02255
1248.72 2.66931
1248.84 3.69440
1248.96 5.42344
1249.08 8.74848
1249.13 11.6740
1249.19 16.2179
1249.25 24.1079
1249.28 30.1868
1249.31 38.7501
1249.34 51.7598
1249.37 70.9196
1249.40 100.868
1249.43 147.916
1249.46 235.992
1249.50 294.427
1249.54 235.980
1249.57 147.904
1249.60 102.155
1249.63 72.5673
1249.66 53.3764
1249.69 40.5636
1249.74 25.3952
1249.80 17.3646
1249.85 12.5084
1249.91 9.46518
1250.02 5.92332
1250.13 4.04710
1250.24 2.93751
1250.35 2.22819
1250.46 1.74773
1250.69 1.15772
1250.91 0.823152
1251.13 0.615404
1251.35 0.477653
1251.80 0.312118
1252.24 0.220246
1252.68 0.164031
1253.13 0.127152
1254.02 0.0833078
1254.90 0.0592316
1255.79 0.0446064
1256.68 0.0350639
1258.46 0.0237887
1260.23 0.0176481
1263.78 0.0115865
1267.34 0.00890099
1270.89 0.00762332
1277.99 0.00711156
1285.10 0.00876940
1288.65 0.0109431
1292.20 0.0151459
1293.98 0.0187606
1295.75 0.0243327
1297.53 0.0335406
1299.31 0.0503683
1300.19 0.0645696
1301.08 0.0862913
1301.97 0.121968
1302.86 0.186751
1303.30 0.241096
1303.75 0.323727
1304.19 0.458313
1304.63 0.699647
1304.86 0.899513
1305.08 1.19953
1305.30 1.67962
1305.52 2.51846
1305.74 4.18542
1305.85 5.71553
1305.97 8.25812
1306.02 10.2301
1306.08 12.9314
1306.13 16.9225
1306.19 22.8895
1306.24 32.7245
1306.30 49.5722
1306.33 63.1268
1306.35 82.2732
1306.38 109.732
1306.41 147.249
1306.46 237.135
1306.50 295.525
1306.55 235.033
1306.59 147.234
1306.63 93.7760
1306.67 63.1166
1306.72 44.2783
1306.76 32.7174
1306.84 19.6256
1306.92 13.0445
1307.01 9.23277
1307.09 6.86729
1307.25 4.22705
1307.42 2.85243
1307.58 2.05675
1307.75 1.55281
1307.91 1.21379
1308.25 0.799467
1308.58 0.567043
1308.91 0.423044
1309.24 0.328241
1309.90 0.214614
1310.56 0.151875
1311.22 0.113669
1311.88 0.0887355
1313.20 0.0593898
1314.52 0.0436532
1315.85 0.0345353
1317.17 0.0291554
1319.81 0.0253755
1321.14 0.0267662
1322.46 0.0317303
1323.78 0.0446372
1324.44 0.0582149
1325.10 0.0834038
1325.76 0.137416
1326.09 0.191022
1326.42 0.287469
1326.59 0.368324
1326.75 0.489680
1326.92 0.685121
1327.08 1.02975
1327.17 1.31239
1327.25 1.73072
1327.33 2.38732
1327.42 3.48497
1327.50 5.58685
1327.54 7.39537
1327.58 10.2259
1327.62 15.1419
1327.66 24.0978
1327.68 31.8505
1327.70 42.8555
1327.73 60.5888
1327.75 86.5106
1327.76 111.078
1327.77 139.050
1327.80 172.270
1327.81 161.871
1327.83 137.052
1327.86 86.5063
1327.87 62.7246
1327.89 47.1398
1327.92 28.5301
1327.96 18.5591
1327.99 13.0504
1328.03 9.55889
1328.06 7.33991
1328.13 4.70409
1328.20 3.24878
1328.27 2.37626
1328.41 1.43373
1328.54 0.956559
1328.68 0.685799
1328.82 0.515458
1328.96 0.402882
1329.23 0.266450
1329.51 0.190428
1329.78 0.143788
1330.05 0.113230
1330.60 0.0767038
1331.15 0.0566872
1332.25 0.0367007
1333.35 0.0276337
1334.45 0.0230663
1336.65 0.0200357
1338.85 0.0223259
1339.95 0.0261972
1341.05 0.0339154
1342.15 0.0508856
1342.70 0.0678361
1343.25 0.0985586
1343.80 0.163577
1344.07 0.227445
1344.34 0.341408
1344.62 0.578040
1344.76 0.806354
1344.89 1.20238
1345.03 1.99569
1345.10 2.72588
1345.17 3.91958
1345.24 6.14256
1345.27 7.99094
1345.31 10.7896
1345.34 15.4540
1345.38 23.3473
1345.39 29.5388
1345.41 38.1906
1345.43 50.4433
1345.44 67.6870
1345.47 108.897
1345.50 135.050
1345.52 126.340
1345.53 107.382
1345.56 67.6836
1345.58 49.5948
1345.59 37.0086
1345.63 22.1542
1345.67 14.4678
1345.70 10.1995
1345.74 7.48763
1345.77 5.71801
1345.84 3.65775
1345.92 2.52428
1345.99 1.85345
1346.13 1.12144
1346.27 0.750621
1346.41 0.540059
1346.70 0.320067
1346.98 0.214067
1347.27 0.155117
1347.84 0.0954993
1348.41 0.0677531
1348.98 0.0529164
1350.12 0.0391968
1351.26 0.0345103
1352.40 0.0340661
1354.68 0.0418115
1355.82 0.0507809
1356.96 0.0654640
1358.10 0.0903978
1359.24 0.136464
1359.81 0.175405
1360.38 0.234863
1360.95 0.332097
1361.52 0.507243
1361.80 0.652878
1362.09 0.872307
1362.37 1.22518
1362.66 1.84615
1362.80 2.35282
1362.94 3.09400
1363.09 4.25846
1363.23 6.20535
1363.30 7.74194
1363.37 9.88436
1363.44 13.0387
1363.51 17.9392
1363.59 26.2476
1363.62 32.6410
1363.66 41.2355
1363.69 53.8276
1363.73 71.7758
1363.76 99.5131
1363.80 139.984
1363.85 224.902
1363.90 280.047
1363.95 223.111
1364.00 139.968
1364.04 98.5614
1364.07 71.7642
1364.11 53.8176
1364.14 41.5176
1364.21 26.5463
1364.28 18.2864
1364.35 13.3100
1364.42 10.1003
1364.56 6.36783
1364.70 4.37121
1364.84 3.18289
1364.98 2.41985
1365.12 1.90131
1365.40 1.26239
1365.68 0.898862
1365.96 0.672606
1366.24 0.522326
1366.80 0.341179
1367.36 0.240682
1367.92 0.179096
1368.48 0.138645
1369.60 0.0904546
1370.72 0.0639728
1371.84 0.0478564
1372.96 0.0373203
1375.21 0.0248268
1377.45 0.0179838
1379.69 0.0138357
1381.93 0.0111391
1386.41 0.00798603
1390.89 0.00633564
1399.85 0.00501260
1408.82 0.00524144
1413.30 0.00605926
1417.78 0.00782997
1422.26 0.0118786
1424.50 0.0159978
1426.74 0.0235692
1427.86 0.0299868
1428.98 0.0398164
1430.10 0.0560151
1431.22 0.0854875
1431.79 0.110325
1432.35 0.148125
1432.91 0.209888
1433.47 0.321144
1433.75 0.413705
1434.03 0.553272
1434.31 0.777982
1434.59 1.17412
1434.73 1.49660
1434.87 1.97253
1435.01 2.71671
1435.15 3.97424
1435.29 6.34573
1435.36 8.40378
1435.43 11.6248
1435.50 17.0426
1435.53 21.2255
1435.57 27.0586
1435.60 35.4513
1435.64 47.9245
1435.67 66.9688
1435.71 96.0954
1435.75 154.110
1435.80 191.595
1435.85 152.814
1435.90 96.0857
1435.94 59.4870
1435.99 39.1602
1436.03 27.2523
1436.08 19.8870
1436.13 14.9967
1436.17 11.7389
1436.27 7.72258
1436.36 5.43031
1436.45 4.03245
1436.64 2.46476
1436.82 1.65948
1437.01 1.19257
1437.19 0.898178
1437.37 0.701670
1437.74 0.461352
1438.11 0.326522
1438.48 0.243412
1438.85 0.188725
1439.59 0.123171
1440.33 0.0870422
1441.07 0.0650220
1441.81 0.0506246
1443.29 0.0335787
1444.77 0.0242915
1446.25 0.0187089
1447.73 0.0151236
1450.68 0.0110385
1453.64 0.00904194
1459.55 0.00794394
1465.47 0.00962736
1468.43 0.0120822
1471.38 0.0169434
1472.86 0.0211705
1474.34 0.0277230
1475.82 0.0385986
1477.30 0.0585185
1478.04 0.0753745
1478.78 0.101133
1479.52 0.143419
1480.26 0.220092
1480.63 0.284401
1481.00 0.382047
1481.37 0.540769
1481.73 0.823446
1481.92 1.05718
1482.10 1.40679
1482.29 1.96349
1482.47 2.92223
1482.66 4.81167
1482.75 6.53452
1482.84 9.32530
1482.89 11.4854
1482.94 14.4001
1482.98 18.5481
1483.03 24.7049
1483.07 34.3220
1483.12 50.2803
1483.17 78.5159
1483.19 100.544
1483.21 130.219
1483.26 208.193
1483.30 260.108
1483.34 208.182
1483.39 130.207
1483.43 86.3312
1483.46 59.9428
1483.50 43.3548
1483.53 32.5393
1483.61 19.9131
1483.68 13.4037
1483.75 9.56279
1483.82 7.17911
1483.97 4.44883
1484.11 3.02078
1484.26 2.18315
1484.40 1.65075
1484.55 1.29372
1484.84 0.853697
1485.13 0.606017
1485.42 0.452077
1485.71 0.350559
1486.28 0.228555
1486.86 0.160982
1487.44 0.119696
1488.02 0.0926433
1489.18 0.0605277
1490.34 0.0429262
1491.50 0.0322578
1492.65 0.0253167
1494.97 0.0171631
1497.29 0.0127949
1501.92 0.00873995
1506.55 0.00756869
1511.18 0.00883240
1513.50 0.0115598
1514.66 0.0143920
1515.82 0.0195802
1516.97 0.0305879
1517.55 0.0414548
1518.13 0.0611118
1518.71 0.102584
1519.00 0.143430
1519.29 0.216544
1519.58 0.369188
1519.73 0.516750
1519.87 0.774146
1520.01 1.29404
1520.09 1.78134
1520.16 2.59067
1520.23 4.13156
1520.27 5.44481
1520.30 7.48238
1520.34 10.8676
1520.38 17.0107
1520.39 22.0626
1520.41 29.4384
1520.43 40.4553
1520.45 56.8995
1520.46 72.8541
1520.47 91.1012
1520.50 113.930
1520.53 91.0994
1520.55 56.8974
1520.57 41.9781
1520.58 31.5127
1520.62 19.3063
1520.65 12.8040
1520.68 9.03847
1520.71 6.63341
1520.74 5.10406
1520.80 3.28048
1520.87 2.26894
1520.93 1.66909
1521.05 1.00817
1521.18 0.675284
1521.30 0.484718
1521.55 0.286393
1521.80 0.190863
1522.05 0.137836
1522.55 0.0846384
1523.05 0.0604128
1523.55 0.0482798
1524.55 0.0406611
1525.55 0.0482130
1526.05 0.0602935
1526.55 0.0843641
1527.05 0.137463
1527.30 0.190344
1527.55 0.285649
1527.80 0.483634
1527.92 0.674009
1528.05 1.00682
1528.17 1.66841
1528.24 2.28186
1528.30 3.28484
1528.36 5.15954
1528.39 6.71962
1528.42 9.08586
1528.46 12.8936
1528.49 19.4857
1528.52 31.8936
1528.53 42.5421
1528.55 56.5982
1528.56 72.4681
1528.57 90.6186
1528.60 113.326
1528.63 90.6167
1528.65 56.5959
1528.68 36.0796
1528.70 24.0795
1528.72 16.9192
1528.75 12.5824
1528.79 7.58559
1528.84 5.03642
1528.89 3.55255
1528.94 2.65164
1529.03 1.63670
1529.13 1.10555
1529.22 0.799431
1529.41 0.473416
1529.60 0.313707
1529.79 0.223805
1530.16 0.131510
1530.54 0.0874759
1530.92 0.0630674
1531.68 0.0383089
1532.43 0.0266057
1533.19 0.0201554
1534.70 0.0136879
1536.21 0.0107607
1537.72 0.00933484
1540.75 0.00870085
1543.77 0.0104351
1545.28 0.0127644
1546.80 0.0172964
1548.31 0.0272357
1549.06 0.0372053
1549.82 0.0554097
1550.58 0.0941586
1550.95 0.132484
1551.33 0.201711
1551.71 0.346785
1551.90 0.487904
1552.09 0.738052
1552.18 0.944112
1552.28 1.24665
1552.37 1.72848
1552.47 2.54262
1552.56 4.12137
1552.61 5.50244
1552.66 7.69920
1552.70 11.5907
1552.75 18.9597
1552.77 25.5619
1552.80 35.3512
1552.82 51.8063
1552.84 77.4279
1552.86 99.0812
1552.87 123.815
1552.90 154.710
1552.91 145.624
1552.93 123.812
1552.96 77.4245
1552.98 55.4432
1552.99 40.5807
1553.03 23.9422
1553.07 15.4989
1553.11 10.7643
1553.14 7.88017
1553.18 6.00534
1553.25 3.80835
1553.33 2.61242
1553.40 1.90891
1553.55 1.14596
1553.70 0.761747
1553.85 0.544263
1554.14 0.318210
1554.44 0.209004
1554.74 0.148286
1555.33 0.0867662
1555.92 0.0577429
1556.52 0.0418735
1557.70 0.0260700
1558.89 0.0189071
1560.08 0.0152540
1562.45 0.0125510
1564.83 0.0134467
1566.01 0.0155251
1567.20 0.0198060
1568.39 0.0293189
1568.98 0.0388657
1569.57 0.0562165
1570.17 0.0930516
1570.46 0.129354
1570.76 0.194390
1571.06 0.330189
1571.21 0.460868
1571.35 0.690304
1571.50 1.15433
1571.58 1.58244
1571.65 2.30134
1571.72 3.64402
1571.76 4.79741
1571.80 6.58352
1571.84 9.54257
1571.87 14.8889
1571.89 19.4071
1571.91 25.6254
1571.93 35.3795
1571.95 49.0561
1571.96 63.2434
1571.97 78.2157
1572.00 97.5440
1572.03 78.2140
1572.05 49.0542
1572.08 33.5586
1572.10 23.6551
1572.12 17.2978
1572.14 13.2536
1572.18 8.22943
1572.22 5.61017
1572.26 4.02605
1572.30 3.04376
1572.39 1.90119
1572.47 1.29850
1572.55 0.943060
1572.72 0.562931
1572.88 0.374906
1573.05 0.268478
1573.38 0.158798
1573.71 0.106405
1574.05 0.0774344
1574.71 0.0483132
1575.37 0.0348726
1576.04 0.0277624
1577.37 0.0213713
1580.02 0.0197222
1582.68 0.0250395
1584.01 0.0307116
1585.33 0.0398706
1586.66 0.0553341
1587.99 0.0838592
1588.65 0.107987
1589.32 0.144875
1589.98 0.205333
1590.65 0.314620
1590.98 0.405829
1591.31 0.543760
1591.64 0.766708
1591.97 1.16196
1592.14 1.48554
1592.31 1.96572
1592.47 2.72215
1592.64 4.01410
1592.72 5.03292
1592.80 6.49102
1592.89 8.67842
1592.97 12.1650
1593.05 18.1862
1593.10 23.0263
1593.14 29.7783
1593.18 40.0558
1593.22 55.5863
1593.26 80.4250
1593.30 120.525
1593.35 193.318
1593.40 240.430
1593.45 191.757
1593.50 120.514
1593.54 78.1621
1593.59 52.8404
1593.63 37.4662
1593.68 27.7075
1593.76 16.7236
1593.85 11.1536
1593.94 7.91397
1594.03 5.91490
1594.20 3.64576
1594.38 2.46227
1594.55 1.77607
1594.73 1.34111
1594.90 1.04832
1595.25 0.690297
1595.60 0.489272
1595.95 0.364956
1596.30 0.282771
1597.00 0.184202
1597.70 0.129696
1598.41 0.0964278
1599.11 0.0746686
1600.51 0.0488081
1601.91 0.0346484
1603.31 0.0260645
1604.71 0.0204787
1607.51 0.0139189
1610.32 0.0104125
1613.12 0.00839080
1615.92 0.00721643
1621.53 0.00650427
1624.33 0.00696930
1627.13 0.00838271
1629.93 0.0119604
1631.33 0.0157131
1632.74 0.0226959
1633.44 0.0286461
1634.14 0.0377941
1634.84 0.0528886
1635.54 0.0803696
1636.24 0.138844
1636.59 0.196478
1636.94 0.300262
1637.29 0.517565
1637.47 0.727461
1637.64 1.09734
1637.73 1.40037
1637.82 1.84231
1637.90 2.54117
1637.99 3.70761
1638.08 5.93165
1638.12 7.86629
1638.17 10.8140
1638.21 15.8673
1638.23 19.7717
1638.25 25.2191
1638.28 33.0597
1638.30 44.7130
1638.32 62.4900
1638.34 88.1172
1638.37 140.754
1638.40 175.747
1638.42 165.461
1638.43 140.750
1638.46 88.1132
1638.49 55.1230
1638.52 36.2619
1638.55 25.2166
1638.58 18.5781
1638.60 14.0646
1638.63 10.9871
1638.69 7.25396
1638.75 5.10246
1638.81 3.79669
1638.92 2.32370
1639.04 1.56584
1639.15 1.12596
1639.27 0.848408
1639.38 0.663548
1639.61 0.436484
1639.84 0.309460
1640.07 0.230721
1640.30 0.178976
1640.76 0.116915
1641.22 0.0826269
1641.67 0.0617098
1642.13 0.0480173
1643.05 0.0317730
1643.97 0.0228700
1644.89 0.0174682
1645.81 0.0139464
1647.64 0.00978683
1649.48 0.00752623
1653.15 0.00530628
1656.82 0.00434631
1660.50 0.00392638
1667.84 0.00393927
1675.18 0.00502905
1678.86 0.00632058
1682.53 0.00877147
1684.37 0.0108693
1686.20 0.0140966
1688.04 0.0194274
1689.87 0.0291742
1690.79 0.0374064
1691.71 0.0500089
1692.63 0.0707334
1693.55 0.108431
1694.01 0.140111
1694.46 0.188362
1694.92 0.267136
1695.38 0.408869
1695.61 0.526960
1695.84 0.704046
1696.07 0.990020
1696.30 1.49083
1696.42 1.89932
1696.53 2.50146
1696.65 3.44140
1696.76 5.00771
1696.87 7.96608
1696.93 10.5471
1696.99 14.4944
1697.05 21.2019
1697.08 26.3609
1697.10 33.2368
1697.13 43.3617
1697.16 57.6579
1697.19 79.8447
1697.22 111.904
1697.26 179.522
1697.30 224.799
1697.34 179.515
1697.38 111.896
1697.43 64.2818
1697.48 39.8010
1697.52 26.5660
1697.57 18.8298
1697.62 13.9821
1697.66 10.7666
1697.76 6.92337
1697.85 4.81292
1697.95 3.53509
1698.13 2.13518
1698.32 1.42710
1698.51 1.02056
1698.70 0.765950
1698.89 0.596076
1699.26 0.390656
1699.64 0.275950
1700.01 0.205479
1700.39 0.159120
1701.14 0.103874
1701.89 0.0734900
1702.65 0.0550392
1703.40 0.0430387
1704.90 0.0289335
1706.41 0.0214068
1707.91 0.0170824
1709.41 0.0145801
1712.42 0.0130708
1713.92 0.0140550
1715.43 0.0170307
1716.93 0.0245300
1717.68 0.0323667
1718.43 0.0468609
1719.19 0.0779802
1719.56 0.108839
1719.94 0.164613
1720.31 0.281446
1720.50 0.394973
1720.69 0.595920
1720.88 1.00347
1720.97 1.38590
1721.07 2.03695
1721.16 3.27881
1721.21 4.36957
1721.25 6.09824
1721.30 9.05879
1721.35 14.6847
1721.37 19.6596
1721.40 26.9389
1721.42 38.3310
1721.44 56.2776
1721.47 90.9424
1721.50 113.144
1721.52 106.206
1721.53 89.7053
1721.56 56.2752
1721.58 40.9030
1721.60 30.3231
1721.64 17.9883
1721.67 11.6814
1721.71 8.12904
1721.75 5.95903
1721.79 4.54572
1721.86 2.90215
1721.94 2.00003
1722.01 1.46059
1722.17 0.878965
1722.32 0.585390
1722.47 0.418926
1722.77 0.245273
1723.07 0.161618
1723.38 0.115030
1723.98 0.0676736
1724.59 0.0453072
1725.20 0.0330072
1726.41 0.0206671
1727.62 0.0149586
1728.83 0.0119346
1731.25 0.00934102
1733.68 0.00924070
1736.10 0.0124248
1737.31 0.0176746
1738.53 0.0329303
1739.13 0.0540121
1739.74 0.112430
1740.04 0.190887
1740.19 0.267197
1740.34 0.400888
1740.50 0.672454
1740.57 0.926366
1740.65 1.34939
1740.72 2.15761
1740.76 2.86123
1740.80 3.92931
1740.84 5.76776
1740.87 9.17717
1740.89 12.0430
1740.91 16.3149
1740.93 22.8614
1740.95 32.7851
1740.96 41.4823
1740.97 52.0947
1741.00 65.5006
1741.03 52.0938
1741.05 32.7201
1741.07 24.1806
1741.08 18.0829
1741.12 10.8568
1741.15 7.10255
1741.18 4.96664
1741.21 3.65316
1741.24 2.79371
1741.31 1.78026
1741.37 1.23095
1741.44 0.901205
1741.56 0.544721
1741.69 0.363909
1741.82 0.261286
1742.07 0.153936
1742.58 0.0731713
1743.09 0.0438513
1744.11 0.0223738
1745.13 0.0147559
1747.18 0.00937711
1749.22 0.00769006
1753.30 0.00723053
1757.38 0.00858170
1761.46 0.0122879
1763.51 0.0160718
1765.55 0.0229495
1766.57 0.0287207
1767.59 0.0374996
1768.61 0.0518774
1769.63 0.0778882
1770.14 0.0997365
1770.65 0.132907
1771.16 0.186991
1771.67 0.284204
1771.93 0.365329
1772.18 0.487114
1772.44 0.682912
1772.69 1.02743
1772.82 1.30867
1772.95 1.71979
1773.07 2.36634
1773.20 3.44669
1773.33 5.49083
1773.39 7.25976
1773.46 9.96541
1773.52 14.5458
1773.55 18.0610
1773.58 22.9352
1773.62 29.8964
1773.65 40.1417
1773.68 55.5851
1773.71 77.9630
1773.76 124.528
1773.80 155.482
1773.85 124.522
1773.89 77.9572
1773.92 57.3857
1773.95 42.9885
1774.00 25.8759
1774.06 16.9559
1774.11 11.9395
1774.17 8.78127
1774.23 6.71438
1774.34 4.29247
1774.45 2.96475
1774.56 2.17403
1774.78 1.31152
1775.00 0.875577
1775.23 0.626462
1775.45 0.470989
1775.67 0.367928
1776.12 0.243078
1776.56 0.173820
1777.01 0.131387
1777.45 0.103723
1778.35 0.0711944
1779.24 0.0539680
1781.02 0.0389826
1782.80 0.0370364
1784.58 0.0490182
1785.47 0.0688016
1785.92 0.0887200
1786.36 0.124694
1786.81 0.200354
1787.03 0.274219
1787.26 0.405108
1787.48 0.674829
1787.59 0.933191
1787.70 1.37659
1787.81 2.25420
1787.87 3.05053
1787.92 4.32687
1787.98 6.65437
1788.01 8.57639
1788.04 11.3107
1788.06 15.7115
1788.09 23.0149
1788.12 35.9259
1788.13 45.9777
1788.15 58.4908
1788.16 75.4075
1788.17 93.4464
1788.20 116.843
1788.23 93.4448
1788.25 58.3809
1788.27 42.7866
1788.29 32.4720
1788.32 19.9444
1788.35 13.0981
1788.38 9.27623
1788.42 6.82896
1788.45 5.26698
1788.51 3.39979
1788.58 2.36182
1788.64 1.74490
1788.77 1.06437
1788.90 0.719307
1789.03 0.523675
1789.29 0.320309
1789.55 0.222654
1789.81 0.169396
1790.32 0.117898
1790.84 0.0974658
1791.35 0.0910655
1792.39 0.103162
1792.90 0.121909
1793.42 0.153850
1793.94 0.208795
1794.45 0.310074
1794.71 0.395565
1794.97 0.524711
1795.23 0.733559
1795.49 1.10344
1795.62 1.40854
1795.75 1.85772
1795.88 2.56371
1796.00 3.76546
1796.13 6.05731
1796.20 8.08921
1796.26 11.2591
1796.33 16.7765
1796.36 21.0512
1796.39 27.0977
1796.42 36.2991
1796.46 49.9810
1796.49 71.5639
1796.52 105.850
1796.56 169.178
1796.60 211.322
1796.64 169.172
1796.68 105.843
1796.72 62.9757
1796.77 40.3397
1796.81 27.3211
1796.85 19.6988
1796.89 14.7167
1796.94 11.4475
1797.02 7.43289
1797.11 5.20081
1797.19 3.83821
1797.36 2.33409
1797.53 1.56792
1797.70 1.12604
1797.87 0.848420
1798.04 0.662751
1798.38 0.437659
1798.72 0.311627
1799.06 0.234037
1799.40 0.182911
1800.08 0.121875
1800.76 0.0882608
1801.44 0.0678567
1802.12 0.0546291
1803.48 0.0392784
1804.84 0.0314654
1807.56 0.0259884
1810.28 0.0290072
1811.64 0.0345684
1813.00 0.0455015
1814.36 0.0687110
1815.04 0.0911181
1815.72 0.130608
1816.40 0.211721
1816.74 0.289866
1817.08 0.428323
1817.25 0.542208
1817.42 0.712560
1817.59 0.984564
1817.76 1.45967
1817.93 2.40613
1818.01 3.27857
1818.10 4.73615
1818.18 7.43873
1818.22 9.77637
1818.27 13.2854
1818.31 19.1808
1818.33 23.5231
1818.35 29.4192
1818.37 37.6240
1818.39 49.3179
1818.41 66.2802
1818.43 90.7976
1818.47 145.585
1818.50 182.255
1818.52 170.834
1818.53 145.583
1818.57 90.7975
1818.60 57.4094
1818.63 38.5695
1818.66 27.2492
1818.69 20.1128
1818.75 12.1288
1818.81 8.06769
1818.87 5.71713
1818.93 4.28493
1819.05 2.67653
1819.17 1.84084
1819.29 1.36172
1819.53 0.863218
1819.77 0.631176
1820.01 0.516765
1820.49 0.460429
1820.97 0.578293
1821.22 0.738181
1821.46 1.04030
1821.70 1.67188
1821.82 2.26433
1821.94 3.26749
1822.06 5.17967
1822.12 6.82710
1822.18 9.39989
1822.24 13.7125
1822.30 21.6415
1822.33 28.2475
1822.36 38.0115
1822.39 52.8168
1822.42 75.2856
1822.46 120.850
1822.50 150.201
1822.54 119.688
1822.58 75.2765
1822.62 46.6372
1822.66 30.7643
1822.71 21.2688
1822.75 15.5621
1822.79 11.7539
1822.83 9.22133
1822.91 6.09155
1822.99 4.29820
1823.07 3.19350
1823.23 1.96861
1823.39 1.33412
1823.55 0.967765
1823.71 0.734683
1823.88 0.578906
1824.20 0.387937
1824.52 0.279894
1824.84 0.212675
1825.17 0.167899
1825.81 0.113581
1826.46 0.0829425
1827.75 0.0511431
1829.04 0.0356457
1830.33 0.0269197
1832.92 0.0181252
1835.50 0.0146604
1838.08 0.0152072
1839.38 0.0186573
1840.67 0.0301334
1841.31 0.0465687
1841.96 0.0927161
1842.28 0.155151
1842.61 0.323528
1842.77 0.543097
1842.85 0.749902
1842.93 1.09759
1843.01 1.76981
1843.05 2.35385
1843.09 3.27750
1843.13 4.90806
1843.17 7.95044
1843.19 10.5744
1843.21 14.5884
1843.23 20.9535
1843.25 31.5947
1843.26 40.4195
1843.28 50.2596
1843.30 63.1816
1843.33 50.2588
1843.35 31.5938
1843.37 19.7946
1843.40 13.1904
1843.42 9.12965
1843.44 6.71768
1843.47 5.07091
1843.49 3.99171
1843.54 2.64828
1843.58 1.86743
1843.63 1.39412
1843.72 0.857320
1843.82 0.578178
1843.91 0.418004
1844.10 0.248673
1844.47 0.118930
1844.84 0.0711714
1845.59 0.0357273
1846.33 0.0229076
1847.82 0.0134601
1849.31 0.0100130
1852.29 0.00744536
1855.27 0.00657014
1861.23 0.00634683
1867.19 0.00725296
1873.15 0.00960072
1876.13 0.0118122
1879.11 0.0154885
1882.09 0.0224092
1883.58 0.0286256
1885.07 0.0391074
1886.56 0.0598030
1887.31 0.0793771
1888.05 0.113889
1888.80 0.185203
1889.17 0.254620
1889.54 0.378201
1889.73 0.481021
1889.92 0.634721
1890.10 0.881074
1890.29 1.31308
1890.38 1.66763
1890.47 2.18435
1890.57 2.98843
1890.66 4.33820
1890.75 6.85815
1890.80 9.05064
1890.85 12.3722
1890.89 17.9982
1890.92 22.1914
1890.94 27.9385
1890.96 36.4525
1890.99 48.3522
1891.01 65.9406
1891.03 91.8681
1891.07 146.516
1891.10 182.760
1891.13 146.512
1891.17 91.8645
1891.19 67.8217
1891.21 51.6047
1891.25 31.8004
1891.29 21.1684
1891.33 14.9819
1891.37 11.0402
1891.41 8.50710
1891.49 5.48186
1891.57 3.80602
1891.65 2.80714
1891.81 1.70782
1891.97 1.15385
1892.13 0.836891
1892.30 0.639164
1892.46 0.508548
1892.78 0.350966
1893.10 0.264800
1893.74 0.181899
1894.39 0.149248
1895.03 0.139226
1896.32 0.159112
1896.96 0.189267
1897.60 0.240156
1898.25 0.326972
1898.89 0.485793
1899.21 0.618376
1899.53 0.817825
1899.85 1.13720
1900.18 1.69251
1900.50 2.79549
1900.66 3.80440
1900.82 5.46064
1900.90 6.74123
1900.98 8.49775
1901.06 11.0636
1901.14 14.8922
1901.22 21.0990
1901.30 31.6252
1901.34 39.7989
1901.38 51.1189
1901.42 66.9857
1901.46 89.0808
1901.53 143.127
1901.60 178.549
1901.67 142.292
1901.74 89.0698
1901.79 60.8015
1901.85 43.0661
1901.90 31.4453
1901.95 23.8827
1902.06 14.8876
1902.17 10.0906
1902.27 7.26490
1902.38 5.47086
1902.60 3.41610
1902.81 2.33276
1903.02 1.69406
1903.24 1.28667
1903.45 1.01228
1903.88 0.674200
1904.31 0.483405
1904.73 0.364991
1905.16 0.286986
1906.02 0.193979
1906.87 0.143878
1907.73 0.115103
1908.58 0.0988113
1910.29 0.0917667
1911.15 0.102105
1912.00 0.129283
1912.86 0.195168
1913.29 0.262851
1913.71 0.386136
1913.93 0.489468
1914.14 0.645627
1914.36 0.897309
1914.57 1.33812
1914.68 1.69769
1914.78 2.22747
1914.89 3.05372
1915.00 4.44463
1915.10 7.05171
1915.16 9.32524
1915.21 12.7933
1915.26 18.6832
1915.29 23.2061
1915.32 29.2063
1915.34 38.0436
1915.37 50.4489
1915.40 69.6756
1915.42 97.2548
1915.46 156.710
1915.50 195.117
1915.52 182.710
1915.54 155.077
1915.58 97.2489
1915.61 66.2960
1915.64 46.6223
1915.67 34.0402
1915.70 25.9570
1915.76 16.1088
1915.82 10.9522
1915.88 7.86291
1915.93 5.93548
1916.05 3.71910
1916.17 2.53834
1916.29 1.84741
1916.41 1.40244
1916.53 1.10384
1916.76 0.735549
1917.00 0.526756
1917.24 0.397051
1917.47 0.310966
1917.95 0.207133
1918.42 0.149402
1918.90 0.113860
1919.37 0.0903694
1920.32 0.0620635
1921.27 0.0462049
1923.16 0.0297149
1925.06 0.0215714
1926.96 0.0168705
1930.75 0.0118498
1934.55 0.00937477
1938.34 0.00806147
1945.92 0.00726703
1953.51 0.00843687
1957.30 0.0101641
1961.10 0.0135378
1964.89 0.0208550
1966.79 0.0281107
1968.68 0.0412398
1969.63 0.0522543
1970.58 0.0689969
1971.53 0.0963362
1972.48 0.145642
1972.95 0.186866
1973.43 0.249117
1973.90 0.349837
1974.37 0.528766
1974.61 0.675595
1974.85 0.894038
1975.09 1.23937
1975.32 1.83228
1975.56 2.97847
1975.68 4.00518
1975.80 5.64348
1975.92 8.53908
1975.97 10.8493
1976.03 14.1930
1976.09 19.3486
1976.15 27.4142
1976.21 40.8126
1976.27 63.4551
1976.34 101.312
1976.40 126.459
1976.47 101.305
1976.53 63.4484
1976.57 45.8411
1976.62 33.8002
1976.70 20.0009
1976.79 12.9079
1976.87 8.97980
1976.96 6.55945
1977.04 5.00559
1977.21 3.18086
1977.38 2.19119
1977.56 1.60008
1977.90 0.961887
1978.24 0.641693
1978.58 0.459761
1978.92 0.346111
1979.26 0.270857
1979.95 0.180246
1980.63 0.130114
1981.31 0.0996802
1981.99 0.0800215
1983.36 0.0574938
1984.73 0.0464795
1987.46 0.0406547
1988.82 0.0434357
1990.19 0.0506744
1991.55 0.0649590
1992.92 0.0929943
1993.60 0.117214
1994.29 0.154511
1994.97 0.215844
1995.65 0.326513
1995.99 0.418966
1996.33 0.558014
1996.68 0.782568
1997.02 1.17707
1997.19 1.49891
1997.36 1.97384
1997.53 2.71625
1997.70 3.96052
1997.79 4.94138
1997.87 6.31337
1997.96 8.33672
1998.04 11.4872
1998.13 16.8293
1998.17 20.9480
1998.21 26.5249
1998.25 34.6837
1998.30 46.4139
1998.34 64.5428
1998.38 91.2507
1998.44 146.193
1998.50 181.887
1998.56 145.210
1998.62 91.2418
1998.69 53.4819
1998.75 33.7819
1998.82 22.8509
1998.88 16.3459
1998.95 12.2180
1999.01 9.45483
1999.14 6.12190
1999.27 4.26456
1999.40 3.14388
1999.66 1.90869
1999.92 1.27859
2000.18 0.917220
2000.44 0.690250
2000.70 0.538485
2001.22 0.354273
2001.74 0.251389
2002.26 0.187937
2002.78 0.146206
2003.83 0.0962959
2004.87 0.0687455
2005.91 0.0519468
2006.95 0.0409591
2009.03 0.0279715
2011.11 0.0209624
2015.28 0.0144993
2019.44 0.0130500
2021.52 0.0140357
2023.61 0.0170307
2025.69 0.0246247
2026.73 0.0325945
2027.77 0.0474074
2028.29 0.0600106
2028.81 0.0793007
2029.33 0.111075
2029.85 0.168595
2030.37 0.290000
2030.63 0.408467
2030.89 0.619446
2031.02 0.794551
2031.15 1.05402
2031.28 1.46545
2031.41 2.17485
2031.54 3.55529
2031.61 4.79396
2031.67 6.80221
2031.74 10.3589
2031.77 13.3039
2031.80 17.4874
2031.84 24.1155
2031.87 34.5197
2031.89 42.6840
2031.90 52.8835
2031.92 66.3724
2031.93 84.0401
2031.97 134.921
2032.00 167.378
2032.02 157.332
2032.03 133.326
2032.07 84.0364
2032.09 58.3226
2032.12 42.1329
2032.14 31.4043
2032.16 24.1134
2032.21 15.3176
2032.26 10.5073
2032.31 7.62609
2032.36 5.77534
2032.45 3.63161
2032.55 2.48025
2032.65 1.80532
2032.74 1.37238
2032.84 1.07838
2033.03 0.715010
2033.22 0.509740
2033.42 0.381456
2033.61 0.296773
2033.99 0.194601
2034.38 0.137841
2034.76 0.103079
2035.15 0.0802550
2035.92 0.0530848
2036.69 0.0381319
2037.46 0.0290239
2038.23 0.0230673
2039.77 0.0159746
2041.31 0.0120664
2044.39 0.00811297
2047.47 0.00625375
2050.54 0.00525707
2056.70 0.00442090
2062.86 0.00449731
2065.94 0.00492616
2069.02 0.00585110
2072.10 0.00791651
2073.64 0.00997711
2075.18 0.0137139
2076.72 0.0216462
2077.49 0.0295057
2078.26 0.0437552
2079.03 0.0739924
2079.41 0.103827
2079.80 0.157614
2080.18 0.270051
2080.38 0.379513
2080.57 0.572000
2080.76 0.963898
2080.86 1.32926
2080.95 1.94923
2081.05 3.12598
2081.10 4.15427
2081.15 5.77534
2081.19 8.53094
2081.24 13.7092
2081.27 18.1225
2081.29 24.7931
2081.31 35.2027
2081.34 51.7975
2081.37 82.7196
2081.40 103.606
2081.43 82.7179
2081.46 51.7956
2081.49 35.7466
2081.51 25.4903
2081.53 18.5753
2081.56 14.1705
2081.60 8.84205
2081.65 5.99524
2081.70 4.31661
2081.74 3.25024
2081.84 2.02831
2081.93 1.38382
2082.03 1.00376
2082.21 0.597321
2082.40 0.396282
2082.59 0.282479
2082.97 0.165161
2083.34 0.109070
2083.72 0.0780062
2084.47 0.0466520
2085.22 0.0320156
2085.97 0.0240988
2087.48 0.0164688
2088.98 0.0133443
2090.49 0.0121559
2093.49 0.0128906
2096.50 0.0177250
2098.01 0.0230412
2099.51 0.0328410
2100.26 0.0410810
2101.01 0.0536189
2101.77 0.0740884
2102.52 0.111036
2102.89 0.141914
2103.27 0.188760
2103.65 0.264930
2104.02 0.401360
2104.21 0.514311
2104.40 0.683883
2104.59 0.955363
2104.77 1.43020
2104.96 2.37565
2105.06 3.24545
2105.15 4.69446
2105.24 7.36820
2105.29 9.63623
2105.34 13.1036
2105.38 18.7453
2105.41 23.0666
2105.43 28.6725
2105.46 36.7891
2105.48 47.8223
2105.50 64.4414
2105.53 87.3095
2105.56 140.733
2105.60 175.221
2105.62 164.583
2105.64 139.228
2105.68 87.3055
2105.71 55.3453
2105.75 36.7867
2105.78 25.7743
2105.82 18.9000
2105.89 11.2850
2105.96 7.44797
2106.03 5.26797
2106.10 3.91771
2106.24 2.40704
2106.38 1.62798
2106.52 1.17523
2106.66 0.889385
2106.79 0.698751
2107.07 0.465224
2107.35 0.334902
2107.63 0.254670
2107.91 0.202429
2108.47 0.141318
2109.03 0.110041
2109.59 0.0940302
2110.15 0.0876865
2111.27 0.0995254
2111.83 0.122645
2112.39 0.169894
2112.95 0.274323
2113.23 0.378060
2113.50 0.562821
2113.78 0.942602
2113.92 1.30235
2114.06 1.91474
2114.20 3.10467
2114.27 4.16436
2114.34 5.86830
2114.41 8.84880
2114.45 11.2413
2114.48 14.7029
2114.52 19.9263
2114.55 28.1880
2114.59 41.8551
2114.62 63.9623
2114.66 102.040
2114.70 127.304
2114.74 102.037
2114.78 63.9586
2114.81 43.9194
2114.84 31.0540
2114.87 22.7623
2114.90 17.4054
2114.96 10.9204
2115.02 7.43307
2115.08 5.34007
2115.13 4.03279
2115.25 2.52813
2115.37 1.72592
2115.49 1.25629
2115.61 0.953743
2115.73 0.750682
2115.96 0.500162
2116.20 0.358101
2116.44 0.269834
2116.67 0.211244
2117.15 0.140678
2117.62 0.101351
2118.10 0.0771637
2118.57 0.0612058
2119.52 0.0420714
2120.47 0.0314429
2122.36 0.0206732
2124.26 0.0157232
2126.15 0.0132674
2129.95 0.0120884
2133.74 0.0149708
2135.63 0.0189584
2137.53 0.0268071
2138.48 0.0336150
2139.43 0.0441512
2140.37 0.0615992
2141.32 0.0934716
2141.80 0.120305
2142.27 0.161205
2142.74 0.228007
2143.22 0.348209
2143.46 0.448080
2143.69 0.598458
2143.93 0.840089
2144.17 1.26479
2144.29 1.61120
2144.40 2.11664
2144.52 2.91063
2144.64 4.23318
2144.76 6.72714
2144.82 8.85437
2144.88 12.1448
2144.94 17.5877
2144.97 21.8035
2145.00 27.4006
2145.03 35.5798
2145.05 47.0487
2145.08 64.6433
2145.11 89.7952
2145.16 144.379
2145.20 179.686
2145.24 143.051
2145.29 89.7898
2145.33 57.3452
2145.37 38.3220
2145.41 26.9498
2145.45 19.9564
2145.53 11.9352
2145.61 7.91901
2145.69 5.59734
2145.76 4.17357
2145.92 2.56397
2146.08 1.73176
2146.24 1.24723
2146.40 0.940829
2146.56 0.736021
2146.88 0.484743
2147.19 0.343451
2147.51 0.256221
2147.83 0.198772
2148.47 0.129772
2149.10 0.0916839
2149.74 0.0684262
2150.37 0.0531894
2151.64 0.0350858
2152.91 0.0251572
2154.18 0.0191305
2155.45 0.0152040
2158.00 0.0105720
2160.54 0.00807460
2165.62 0.00572950
2175.78 0.00562224
2178.33 0.00701478
2180.87 0.0111334
2182.14 0.0168136
2183.41 0.0326322
2184.04 0.0542641
2184.68 0.113923
2185.00 0.194200
2185.31 0.408654
2185.47 0.686160
2185.55 0.947936
2185.63 1.38668
2185.71 2.23123
2185.75 2.97268
2185.79 4.10975
2185.83 6.08897
2185.87 9.69848
2185.89 12.8373
2185.91 17.5903
2185.93 25.0212
2185.95 36.5548
2185.96 46.2523
2185.97 58.0851
2186.00 73.0328
2186.03 58.0843
2186.05 36.4826
2186.08 21.2541
2186.11 13.4266
2186.14 8.96943
2186.17 6.42995
2186.19 4.76848
2186.22 3.69953
2186.28 2.38824
2186.34 1.66495
2186.39 1.22574
2186.51 0.743305
2186.62 0.498712
2186.74 0.358077
2186.96 0.211070
2187.42 0.100122
2187.88 0.0596839
2188.79 0.0302646
2189.70 0.0201197
2191.52 0.0139206
2193.34 0.0139719
2195.17 0.0186124
2196.08 0.0240789
2196.99 0.0344095
2197.90 0.0567561
2198.36 0.0789791
2198.81 0.119113
2199.27 0.203574
2199.50 0.285933
2199.73 0.432302
2199.95 0.731115
2200.07 1.01355
2200.18 1.49827
2200.30 2.43465
2200.35 3.26833
2200.41 4.60877
2200.47 6.95365
2200.52 11.5615
2200.55 15.7662
2200.58 22.1938
2200.61 32.7608
2200.64 51.0740
2200.67 81.2628
2200.70 102.061
2200.73 81.2611
2200.76 50.9915
2200.80 29.1657
2200.84 17.9350
2200.87 11.9155
2200.91 8.49226
2200.95 6.28456
2200.98 4.82707
2201.06 3.11033
2201.13 2.15594
2201.20 1.58681
2201.35 0.961759
2201.50 0.643247
2201.64 0.461627
2201.94 0.271169
2202.23 0.178787
2202.52 0.127436
2203.11 0.0751624
2203.70 0.0504682
2204.28 0.0369814
2205.45 0.0236534
2206.63 0.0177780
2207.80 0.0150205
2210.15 0.0140266
2212.49 0.0178725
2213.66 0.0228486
2214.84 0.0324585
2216.01 0.0534715
2216.60 0.0744491
2217.18 0.112543
2217.77 0.193034
2218.06 0.271676
2218.35 0.411893
2218.65 0.699596
2218.79 0.974210
2218.94 1.44513
2219.09 2.37043
2219.16 3.19772
2219.23 4.54075
2219.31 6.96891
2219.34 8.96325
2219.38 11.8167
2219.42 16.3455
2219.45 23.5323
2219.49 36.3140
2219.51 45.8341
2219.53 58.4207
2219.56 93.8441
2219.60 117.616
2219.64 93.8415
2219.67 58.4180
2219.71 37.7144
2219.74 25.4208
2219.77 17.9904
2219.81 13.4031
2219.87 8.06393
2219.94 5.37563
2220.00 3.80884
2220.07 2.84710
2220.20 1.76002
2220.33 1.19057
2220.46 0.860553
2220.59 0.649731
2220.72 0.508930
2220.98 0.335868
2221.24 0.238828
2221.50 0.178820
2221.76 0.139150
2222.29 0.0915606
2222.81 0.0652971
2223.33 0.0492652
2223.85 0.0387718
2224.90 0.0263358
2225.94 0.0195685
2228.03 0.0129199
2230.12 0.0100366
2232.21 0.00874293
2236.39 0.00854712
2240.57 0.0111202
2242.66 0.0142319
2244.75 0.0201375
2245.79 0.0251778
2246.83 0.0329016
2247.88 0.0456114
2248.92 0.0686670
2249.45 0.0880477
2249.97 0.117472
2250.49 0.165420
2251.01 0.251492
2251.54 0.430695
2251.80 0.603130
2252.06 0.905547
2252.32 1.51015
2252.45 2.07148
2252.58 3.00378
2252.71 4.75069
2252.78 6.23327
2252.84 8.51376
2252.91 12.3319
2252.97 19.0693
2253.00 24.6197
2253.04 32.3563
2253.07 44.0567
2253.10 60.6351
2253.15 97.5410
2253.20 121.544
2253.25 96.7492
2253.30 60.6310
2253.35 37.1061
2253.40 24.0264
2253.45 16.5275
2253.50 11.9618
2253.55 9.01695
2253.60 7.02204
2253.70 4.60451
2253.80 3.23227
2253.90 2.39740
2254.10 1.46417
2254.30 0.986051
2254.49 0.709315
2254.69 0.535058
2254.89 0.418351
2255.29 0.276475
2255.69 0.197307
2256.09 0.148662
2256.49 0.116739
2257.28 0.0790228
2258.08 0.0589445
2258.87 0.0476054
2259.67 0.0414034
2261.26 0.0397683
2262.06 0.0450448
2262.86 0.0579667
2263.65 0.0887013
2264.05 0.120119
2264.45 0.177557
2264.85 0.298696
2265.05 0.416787
2265.24 0.626217
2265.44 1.05189
2265.54 1.45469
2265.64 2.13490
2265.74 3.45073
2265.79 4.61439
2265.84 6.42439
2265.89 9.59935
2265.94 15.7100
2265.97 21.0465
2265.99 29.3048
2266.02 42.5767
2266.04 63.1309
2266.06 80.6888
2266.07 100.885
2266.10 126.145
2266.12 118.713
2266.13 100.883
2266.16 63.0235
2266.18 46.8498
2266.20 35.3973
2266.23 21.5773
2266.27 14.2563
2266.30 10.0360
2266.34 7.41688
2266.38 5.69177
2266.45 3.64422
2266.52 2.52736
2266.59 1.85411
2266.74 1.12298
2266.88 0.751183
2267.02 0.539476
2267.31 0.317616
2267.60 0.210264
2267.88 0.150271
2268.46 0.0890231
2269.03 0.0598667
2269.61 0.0437426
2270.75 0.0273324
2271.90 0.0195076
2273.05 0.0151587
2275.35 0.0107528
2277.64 0.00876569
2279.94 0.00786204
2284.53 0.00786947
2289.13 0.0103094
2291.43 0.0132594
2293.72 0.0189134
2294.87 0.0237797
2296.02 0.0312815
2297.17 0.0436975
2298.32 0.0663567
2298.89 0.0854844
2299.46 0.114628
2300.04 0.162305
2300.61 0.248314
2301.19 0.428148
2301.47 0.602624
2301.76 0.910969
2301.90 1.16365
2302.05 1.53488
2302.19 2.12148
2302.33 3.11048
2302.48 5.00355
2302.55 6.66324
2302.62 9.24212
2302.69 13.6888
2302.73 17.1694
2302.77 22.0859
2302.80 29.2770
2302.84 40.1933
2302.87 57.3138
2302.91 83.3952
2302.95 133.836
2303.00 167.631
2303.05 133.831
2303.09 83.3902
2303.12 60.3766
2303.15 44.6129
2303.21 26.5515
2303.27 17.1672
2303.33 11.9773
2303.39 8.75352
2303.45 6.69038
2303.57 4.25950
2303.69 2.93410
2303.81 2.14153
2304.04 1.28556
2304.28 0.854827
2304.52 0.610075
2304.76 0.456766
2304.99 0.355221
2305.47 0.232492
2305.94 0.164164
2306.42 0.122266
2306.89 0.0947854
2307.84 0.0619888
2308.79 0.0439584
2309.74 0.0329994
2310.69 0.0258537
2312.59 0.0174016
2314.49 0.0128043
2318.29 0.00827142
2322.09 0.00626600
2325.89 0.00530611
2333.48 0.00486806
2341.08 0.00590264
2344.88 0.00727872
2348.68 0.00991670
2352.48 0.0156126
2354.38 0.0212713
2356.28 0.0315380
2357.23 0.0401649
2358.18 0.0533142
2359.13 0.0748284
2360.08 0.113657
2360.55 0.146115
2361.03 0.195273
2361.50 0.274925
2361.98 0.416289
2362.21 0.532945
2362.45 0.706022
2362.69 0.981378
2362.93 1.45345
2363.16 2.37422
2363.28 3.19970
2363.40 4.52222
2363.52 6.87381
2363.58 8.76159
2363.64 11.5103
2363.70 15.7834
2363.76 22.5440
2363.82 33.9509
2363.87 53.6222
2363.94 85.9351
2364.00 107.535
2364.06 85.9305
2364.13 53.6176
2364.18 36.0336
2364.23 25.2219
2364.28 18.2434
2364.33 13.7638
2364.43 8.49900
2364.53 5.74611
2364.63 4.11735
2364.73 3.08959
2364.93 1.92344
2365.13 1.30815
2365.34 0.948283
2365.54 0.718955
2365.74 0.563989
2366.14 0.373818
2366.54 0.266610
2366.95 0.200045
2367.35 0.156128
2368.15 0.103423
2368.96 0.0744129
2369.76 0.0568321
2370.57 0.0454661
2372.18 0.0324285
2373.79 0.0259853
2377.01 0.0222133
2378.62 0.0234310
2380.23 0.0269964
2381.84 0.0342282
2383.45 0.0485853
2384.26 0.0610631
2385.06 0.0803226
2385.87 0.112115
2386.67 0.169889
2387.08 0.218337
2387.48 0.291601
2387.88 0.410670
2388.28 0.622041
2388.48 0.796652
2388.69 1.05556
2388.89 1.46520
2389.09 2.16933
2389.29 3.54258
2389.39 4.77277
2389.49 6.73815
2389.54 8.23503
2389.59 10.2316
2389.64 13.0266
2389.69 17.0874
2389.74 23.4051
2389.79 33.3383
2389.84 50.0098
2389.89 78.5659
2389.95 125.826
2390.00 157.383
2390.05 125.821
2390.11 78.5603
2390.15 53.6155
2390.19 37.7340
2390.23 27.5643
2390.28 20.8405
2390.36 12.9581
2390.44 8.80456
2390.53 6.32626
2390.61 4.77131
2390.78 2.97667
2390.95 2.02593
2391.11 1.46935
2391.28 1.11410
2391.45 0.873747
2391.78 0.578266
2392.12 0.411513
2392.45 0.308012
2392.78 0.239402
2393.45 0.156875
2394.12 0.111104
2394.79 0.0831037
2395.46 0.0647577
2396.80 0.0429053
2398.13 0.0309116
2399.47 0.0236248
2400.81 0.0188851
2403.48 0.0133356
2406.16 0.0104175
2411.51 0.00801883
2416.86 0.00824698
2419.53 0.00951487
2422.21 0.0123282
2424.88 0.0188245
2426.22 0.0254525
2427.56 0.0376236
2428.23 0.0479171
2428.89 0.0636576
2429.56 0.0894702
2430.23 0.136086
2430.90 0.234089
2431.23 0.329439
2431.57 0.498666
2431.90 0.844931
2432.07 1.17099
2432.24 1.72949
2432.40 2.80512
2432.49 3.76681
2432.57 5.28934
2432.66 7.97331
2432.70 10.1245
2432.74 13.1432
2432.78 17.7756
2432.82 25.0735
2432.86 37.0878
2432.91 56.5481
2432.95 90.8603
2433.00 113.102
2433.05 90.0951
2433.10 56.5447
2433.15 32.9987
2433.20 20.8187
2433.25 13.9755
2433.31 10.0025
2433.36 7.44120
2433.41 5.76406
2433.52 3.72372
2433.62 2.59660
2433.73 1.91148
2433.93 1.16066
2434.14 0.777283
2434.35 0.556808
2434.56 0.418579
2434.77 0.326642
2435.19 0.214765
2435.61 0.152373
2436.03 0.113915
2436.45 0.0886621
2437.29 0.0585072
2438.13 0.0419156
2438.97 0.0318407
2439.81 0.0252919
2441.48 0.0176192
2443.16 0.0135707
2446.52 0.0101115
2449.87 0.00996062
2451.55 0.0112025
2453.23 0.0141367
2454.91 0.0210646
2455.75 0.0281806
2456.58 0.0412956
2457.42 0.0693728
2457.84 0.0972622
2458.26 0.147598
2458.68 0.253537
2458.89 0.356834
2459.10 0.539209
2459.31 0.912418
2459.42 1.26472
2459.52 1.86082
2459.63 3.01620
2459.68 4.05281
2459.73 5.68071
2459.78 8.56760
2459.84 14.0743
2459.86 18.9123
2459.89 26.4501
2459.91 38.6900
2459.93 47.5466
2459.94 59.3291
2459.96 76.3745
2459.97 95.1896
2460.00 118.555
2460.02 111.700
2460.03 95.1880
2460.06 59.2294
2460.09 35.8342
2460.12 23.1282
2460.16 15.6992
2460.19 11.3628
2460.22 8.49401
2460.25 6.62219
2460.31 4.30634
2460.38 3.01568
2460.44 2.22657
2460.56 1.35905
2460.69 0.912054
2460.82 0.654274
2461.07 0.384772
2461.32 0.253194
2461.57 0.179804
2462.07 0.104745
2462.57 0.0690424
2463.08 0.0493491
2464.08 0.0295087
2465.09 0.0201932
2466.09 0.0150963
2468.10 0.00999911
2470.11 0.00764741
2472.13 0.00640183
2476.15 0.00529141
2484.19 0.00512389
2492.23 0.00641369
2496.25 0.00774451
2500.28 0.00987836
2504.30 0.0134647
2508.32 0.0200499
2510.33 0.0256052
2512.34 0.0340833
2514.35 0.0479560
2516.36 0.0729831
2517.37 0.0938742
2518.37 0.125423
2519.38 0.176458
2520.38 0.266836
2520.89 0.340900
2521.39 0.450855
2521.89 0.624170
2522.39 0.919678
2522.90 1.48777
2523.15 1.98893
2523.40 2.78809
2523.65 4.17673
2523.78 5.28065
2523.90 6.84802
2524.03 9.19940
2524.15 12.8219
2524.28 18.7245
2524.40 28.2981
2524.55 45.2695
2524.70 56.5786
2524.85 45.2632
2525.00 28.2920
2525.12 18.7196
2525.25 12.8544
2525.37 9.21932
2525.50 6.89096
2525.75 4.20454
2525.99 2.81541
2526.24 2.00773
2526.49 1.50306
2526.99 0.930956
2527.49 0.631777
2527.99 0.456923
2528.49 0.345684
2528.99 0.270881
2529.98 0.179357
2530.98 0.127844
2531.98 0.0960260
2532.97 0.0750417
2534.97 0.0500578
2536.96 0.0364999
2538.96 0.0285509
2540.95 0.0237866
2544.94 0.0201851
2546.93 0.0211235
2548.93 0.0249880
2550.92 0.0353007
2551.92 0.0462073
2552.92 0.0664574
2553.42 0.0836339
2553.91 0.109824
2554.41 0.152737
2554.91 0.229800
2555.41 0.390402
2555.66 0.544929
2555.91 0.815826
2556.16 1.36007
2556.28 1.86391
2556.41 2.69996
2556.53 4.26574
2556.59 5.59290
2556.66 7.63213
2556.72 11.0443
2556.78 17.0483
2556.81 21.8942
2556.84 28.8458
2556.87 39.0065
2556.91 53.8102
2556.95 86.4585
2557.00 107.621
2557.05 85.7305
2557.10 53.8071
2557.13 39.4010
2557.15 29.6653
2557.21 17.9991
2557.27 11.8594
2557.33 8.33395
2557.39 6.15173
2557.44 4.71690
2557.56 3.01671
2557.68 2.09074
2557.79 1.53312
2558.02 0.925233
2558.26 0.619161
2558.49 0.443931
2558.72 0.334408
2558.95 0.261444
2559.42 0.173355
2559.88 0.124264
2560.34 0.0941685
2560.81 0.0744277
2561.74 0.0510475
2562.67 0.0384619
2564.52 0.0268858
2566.38 0.0241583
2568.23 0.0303501
2569.16 0.0421850
2570.09 0.0770912
2570.55 0.125114
2571.02 0.256568
2571.25 0.430269
2571.37 0.596073
2571.48 0.883762
2571.60 1.44916
2571.66 1.96196
2571.71 2.80302
2571.77 4.31862
2571.80 5.57299
2571.83 7.44359
2571.86 10.3843
2571.89 15.3082
2571.92 24.1349
2571.93 31.3864
2571.95 40.6585
2571.96 52.4200
2571.97 64.9616
2572.00 81.2285
2572.03 64.9608
2572.05 40.5823
2572.07 29.2150
2572.09 21.8358
2572.12 12.9389
2572.16 8.39713
2572.19 5.89835
2572.23 4.31839
2572.26 3.29176
2572.33 2.10173
2572.40 1.44923
2572.47 1.06418
2572.61 0.642859
2572.89 0.311412
2573.17 0.186796
2573.72 0.0934050
2574.28 0.0602083
2575.39 0.0382312
2576.50 0.0352423
2577.61 0.0441563
2578.17 0.0560202
2578.72 0.0789847
2579.28 0.129065
2579.55 0.178773
2579.83 0.267826
2580.11 0.453133
2580.25 0.631220
2580.39 0.939413
2580.53 1.55427
2580.60 2.12281
2580.66 3.05215
2580.73 4.78150
2580.77 6.24409
2580.80 8.39370
2580.84 11.9476
2580.87 17.8972
2580.89 22.8409
2580.91 29.3796
2580.92 38.5741
2580.94 52.0550
2580.96 66.3199
2580.97 83.4352
2581.00 104.062
2581.03 83.4339
2581.06 52.0535
2581.08 37.9403
2581.10 28.4896
2581.13 17.0028
2581.17 11.0811
2581.21 7.72931
2581.24 5.67531
2581.28 4.33466
2581.35 2.77283
2581.43 1.91359
2581.50 1.39919
2581.65 0.844033
2581.80 0.563475
2581.94 0.404308
2582.24 0.238122
2582.53 0.157990
2582.83 0.113323
2583.42 0.0679179
2584.01 0.0463954
2584.60 0.0345584
2585.78 0.0227403
2586.96 0.0173984
2588.14 0.0147790
2590.49 0.0134846
2592.85 0.0163334
2594.03 0.0203059
2595.21 0.0281163
2596.39 0.0453384
2596.98 0.0626063
2597.57 0.0939589
2598.16 0.160254
2598.45 0.225195
2598.75 0.340621
2599.04 0.578437
2599.19 0.805828
2599.34 1.19654
2599.49 1.96645
2599.56 2.66284
2599.63 3.78159
2599.71 5.80552
2599.74 7.46907
2599.78 9.85114
2599.82 13.6365
2599.85 19.8715
2599.89 30.7825
2599.91 38.9419
2599.93 49.8945
2599.96 80.1851
2600.00 99.7964
2600.04 80.1833
2600.07 49.8925
2600.11 30.0123
2600.15 19.0241
2600.19 12.8937
2600.23 9.23417
2600.27 6.90757
2600.31 5.34823
2600.38 3.48279
2600.46 2.43142
2600.54 1.79793
2600.69 1.09302
2600.85 0.732274
2601.00 0.525888
2601.31 0.309408
2601.63 0.203955
2601.94 0.145147
2602.56 0.0850199
2603.18 0.0565429
2603.80 0.0408723
2605.04 0.0251925
2606.28 0.0180031
2607.52 0.0142897
2610.01 0.0114937
2612.49 0.0125420
2613.73 0.0149735
2614.97 0.0200949
2616.22 0.0317276
2616.84 0.0435270
2617.46 0.0650919
2618.08 0.111004
2618.39 0.156354
2618.70 0.237597
2619.01 0.406971
2619.16 0.569642
2619.32 0.854520
2619.47 1.42263
2619.55 1.95036
2619.63 2.81956
2619.71 4.44983
2619.75 5.84201
2619.78 7.91613
2619.82 11.3863
2619.86 17.5565
2619.88 22.6792
2619.90 29.6454
2619.92 39.7068
2619.94 54.9218
2619.96 70.4789
2619.97 88.0205
2620.00 109.904
2620.02 103.472
2620.03 88.0191
2620.06 54.9202
2620.09 32.9238
2620.12 21.2207
2620.15 14.5555
2620.19 10.5144
2620.22 7.84782
2620.25 6.11137
2620.31 3.99216
2620.37 2.78969
2620.44 2.06577
2620.56 1.26142
2620.68 0.846691
2620.81 0.607415
2621.06 0.357163
2621.31 0.234928
2621.56 0.166727
2622.06 0.0969445
2622.55 0.0637270
2623.05 0.0453882
2624.05 0.0268803
2625.05 0.0181583
2626.05 0.0133601
2628.04 0.00850289
2630.04 0.00620041
2632.03 0.00492214
2636.02 0.00362515
2640.01 0.00303268
2644.00 0.00275320
2651.98 0.00271247
2659.96 0.00335122
2663.95 0.00414474
2667.94 0.00567372
2669.93 0.00699068
2671.93 0.00902400
2673.92 0.0123896
2675.92 0.0185455
2676.91 0.0237499
2677.91 0.0317057
2678.91 0.0447903
2679.91 0.0685268
2680.90 0.118759
2681.40 0.168113
2681.90 0.256355
2682.40 0.439263
2682.65 0.614324
2682.90 0.919470
2683.15 1.52708
2683.27 2.08418
2683.40 2.99900
2683.52 4.68522
2683.58 6.09092
2683.65 8.21479
2683.71 11.6851
2683.77 17.5837
2683.80 22.1860
2683.83 28.5872
2683.86 37.6043
2683.89 50.2271
2683.95 80.4298
2684.00 100.592
2684.05 80.4268
2684.11 50.2239
2684.17 29.3279
2684.22 18.4968
2684.28 12.4228
2684.34 8.88880
2684.40 6.61474
2684.46 5.12260
2684.57 3.32040
2684.69 2.31389
2684.81 1.70660
2685.04 1.03449
2685.27 0.693021
2685.51 0.496407
2685.74 0.373031
2685.97 0.290596
2686.44 0.190610
2686.90 0.134846
2687.37 0.100546
2687.84 0.0779628
2688.77 0.0510062
2689.70 0.0361886
2690.63 0.0271852
2691.57 0.0213215
2693.43 0.0144393
2695.30 0.0107757
2697.16 0.00868556
2699.02 0.00749945
2702.75 0.00691899
2706.48 0.00935087
2708.35 0.0137383
2709.28 0.0183013
2710.21 0.0267545
2711.15 0.0449504
2711.61 0.0630340
2712.08 0.0958323
2712.54 0.164930
2713.01 0.352948
2713.24 0.600055
2713.36 0.836146
2713.48 1.24022
2713.59 2.03546
2713.65 2.74515
2713.71 3.89646
2713.77 5.98575
2713.80 7.66862
2713.83 10.1420
2713.85 13.9545
2713.88 20.1663
2713.90 24.9503
2713.91 30.8831
2713.93 39.3861
2713.94 50.1556
2713.96 64.2355
2713.97 80.6591
2714.00 100.369
2714.03 80.6580
2714.06 50.1542
2714.08 33.4377
2714.11 22.8683
2714.13 16.3484
2714.16 12.1619
2714.21 7.39751
2714.26 4.97268
2714.31 3.53786
2714.36 2.64105
2714.46 1.63625
2714.56 1.10721
2714.66 0.800882
2714.85 0.474678
2715.05 0.313335
2715.25 0.222417
2715.65 0.129201
2716.05 0.0846125
2716.44 0.0599925
2717.24 0.0350734
2718.03 0.0233316
2718.83 0.0168842
2720.42 0.0104063
2722.01 0.00737124
2723.60 0.00571261
2726.77 0.00406878
2729.95 0.00334710
2733.13 0.00302389
2739.49 0.00301441
2745.85 0.00381816
2749.03 0.00478729
2752.21 0.00664059
2753.80 0.00823403
2755.38 0.0106916
2756.97 0.0147627
2758.56 0.0222141
2760.15 0.0381667
2760.95 0.0540376
2761.74 0.0828445
2762.54 0.143894
2762.93 0.203854
2763.33 0.311405
2763.73 0.535102
2763.93 0.750464
2764.13 1.12520
2764.33 1.87509
2764.42 2.56144
2764.52 3.70264
2764.62 5.83186
2764.67 7.64405
2764.72 10.3540
2764.77 14.8463
2764.80 18.2117
2764.82 22.5639
2764.85 28.8176
2764.87 37.6969
2764.90 50.5112
2764.92 68.4769
2764.96 109.292
2765.00 136.962
2765.02 128.808
2765.04 109.289
2765.08 68.4741
2765.12 43.7658
2765.15 29.4150
2765.19 20.7736
2765.22 15.3200
2765.30 9.21430
2765.37 6.10682
2765.44 4.33008
2765.51 3.22482
2765.66 1.98314
2765.80 1.34021
2765.94 0.965530
2766.09 0.728440
2766.23 0.569051
2766.52 0.374814
2766.81 0.265508
2767.10 0.197991
2767.38 0.153394
2767.96 0.100013
2768.54 0.0705045
2769.11 0.0525006
2769.69 0.0407165
2770.84 0.0267364
2771.99 0.0190957
2773.15 0.0144726
2774.30 0.0114711
2776.60 0.00795985
2778.91 0.00609606
2783.51 0.00441560
2792.73 0.00485218
2795.04 0.00640484
2797.34 0.0109809
2798.49 0.0173469
2799.64 0.0352063
2800.22 0.0596267
2800.80 0.126925
2801.08 0.216894
2801.37 0.456224
2801.52 0.761884
2801.66 1.52039
2801.73 2.40771
2801.77 3.16959
2801.80 4.34899
2801.84 6.30227
2801.88 9.83092
2801.89 12.7203
2801.91 16.9227
2801.93 23.1727
2801.95 32.7771
2801.96 42.2438
2801.97 52.6454
2802.00 65.5597
2802.03 52.6448
2802.05 32.7764
2802.08 20.4383
2802.10 13.5191
2802.13 9.31569
2802.15 6.82662
2802.21 4.03658
2802.26 2.66777
2802.31 1.87674
2802.36 1.39772
2802.46 0.856409
2802.66 0.416097
2802.86 0.245559
2803.27 0.115335
2803.67 0.0675615
2804.48 0.0322992
2805.29 0.0196926
2806.91 0.0106576
2808.52 0.00760813
2811.76 0.00588370
2815.00 0.00615705
2818.23 0.00800309
2819.85 0.0100208
2821.47 0.0137276
2823.08 0.0215990
2823.89 0.0293798
2824.70 0.0434847
2825.51 0.0733479
2825.92 0.102848
2826.32 0.155907
2826.73 0.267202
2826.93 0.375064
2827.13 0.565858
2827.33 0.952547
2827.43 1.31519
2827.53 1.93223
2827.63 3.10839
2827.69 4.15346
2827.74 5.77618
2827.79 8.61230
2827.84 13.8923
2827.86 18.6418
2827.89 25.6516
2827.91 36.7057
2827.94 54.6282
2827.95 69.8801
2827.97 87.7667
2828.00 109.312
2828.03 87.7654
2828.06 54.6267
2828.08 40.2232
2828.10 30.3162
2828.14 18.2003
2828.18 11.9044
2828.22 8.39356
2828.26 6.16541
2828.30 4.70969
2828.37 3.01165
2828.45 2.07774
2828.53 1.52413
2828.68 0.917261
2828.84 0.612467
2828.99 0.438265
2829.30 0.257532
2829.61 0.170077
2829.92 0.121425
2830.54 0.0721729
2831.16 0.0490448
2831.78 0.0365199
2833.02 0.0243971
2834.26 0.0194079
2835.50 0.0174947
2837.97 0.0186642
2839.21 0.0215294
2840.45 0.0266236
2841.69 0.0355475
2842.93 0.0522292
2844.17 0.0879862
2844.79 0.123361
2845.41 0.186929
2846.03 0.319471
2846.34 0.447463
2846.65 0.671460
2846.96 1.12159
2847.11 1.53868
2847.27 2.23297
2847.42 3.53427
2847.50 4.65927
2847.58 6.37623
2847.65 9.25269
2847.73 14.3636
2847.77 18.5830
2847.81 24.5187
2847.85 33.4968
2847.89 46.3419
2847.94 74.2257
2848.00 92.3162
2848.06 73.7115
2848.12 46.3389
2848.16 31.0950
2848.21 21.7444
2848.26 15.7064
2848.30 11.8421
2848.39 7.30279
2848.49 4.91545
2848.58 3.52186
2848.67 2.64264
2848.86 1.64173
2849.05 1.11703
2849.23 0.808815
2849.42 0.612722
2849.60 0.480370
2849.98 0.318436
2850.35 0.226959
2850.72 0.170316
2851.09 0.132846
2851.84 0.0879548
2852.58 0.0631587
2853.32 0.0480817
2854.07 0.0382915
2855.55 0.0268871
2857.04 0.0209971
2860.02 0.0164465
2862.99 0.0174986
2864.48 0.0205123
2865.97 0.0268316
2867.45 0.0409315
2868.20 0.0550289
2868.94 0.0805353
2869.69 0.134271
2870.06 0.186845
2870.43 0.280766
2870.80 0.474348
2870.99 0.659376
2871.17 0.981047
2871.36 1.61536
2871.45 2.19279
2871.55 3.14374
2871.64 4.86780
2871.69 6.32226
2871.73 8.45789
2871.78 11.9194
2871.82 17.6561
2871.85 22.0429
2871.87 28.0361
2871.89 36.3040
2871.92 47.7382
2871.96 76.2845
2872.00 95.4290
2872.04 76.2827
2872.08 47.7364
2872.12 32.0154
2872.15 22.0419
2872.19 15.8365
2872.22 11.9190
2872.29 7.32319
2872.36 4.91951
2872.43 3.52130
2872.50 2.64127
2872.64 1.64172
2872.77 1.11891
2872.91 0.812323
2873.05 0.617543
2873.19 0.486265
2873.47 0.325602
2873.74 0.235660
2874.02 0.180334
2874.29 0.144112
2874.85 0.101781
2875.40 0.0801436
2876.50 0.0649721
2877.61 0.0741517
2878.16 0.0912364
2878.71 0.125882
2879.27 0.202432
2879.54 0.278124
2879.82 0.413330
2880.09 0.689943
2880.23 0.951406
2880.37 1.39976
2880.51 2.26435
2880.58 3.03254
2880.65 4.26489
2880.72 6.41369
2880.78 10.6152
2880.82 14.4155
2880.85 20.2325
2880.89 30.1154
2880.92 46.5045
2880.96 74.2239
2881.00 93.0303
2881.04 74.2221
2881.08 46.5025
2881.11 31.6130
2881.14 22.0576
2881.17 16.0070
2881.20 12.0426
2881.26 7.43848
2881.33 5.01304
2881.39 3.59573
2881.45 2.70090
2881.57 1.68148
2881.70 1.14667
2881.82 0.832338
2882.07 0.497106
2882.32 0.331623
2882.57 0.238002
2883.06 0.141551
2883.56 0.0951779
2884.05 0.0693818
2885.04 0.0431407
2886.04 0.0306934
2887.03 0.0238612
2889.01 0.0171536
2890.99 0.0143959
2892.97 0.0134565
2896.94 0.0149246
2898.92 0.0173994
2900.90 0.0216946
2902.89 0.0291740
2904.87 0.0431324
2905.86 0.0549785
2906.85 0.0730536
2907.84 0.102578
2908.83 0.155616
2909.83 0.265776
2910.32 0.371730
2910.82 0.556612
2911.31 0.925164
2911.56 1.26403
2911.81 1.82514
2912.06 2.86178
2912.18 3.73939
2912.30 5.07826
2912.43 7.25020
2912.55 11.0544
2912.61 14.0739
2912.68 18.3388
2912.74 24.4559
2912.80 33.0179
2912.90 52.9869
2913.00 66.1448
2913.10 52.7717
2913.20 33.0138
2913.32 19.0058
2913.43 11.7828
2913.55 7.87100
2913.66 5.59745
2913.78 4.15661
2913.89 3.20085
2914.12 2.06212
2914.35 1.43340
2914.58 1.05420
2915.04 0.637454
2915.50 0.426570
2915.96 0.305453
2916.41 0.229583
2916.87 0.179042
2917.79 0.117755
2918.71 0.0835492
2919.63 0.0624980
2920.54 0.0486562
2922.38 0.0321343
2924.21 0.0230350
2926.05 0.0175024
2927.88 0.0138966
2931.55 0.00966553
2935.22 0.00741887
2942.56 0.00544330
2949.90 0.00513557
2953.57 0.00551730
2957.24 0.00646500
2960.91 0.00859883
2962.75 0.0106856
2964.58 0.0143957
2966.42 0.0221004
2967.34 0.0296364
2968.25 0.0431936
2969.17 0.0717696
2969.63 0.0998612
2970.09 0.150241
2970.55 0.255447
2970.78 0.357593
2971.01 0.536995
2971.24 0.900802
2971.35 1.24101
2971.47 1.81136
2971.58 2.89866
2971.64 3.83632
2971.69 5.30379
2971.75 7.82984
2971.81 12.4517
2971.84 16.4183
2971.87 22.1265
2971.90 31.1995
2971.92 44.9026
2971.96 72.0473
2972.00 89.7615
2972.04 72.0458
2972.08 44.9011
2972.12 26.3155
2972.16 16.5842
2972.20 11.1054
2972.25 7.94580
2972.29 5.90281
2972.33 4.57285
2972.42 2.95269
2972.50 2.05896
2972.59 1.51625
2972.76 0.920149
2972.93 0.617950
2973.10 0.444219
2973.44 0.262675
2973.78 0.174823
2974.12 0.125828
2974.80 0.0761378
2975.48 0.0529226
2976.16 0.0404437
2977.52 0.0287319
2978.88 0.0244530
2980.24 0.0235654
2982.96 0.0282289
2984.32 0.0341105
2985.68 0.0438544
2987.04 0.0604421
2988.40 0.0910288
2989.08 0.116796
2989.76 0.155990
2990.44 0.219737
2991.12 0.333641
2991.46 0.427580
2991.80 0.567979
2992.14 0.791275
2992.48 1.17794
2992.82 1.93540
2992.99 2.61999
2993.16 3.73856
2993.24 4.58298
2993.33 5.74281
2993.41 7.39196
2993.50 9.83709
2993.58 13.6509
2993.67 19.9672
2993.75 31.1152
2993.79 39.9141
2993.84 51.4766
2993.92 82.5000
2994.00 103.239
2994.08 82.4951
2994.16 51.4717
2994.22 36.5280
2994.28 26.6833
2994.33 20.0610
2994.39 15.5063
2994.50 9.90610
2994.61 6.83989
2994.73 4.97381
2994.84 3.78033
2995.06 2.38427
2995.29 1.63720
2995.51 1.19247
2995.74 0.906859
2995.96 0.713469
2996.41 0.473939
2996.86 0.337908
2997.31 0.253025
2997.76 0.196760
2998.66 0.128927
2999.56 0.0912111
3000.46 0.0681108
3001.36 0.0529532
3003.16 0.0349520
3004.95 0.0251423
3006.75 0.0192909
3008.55 0.0156320
3012.15 0.0121004
3015.74 0.0129221
3017.54 0.0167989
3018.44 0.0211779
3019.34 0.0295113
3020.24 0.0476620
3021.14 0.0986494
3021.59 0.167854
3022.04 0.354570
3022.26 0.598369
3022.37 0.829684
3022.49 1.22228
3022.60 1.98538
3022.66 2.65685
3022.71 3.73008
3022.77 5.59119
3022.82 9.19846
3022.85 12.3735
3022.88 17.3284
3022.91 25.3876
3022.94 38.6667
3022.97 62.2148
3023.00 77.2689
3023.03 61.4538
3023.07 38.6062
3023.09 26.5166
3023.11 18.9818
3023.14 13.8853
3023.16 10.6187
3023.21 6.65231
3023.26 4.52258
3023.31 3.26246
3023.36 2.45998
3023.46 1.54480
3023.55 1.05460
3023.65 0.767648
3023.85 0.457914
3024.04 0.304285
3024.24 0.217147
3024.63 0.127119
3025.02 0.0838643
3025.41 0.0599032
3026.19 0.0355520
3026.97 0.0240063
3027.75 0.0176257
3029.31 0.0111204
3030.87 0.00798936
3032.43 0.00621431
3035.55 0.00432201
3038.67 0.00334384
3041.79 0.00274789
3048.03 0.00205588
3060.52 0.00141909
3073.00 0.00114323
3097.97 0.00114150
3104.22 0.00138240
3110.46 0.00212704
3113.58 0.00318065
3116.70 0.00617479
3118.26 0.0103285
3119.82 0.0220116
3120.60 0.0380852
3121.38 0.0826392
3121.77 0.142699
3122.16 0.304504
3122.36 0.514530
3122.55 1.04852
3122.65 1.69711
3122.70 2.27056
3122.75 3.16187
3122.80 4.72544
3122.84 7.73377
3122.87 10.4264
3122.89 14.4248
3122.92 20.7899
3122.94 31.1789
3122.96 39.9269
3122.97 50.1283
3123.00 62.3669
3123.03 50.1277
3123.06 31.1781
3123.08 21.1265
3123.11 14.6336
3123.13 10.5597
3123.15 7.90988
3123.20 4.85549
3123.25 3.28308
3123.30 2.34450
3123.35 1.75476
3123.44 1.09092
3123.63 0.535629
3123.82 0.317055
3124.20 0.148592
3124.59 0.0860459
3125.35 0.0396461
3126.11 0.0229244
3127.64 0.0107599
3129.17 0.00644937
3132.22 0.00335972
3135.28 0.00229797
3141.39 0.00162580
3147.50 0.00156734
3153.61 0.00190755
3156.66 0.00233356
3159.72 0.00315199
3162.77 0.00494228
3164.30 0.00674259
3165.83 0.0100405
3167.36 0.0171134
3168.12 0.0241647
3168.88 0.0369939
3169.65 0.0642920
3170.41 0.139760
3170.79 0.241348
3171.18 0.514129
3171.37 0.866686
3171.46 1.19895
3171.56 1.75723
3171.65 2.83010
3171.70 3.77194
3171.75 5.22413
3171.80 7.74449
3171.84 12.3718
3171.87 16.3888
3171.89 22.4801
3171.92 32.0213
3171.94 46.8966
3171.95 59.9351
3171.97 74.6460
3172.00 93.8022
3172.02 87.7994
3172.03 74.6449
3172.06 46.8955
3172.09 31.5288
3172.11 22.1686
3172.14 15.9883
3172.16 12.1017
3172.21 7.47251
3172.26 5.07051
3172.31 3.63036
3172.35 2.72223
3172.45 1.69635
3172.55 1.15180
3172.65 0.834937
3172.84 0.494764
3173.04 0.326900
3173.23 0.232007
3173.62 0.134450
3174.01 0.0876703
3174.40 0.0617586
3175.18 0.0355723
3175.96 0.0232432
3176.74 0.0164914
3178.30 0.00972184
3179.86 0.00657351
3181.42 0.00486465
3184.53 0.00318479
3187.65 0.00243985
3190.77 0.00207546
3197.00 0.00185508
3203.24 0.00205301
3209.47 0.00289920
3212.59 0.00405046
3215.71 0.00716496
3217.27 0.0113671
3218.83 0.0230383
3219.61 0.0390096
3220.39 0.0832459
3220.78 0.143078
3221.17 0.304401
3221.36 0.515357
3221.56 1.05664
3221.65 1.72163
3221.70 2.31537
3221.75 3.24762
3221.80 4.90715
3221.85 8.07898
3221.87 11.0204
3221.90 15.4820
3221.92 22.7809
3221.93 28.0937
3221.95 34.8939
3221.96 44.8635
3221.97 56.2471
3222.00 69.8118
3222.01 65.5606
3222.03 55.4339
3222.06 34.8932
3222.08 24.4029
3222.09 17.7958
3222.11 13.1749
3222.13 10.1902
3222.17 6.47361
3222.21 4.44051
3222.25 3.22272
3222.29 2.44052
3222.37 1.54283
3222.52 0.768318
3222.68 0.459832
3222.99 0.218021
3223.30 0.127598
3223.92 0.0598855
3224.54 0.0354766
3225.78 0.0178135
3227.03 0.0117581
3229.51 0.00806645
3232.00 0.00802426
3234.48 0.0104809
3235.73 0.0133465
3236.97 0.0187112
3238.21 0.0302302
3238.83 0.0416508
3239.45 0.0623550
3240.07 0.106170
3240.70 0.226212
3241.01 0.386233
3241.16 0.539536
3241.32 0.807318
3241.47 1.34425
3241.55 1.83931
3241.63 2.65198
3241.71 4.16830
3241.74 5.45601
3241.78 7.36371
3241.82 10.5298
3241.86 16.0908
3241.88 20.6501
3241.90 26.7777
3241.92 35.5016
3241.94 48.0088
3241.95 61.5379
3241.97 77.1858
3242.00 95.9791
3242.03 77.1847
3242.06 48.0077
3242.08 35.5006
3242.10 26.7768
3242.14 16.0902
3242.18 10.5293
3242.22 7.42605
3242.26 5.45572
3242.30 4.16809
3242.37 2.66576
3242.45 1.83933
3242.53 1.34937
3242.68 0.812237
3242.84 0.542451
3242.99 0.388254
3243.30 0.227938
3243.61 0.150697
3243.92 0.107719
3244.54 0.0642190
3245.16 0.0438163
3245.78 0.0327976
3247.02 0.0222271
3249.50 0.0166304
3251.98 0.0186930
3253.22 0.0221397
3254.46 0.0280735
3255.69 0.0383616
3256.93 0.0575410
3257.55 0.0738198
3258.17 0.0986637
3258.79 0.139385
3259.41 0.212635
3260.03 0.365565
3260.34 0.513439
3260.65 0.772593
3260.96 1.29450
3261.12 1.77924
3261.27 2.59517
3261.43 4.12444
3261.50 5.45337
3261.58 7.49238
3261.66 10.9344
3261.70 13.5740
3261.74 17.1204
3261.77 22.2864
3261.81 29.6328
3261.85 40.8955
3261.89 57.2543
3261.95 91.8095
3262.00 114.247
3262.06 91.1496
3262.11 57.2512
3262.15 39.8521
3262.19 28.7159
3262.23 21.2105
3262.27 16.2710
3262.35 10.2700
3262.44 7.01478
3262.52 5.07586
3262.60 3.83537
3262.76 2.41037
3262.92 1.64785
3263.08 1.19652
3263.24 0.907839
3263.41 0.713230
3263.73 0.472450
3264.05 0.336229
3264.38 0.251529
3264.70 0.195310
3265.35 0.127600
3265.99 0.0900023
3266.64 0.0669846
3267.29 0.0518952
3268.58 0.0339087
3269.87 0.0240252
3271.17 0.0180109
3272.46 0.0140797
3275.05 0.00942121
3277.63 0.00687531
3280.22 0.00533745
3282.80 0.00434471
3287.98 0.00320575
3293.15 0.00264228
3303.50 0.00231853
3313.84 0.00275518
3319.02 0.00340027
3324.19 0.00466869
3326.78 0.00576361
3329.36 0.00745075
3331.95 0.0102369
3334.54 0.0153184
3335.83 0.0196057
3337.12 0.0261548
3338.42 0.0369078
3339.71 0.0564365
3340.36 0.0728443
3341.00 0.0978229
3341.65 0.138585
3342.30 0.211740
3342.94 0.364152
3343.27 0.511004
3343.59 0.768846
3343.91 1.28755
3344.07 1.76884
3344.24 2.57146
3344.40 4.07891
3344.48 5.37503
3344.56 7.35277
3344.64 10.6621
3344.68 13.2158
3344.72 16.6423
3344.76 21.6103
3344.80 28.6530
3344.84 39.0573
3344.88 54.3959
3344.94 87.3396
3345.00 108.820
3345.06 86.7511
3345.12 54.3928
3345.16 39.3712
3345.20 29.0793
3345.27 17.2606
3345.35 11.1564
3345.43 7.77173
3345.51 5.68002
3345.58 4.33710
3345.74 2.75033
3345.89 1.89503
3346.05 1.38348
3346.36 0.830544
3346.67 0.552614
3346.98 0.394551
3347.29 0.295661
3347.60 0.230114
3348.22 0.150985
3348.83 0.106989
3349.45 0.0800702
3350.07 0.0624449
3351.31 0.0416387
3352.55 0.0304634
3353.79 0.0240048
3355.02 0.0202377
3357.50 0.0178788
3359.98 0.0235602
3361.21 0.0344413
3361.83 0.0457950
3362.45 0.0667528
3363.07 0.111387
3363.69 0.233838
3364.00 0.396196
3364.16 0.551433
3364.31 0.818896
3364.46 1.34778
3364.54 1.83201
3364.62 2.61704
3364.70 4.05414
3364.74 5.25041
3364.77 6.98756
3364.81 9.79124
3364.85 14.3607
3364.87 18.0247
3364.89 22.7703
3364.91 29.2470
3364.93 38.1762
3364.96 60.9709
3365.00 76.3352
3365.04 60.9699
3365.07 38.1750
3365.11 22.1978
3365.15 13.7525
3365.19 9.18047
3365.24 6.50707
3365.28 4.83188
3365.32 3.72090
3365.40 2.40505
3365.48 1.67146
3365.56 1.23216
3365.72 0.746561
3365.89 0.500644
3366.05 0.359331
3366.38 0.211651
3366.70 0.140105
3367.03 0.100111
3367.68 0.0593095
3368.33 0.0399650
3368.98 0.0292982
3370.29 0.0185809
3371.59 0.0136518
3372.90 0.0111137
3375.50 0.00933178
3378.11 0.0105502
3379.42 0.0127918
3380.72 0.0174081
3382.02 0.0278013
3382.68 0.0383166
3383.33 0.0575557
3383.98 0.0984413
3384.63 0.211088
3384.96 0.361320
3385.12 0.505912
3385.28 0.759122
3385.45 1.26404
3385.53 1.73281
3385.61 2.50524
3385.69 3.95236
3385.73 5.18717
3385.77 7.02811
3385.81 10.1008
3385.85 15.3728
3385.88 19.8027
3385.90 25.8163
3385.92 34.4620
3385.94 47.4364
3385.95 60.8559
3385.97 75.9960
3386.00 94.8798
3386.02 89.3299
3386.03 75.9949
3386.06 47.4352
3386.08 34.9820
3386.10 26.1766
3386.14 15.7307
3386.18 10.2969
3386.22 7.20262
3386.26 5.29856
3386.30 4.05207
3386.38 2.58152
3386.46 1.78406
3386.54 1.30520
3386.70 0.784578
3386.86 0.523092
3387.02 0.373621
3387.34 0.218476
3387.66 0.143340
3387.98 0.101475
3388.62 0.0589358
3389.26 0.0387772
3389.90 0.0276833
3391.18 0.0164755
3392.46 0.0111963
3393.74 0.00828289
3396.30 0.00532283
3398.85 0.00390726
3401.41 0.00311423
3406.53 0.00229941
3411.64 0.00192031
3416.76 0.00173614
3426.99 0.00168310
3437.22 0.00200603
3442.34 0.00240808
3447.45 0.00316998
3452.57 0.00481004
3455.12 0.00644108
3457.68 0.00941057
3460.24 0.0157477
3461.52 0.0220531
3462.80 0.0335287
3464.08 0.0579584
3464.72 0.0821617
3465.35 0.125862
3465.99 0.217789
3466.31 0.307478
3466.63 0.466321
3466.95 0.791586
3467.11 1.09928
3467.27 1.62342
3467.43 2.64114
3467.51 3.54769
3467.59 5.00599
3467.67 7.55887
3467.71 9.61004
3467.75 12.5809
3467.79 17.0707
3467.83 24.1894
3467.87 36.0123
3467.91 55.6635
3467.96 89.2395
3468.00 111.279
3468.04 89.2375
3468.09 55.6614
3468.13 34.1697
3468.18 22.0705
3468.22 15.1527
3468.27 11.0244
3468.31 8.29382
3468.36 6.44851
3468.45 4.21997
3468.54 2.95668
3468.63 2.19031
3468.80 1.33452
3468.98 0.896773
3469.16 0.643647
3469.34 0.484343
3469.52 0.377674
3469.88 0.248213
3470.24 0.175658
3470.59 0.130969
3470.95 0.101583
3471.67 0.0663767
3472.38 0.0469702
3473.10 0.0351586
3473.81 0.0274555
3475.25 0.0183450
3476.68 0.0134028
3478.11 0.0104482
3479.54 0.00856553
3482.40 0.00646602
3485.26 0.00550352
3490.99 0.00521652
3496.71 0.00666365
3499.58 0.00846809
3502.44 0.0119068
3503.87 0.0148481
3505.30 0.0193640
3506.73 0.0268028
3508.16 0.0403482
3508.88 0.0517512
3509.60 0.0691423
3510.31 0.0975924
3511.03 0.148847
3511.74 0.256247
3512.10 0.360607
3512.46 0.544682
3512.82 0.918851
3513.00 1.27008
3513.17 1.86826
3513.35 3.01010
3513.44 4.02080
3513.53 5.60614
3513.62 8.35742
3513.67 10.5293
3513.71 13.5394
3513.76 18.0662
3513.80 24.8282
3513.85 35.7800
3513.89 53.1538
3513.95 85.1702
3514.00 106.309
3514.06 85.1677
3514.11 53.1512
3514.15 38.3353
3514.18 28.1390
3514.22 21.2301
3514.26 16.4528
3514.33 10.5854
3514.41 7.35421
3514.48 5.36387
3514.55 4.07631
3514.70 2.58214
3514.85 1.77399
3515.00 1.29515
3515.14 0.984993
3515.29 0.775406
3515.59 0.515804
3515.88 0.367939
3516.18 0.275848
3516.47 0.214828
3517.06 0.141071
3517.65 0.100083
3518.24 0.0749969
3518.83 0.0585736
3520.01 0.0390633
3521.19 0.0284376
3522.37 0.0220640
3523.55 0.0180007
3525.91 0.0134691
3528.26 0.0114074
3532.98 0.0109082
3537.70 0.0143758
3540.06 0.0186172
3542.42 0.0266245
3543.60 0.0334132
3544.78 0.0437545
3545.96 0.0606479
3547.14 0.0910352
3547.73 0.116367
3548.32 0.154671
3548.91 0.216673
3549.50 0.326768
3550.09 0.552722
3550.38 0.767490
3550.67 1.13694
3550.97 1.86016
3551.12 2.51444
3551.26 3.57261
3551.34 4.37400
3551.41 5.47264
3551.49 7.03083
3551.56 9.29500
3551.63 12.8451
3551.71 18.5730
3551.78 28.6471
3551.85 46.3683
3551.93 74.3071
3552.00 92.5652
3552.07 73.9020
3552.15 46.3656
3552.22 27.9378
3552.30 17.9799
3552.38 12.3187
3552.45 8.89192
3552.53 6.66755
3552.61 5.18832
3552.76 3.38702
3552.91 2.37472
3553.06 1.75939
3553.37 1.07617
3553.67 0.727926
3553.98 0.527344
3554.28 0.401763
3554.59 0.318521
3555.20 0.218864
3555.81 0.165601
3556.42 0.136062
3557.03 0.120998
3558.25 0.123507
3558.86 0.144909
3559.46 0.192518
3560.07 0.300997
3560.38 0.409194
3560.68 0.602461
3560.99 0.996171
3561.14 1.36753
3561.29 1.99530
3561.45 3.19951
3561.52 4.24904
3561.60 5.90672
3561.68 8.73205
3561.71 10.9423
3561.75 14.0630
3561.79 18.6260
3561.83 25.5522
3561.87 36.4220
3561.90 54.0542
3561.95 86.5178
3562.00 108.028
3562.05 86.5153
3562.10 53.9951
3562.14 34.3508
3562.19 23.0274
3562.23 16.1155
3562.27 11.8832
3562.36 7.11401
3562.45 4.72407
3562.54 3.34454
3562.63 2.48973
3562.81 1.53661
3562.98 1.04111
3563.16 0.754260
3563.34 0.572557
3563.52 0.450247
3563.87 0.300556
3564.23 0.216104
3564.58 0.163735
3564.93 0.129050
3565.64 0.0870230
3566.35 0.0634597
3567.77 0.0390198
3569.19 0.0270517
3570.61 0.0201926
3573.45 0.0128788
3576.29 0.00916880
3579.12 0.00699102
3584.80 0.00463152
3590.47 0.00344122
3596.15 0.00277158
3607.50 0.00217309
3618.85 0.00217856
3624.53 0.00244653
3630.20 0.00306242
3635.88 0.00449888
3638.72 0.00596842
3641.55 0.00867549
3642.97 0.0109715
3644.39 0.0144948
3645.81 0.0203034
3647.23 0.0308918
3648.65 0.0534548
3649.36 0.0758181
3650.07 0.116215
3650.78 0.201206
3651.13 0.284145
3651.48 0.431124
3651.84 0.732140
3652.02 1.01599
3652.19 1.50289
3652.37 2.45046
3652.46 3.29695
3652.55 4.64301
3652.64 7.02748
3652.68 8.92369
3652.73 11.6654
3652.77 15.9180
3652.81 22.5354
3652.86 33.5245
3652.90 52.6083
3652.95 83.8559
3653.00 105.206
3653.03 98.6655
3653.05 83.8538
3653.10 52.6062
3653.15 31.3639
3653.20 19.9090
3653.25 13.5092
3653.30 9.74149
3653.36 7.28643
3653.41 5.66717
3653.51 3.68159
3653.61 2.57639
3653.72 1.90116
3653.92 1.15523
3654.13 0.773640
3654.34 0.554784
3654.54 0.417203
3654.75 0.325153
3655.16 0.213328
3655.57 0.150895
3655.99 0.112377
3656.40 0.0870672
3657.22 0.0568150
3658.05 0.0401430
3658.87 0.0299951
3659.70 0.0233738
3661.35 0.0155370
3663.00 0.0112753
3664.65 0.00871652
3666.29 0.00707760
3669.59 0.00522343
3672.89 0.00433623
3679.49 0.00393241
3686.09 0.00492914
3689.39 0.00628477
3692.69 0.00893960
3694.34 0.0112399
3695.99 0.0147976
3697.64 0.0206978
3699.28 0.0314894
3700.11 0.0406002
3700.93 0.0545215
3701.76 0.0773379
3702.58 0.118536
3703.41 0.205083
3703.82 0.289530
3704.23 0.439099
3704.65 0.744794
3704.85 1.03263
3705.06 1.52541
3705.26 2.47373
3705.37 3.31462
3705.47 4.66082
3705.57 7.00093
3705.63 8.88947
3705.68 11.5538
3705.73 15.6256
3705.78 21.8820
3705.83 32.3204
3705.88 49.2918
3705.94 78.8227
3706.00 98.4908
3706.06 78.8202
3706.12 49.2893
3706.16 35.5938
3706.20 26.4335
3706.27 15.6242
3706.35 10.1209
3706.43 7.03060
3706.50 5.14690
3706.58 3.92200
3706.73 2.48636
3706.89 1.71269
3707.04 1.25002
3707.35 0.748868
3707.66 0.498033
3707.97 0.354966
3708.27 0.265773
3708.58 0.206619
3709.20 0.135055
3709.81 0.0952289
3710.43 0.0708139
3711.04 0.0547966
3712.28 0.0356925
3713.51 0.0251945
3714.74 0.0188047
3715.97 0.0146347
3718.43 0.00969663
3720.90 0.00699754
3723.36 0.00536448
3725.82 0.00430375
3730.75 0.00306277
3735.67 0.00240542
3745.53 0.00182918
3755.38 0.00174903
3760.30 0.00187900
3765.23 0.00220496
3770.16 0.00297142
3772.62 0.00375112
3775.08 0.00518060
3777.55 0.00824028
3778.78 0.0112915
3780.01 0.0168554
3781.24 0.0287384
3781.86 0.0405421
3782.47 0.0619299
3783.09 0.107190
3783.70 0.230928
3784.01 0.395250
3784.32 0.827256
3784.47 1.37070
3784.55 1.86746
3784.63 2.68914
3784.70 4.18879
3784.74 5.46618
3784.78 7.34652
3784.82 10.4385
3784.86 15.6121
3784.88 19.6188
3784.90 25.1562
3784.91 32.9021
3784.93 44.2054
3784.95 56.2841
3784.97 70.7808
3785.00 88.3417
3785.02 82.8840
3785.03 70.7798
3785.07 44.1377
3785.09 30.1674
3785.12 21.4486
3785.14 15.6114
3785.17 11.8899
3785.22 7.40767
3785.27 5.05307
3785.32 3.63204
3785.37 2.74549
3785.47 1.71516
3785.57 1.17067
3785.67 0.849157
3785.88 0.504880
3786.08 0.333754
3786.28 0.237390
3786.68 0.137903
3787.09 0.0901660
3787.49 0.0637626
3788.30 0.0370168
3789.11 0.0244230
3789.92 0.0175246
3791.54 0.0106374
3793.15 0.00745845
3794.77 0.00576112
3798.01 0.00416735
3804.48 0.00342111
3810.95 0.00393126
3817.42 0.00574691
3820.65 0.00767649
3823.89 0.0112342
3825.50 0.0142391
3827.12 0.0188259
3828.74 0.0263485
3830.36 0.0399650
3831.17 0.0513725
3831.97 0.0686945
3832.78 0.0968687
3833.59 0.147223
3834.40 0.251372
3834.80 0.351005
3835.21 0.524509
3835.61 0.868735
3835.82 1.18254
3836.02 1.70104
3836.22 2.64585
3836.32 3.43686
3836.42 4.63009
3836.52 6.53568
3836.62 9.79858
3836.67 12.3612
3836.72 15.8392
3836.78 20.8097
3836.83 27.5865
3836.91 44.1688
3837.00 55.0274
3837.09 43.9660
3837.18 27.5843
3837.26 17.2180
3837.35 11.3082
3837.43 7.85496
3837.52 5.72398
3837.60 4.33627
3837.69 3.38948
3837.86 2.22540
3838.03 1.56836
3838.20 1.16320
3838.53 0.712705
3838.87 0.480392
3839.21 0.346048
3839.55 0.261071
3839.89 0.204268
3840.57 0.135147
3841.25 0.0964165
3841.93 0.0726081
3842.61 0.0569801
3843.97 0.0385305
3845.32 0.0286959
3846.68 0.0231491
3848.04 0.0201263
3850.76 0.0193921
3852.11 0.0220481
3853.47 0.0285162
3854.83 0.0438585
3855.51 0.0595621
3856.19 0.0883000
3856.87 0.149020
3857.55 0.313776
3857.89 0.529373
3858.06 0.733166
3858.23 1.08013
3858.40 1.75246
3858.48 2.35019
3858.57 3.30970
3858.65 4.98409
3858.69 6.34386
3858.74 8.26115
3858.78 11.2172
3858.82 15.7673
3858.86 23.2194
3858.90 35.6411
3858.95 56.9810
3859.00 71.2392
3859.05 56.9797
3859.10 35.6025
3859.15 21.2859
3859.20 13.5509
3859.25 9.21390
3859.30 6.65477
3859.35 4.98339
3859.40 3.87987
3859.50 2.52440
3859.60 1.76313
3859.70 1.30314
3859.91 0.794103
3860.11 0.533240
3860.31 0.383465
3860.72 0.225860
3861.12 0.149237
3861.53 0.106304
3862.34 0.0623926
3863.15 0.0414997
3863.96 0.0299266
3865.58 0.0181714
3867.20 0.0125848
3868.82 0.00947733
3872.06 0.00629911
3875.30 0.00478888
3878.53 0.00397848
3885.01 0.00332069
3891.49 0.00345790
3894.73 0.00388745
3897.97 0.00479148
3901.21 0.00680435
3902.83 0.00881740
3904.45 0.0124769
3906.07 0.0202606
3906.88 0.0279788
3907.69 0.0419964
3908.50 0.0716966
3909.31 0.153678
3909.72 0.263601
3910.12 0.557472
3910.32 0.936592
3910.43 1.28829
3910.53 1.88172
3910.63 2.99830
3910.68 3.97685
3910.73 5.47466
3910.78 8.03873
3910.83 12.6637
3910.86 16.6894
3910.88 22.4431
3910.91 31.1590
3910.93 44.7755
3910.97 71.4038
3911.00 89.5746
3911.02 83.9253
3911.04 71.4028
3911.07 44.7744
3911.09 32.9283
3911.11 24.8417
3911.16 14.9530
3911.20 9.79755
3911.24 6.91062
3911.28 5.08090
3911.33 3.88388
3911.41 2.48450
3911.50 1.71500
3911.58 1.25795
3911.75 0.758956
3911.92 0.506259
3912.09 0.362505
3912.43 0.212297
3912.78 0.139667
3913.12 0.0993462
3913.80 0.0583787
3914.48 0.0390704
3915.16 0.0285418
3916.53 0.0181643
3917.89 0.0136075
3919.26 0.0114758
3921.99 0.0106970
3924.72 0.0135739
3926.08 0.0172836
3927.45 0.0244228
3928.81 0.0399745
3929.49 0.0554593
3930.18 0.0835119
3930.86 0.142568
3931.54 0.302232
3931.88 0.510583
3932.05 0.708043
3932.22 1.04454
3932.39 1.69754
3932.48 2.27480
3932.56 3.20001
3932.65 4.83676
3932.69 6.15353
3932.73 8.00905
3932.78 10.8681
3932.82 15.2668
3932.86 22.6929
3932.90 34.9810
3932.95 55.8561
3933.00 69.9209
3933.05 55.8549
3933.10 34.9432
3933.13 24.8059
3933.16 17.9118
3933.20 13.3411
3933.23 10.2361
3933.30 6.49391
3933.37 4.45030
3933.44 3.22774
3933.50 2.44322
3933.64 1.53549
3933.78 1.05229
3933.91 0.765635
3934.18 0.457411
3934.46 0.304181
3934.73 0.217161
3935.27 0.127186
3935.82 0.0840405
3936.36 0.0600941
3937.45 0.0358750
3938.53 0.0245111
3939.62 0.0183354
3941.80 0.0123246
3943.97 0.00978870
3946.15 0.00873288
3950.50 0.00888791
3954.85 0.0116744
3957.02 0.0147244
3959.20 0.0201700
3961.38 0.0312178
3962.46 0.0417252
3963.55 0.0601900
3964.64 0.0981555
3965.18 0.134863
3965.73 0.199991
3966.27 0.334501
3966.54 0.463735
3966.81 0.690274
3967.09 1.14375
3967.22 1.56374
3967.36 2.26890
3967.49 3.58610
3967.56 4.71798
3967.63 6.47161
3967.70 9.37905
3967.73 11.5923
3967.77 14.6387
3967.80 18.9502
3967.83 25.2250
3967.87 34.5588
3967.90 48.3232
3967.95 77.0296
3968.00 96.5719
3968.03 90.8112
3968.05 77.0283
3968.10 48.2737
3968.13 34.2270
3968.17 25.0036
3968.20 18.8005
3968.24 14.5352
3968.30 9.32589
3968.37 6.44251
3968.44 4.70174
3968.51 3.57743
3968.64 2.26847
3968.78 1.56776
3968.92 1.15077
3969.19 0.701724
3969.46 0.478949
3969.73 0.353387
3970.28 0.226691
3970.82 0.170604
3971.36 0.145171
3972.45 0.141091
3973.54 0.190575
3974.08 0.249472
3974.63 0.358281
3975.17 0.581605
3975.44 0.790405
3975.72 1.14249
3975.99 1.80245
3976.12 2.37091
3976.26 3.25331
3976.40 4.71983
3976.53 7.38185
3976.60 9.57120
3976.67 12.7675
3976.74 17.5401
3976.80 24.6587
3976.90 39.3905
3977.00 49.1880
3977.10 39.3878
3977.20 24.6555
3977.31 13.9087
3977.43 8.53594
3977.55 5.66618
3977.66 4.00244
3977.78 2.96581
3977.89 2.28102
3978.13 1.46580
3978.36 1.01830
3978.59 0.749364
3979.05 0.455083
3979.52 0.306034
3979.98 0.220608
3980.45 0.166916
3980.91 0.131101
3981.84 0.0875823
3982.77 0.0631431
3983.70 0.0480418
3984.63 0.0380668
3986.49 0.0261217
3988.34 0.0196031
3990.20 0.0157907
3992.06 0.0135682
3995.77 0.0123488
3997.63 0.0134602
3999.49 0.0166380
4001.35 0.0245751
4002.28 0.0328584
4003.20 0.0481739
4004.13 0.0810069
4004.60 0.113551
4005.06 0.172108
4005.53 0.294577
4005.76 0.412833
4005.99 0.620990
4006.22 1.03943
4006.34 1.42831
4006.45 2.08335
4006.57 3.31253
4006.63 4.37372
4006.69 6.02572
4006.74 8.78346
4006.77 10.8970
4006.80 13.8245
4006.83 18.0012
4006.86 24.1433
4006.89 33.4018
4006.92 47.6039
4006.96 76.0183
4007.00 95.2113
4007.02 89.2959
4007.04 76.0169
4007.08 47.6025
4007.11 34.5982
4007.13 25.7545
4007.19 15.2298
4007.24 9.86707
4007.29 6.89851
4007.35 5.04628
4007.40 3.86173
4007.50 2.45362
4007.61 1.68747
4007.71 1.23387
4007.92 0.741404
4008.13 0.493507
4008.34 0.352740
4008.77 0.206114
4009.19 0.135488
4009.61 0.0961485
4010.45 0.0561620
4011.29 0.0372078
4012.13 0.0267486
4013.82 0.0161678
4015.50 0.0111508
4017.18 0.00836241
4020.55 0.00549074
4023.92 0.00408967
4027.28 0.00328864
4034.02 0.00244575
4040.75 0.00204615
4047.48 0.00185565
4060.95 0.00184453
4074.42 0.00233899
4081.15 0.00293895
4087.88 0.00408093
4091.25 0.00505638
4094.62 0.00655386
4097.99 0.00901886
4101.35 0.0135051
4103.04 0.0172835
4104.72 0.0230491
4106.40 0.0325085
4108.09 0.0496444
4108.93 0.0640093
4109.77 0.0858316
4110.61 0.121340
4111.45 0.184828
4112.29 0.316180
4112.72 0.442060
4113.14 0.660785
4113.56 1.09440
4113.77 1.49183
4113.98 2.14586
4114.08 2.65046
4114.19 3.34508
4114.29 4.34593
4114.40 5.85619
4114.50 8.26926
4114.61 12.4046
4114.66 15.6540
4114.71 20.0721
4114.77 26.3905
4114.82 35.0291
4114.91 56.1309
4115.00 70.2334
4115.09 56.1282
4115.18 35.0264
4115.24 25.6954
4115.30 19.2913
4115.41 11.6547
4115.52 7.65694
4115.63 5.36978
4115.74 3.94759
4115.86 3.02405
4116.08 1.93117
4116.31 1.33469
4116.53 0.977745
4116.98 0.588195
4117.43 0.392379
4117.88 0.280401
4118.33 0.210474
4118.77 0.164010
4119.67 0.107831
4120.57 0.0765757
4121.47 0.0574520
4122.36 0.0449492
4124.16 0.0302038
4125.96 0.0223454
4127.75 0.0178830
4129.55 0.0153970
4133.14 0.0144707
4134.93 0.0162278
4136.73 0.0207237
4138.52 0.0315849
4139.42 0.0427950
4140.32 0.0634116
4141.22 0.107395
4141.66 0.150757
4142.11 0.228400
4142.56 0.389614
4142.79 0.544935
4143.01 0.815131
4143.24 1.35465
4143.35 1.84784
4143.46 2.66635
4143.57 4.16784
4143.63 5.43367
4143.68 7.35673
4143.74 10.4583
4143.77 12.7571
4143.80 15.8457
4143.82 20.0877
4143.85 26.0366
4143.88 34.4990
4143.91 46.5712
4143.95 74.7576
4144.00 93.1158
4144.05 74.7560
4144.09 46.5696
4144.12 33.4408
4144.16 24.5806
4144.22 14.4046
4144.28 9.22252
4144.34 6.39139
4144.41 4.65001
4144.47 3.54185
4144.59 2.24472
4144.72 1.54219
4144.84 1.12379
4145.09 0.673539
4145.34 0.447795
4145.59 0.319769
4145.84 0.239959
4146.09 0.186884
4146.59 0.122808
4147.08 0.0872097
4147.58 0.0653265
4148.08 0.0509657
4149.08 0.0338144
4150.08 0.0243474
4151.07 0.0185629
4152.07 0.0147633
4154.06 0.0102236
4156.06 0.00770446
4160.05 0.00513376
4164.03 0.00391677
4168.02 0.00326767
4176.00 0.00275828
4183.98 0.00292494
4187.96 0.00333176
4191.95 0.00417467
4195.94 0.00604381
4197.93 0.00791199
4199.93 0.0113099
4201.92 0.0185282
4202.92 0.0256778
4203.92 0.0386443
4204.91 0.0660513
4205.41 0.0930281
4205.91 0.141351
4206.41 0.241858
4206.91 0.507529
4207.16 0.846684
4207.28 1.16011
4207.41 1.67924
4207.53 2.64880
4207.59 3.46825
4207.65 4.72371
4207.72 6.81589
4207.78 10.4756
4207.81 13.4126
4207.84 17.6040
4207.87 23.6932
4207.90 32.6445
4207.95 52.3557
4208.00 65.2786
4208.05 52.3546
4208.10 32.6433
4208.15 20.0707
4208.19 13.0811
4208.24 8.97533
4208.29 6.52296
4208.34 4.90555
4208.39 3.83162
4208.48 2.50350
4208.58 1.75869
4208.68 1.30141
4208.87 0.795779
4209.07 0.535260
4209.26 0.384640
4209.65 0.226682
4210.03 0.149569
4210.42 0.106473
4211.20 0.0624001
4211.97 0.0415470
4212.75 0.0301084
4214.30 0.0187624
4215.85 0.0137044
4217.40 0.0112466
4220.50 0.00996169
4223.60 0.0121870
4225.15 0.0153386
4226.69 0.0215121
4228.24 0.0350631
4229.02 0.0486051
4229.79 0.0731788
4230.57 0.124884
4231.34 0.265058
4231.73 0.448694
4231.93 0.622558
4232.12 0.919431
4232.31 1.49627
4232.41 2.01090
4232.51 2.82915
4232.60 4.27497
4232.65 5.45251
4232.70 7.12525
4232.75 9.71218
4232.80 13.7392
4232.85 20.4152
4232.89 31.8627
4232.95 51.0404
4233.00 63.6914
4233.05 51.0392
4233.11 31.8315
4233.15 21.1461
4233.20 14.5095
4233.24 10.3997
4233.29 7.79987
4233.37 4.77549
4233.46 3.20024
4233.55 2.27832
4233.64 1.70685
4233.82 1.05827
4234.00 0.717782
4234.18 0.519501
4234.36 0.392872
4234.53 0.308010
4234.89 0.203983
4235.25 0.145297
4235.96 0.0850294
4236.68 0.0562303
4237.39 0.0403024
4238.82 0.0242441
4240.24 0.0167419
4241.67 0.0126871
4244.53 0.00879165
4247.38 0.00723490
4250.23 0.00671578
4255.94 0.00749921
4258.80 0.00881009
4261.65 0.0110754
4264.51 0.0150135
4267.36 0.0223704
4268.79 0.0286255
4270.22 0.0381974
4271.64 0.0538946
4273.07 0.0822648
4273.79 0.105948
4274.50 0.141749
4275.21 0.199578
4275.93 0.301799
4276.64 0.509464
4277.00 0.704472
4277.35 1.03549
4277.71 1.66879
4277.89 2.22752
4278.07 3.10901
4278.25 4.63014
4278.34 5.82156
4278.42 7.51228
4278.51 10.0002
4278.60 13.8076
4278.69 19.8435
4278.78 29.4894
4278.89 47.1679
4279.00 58.9464
4279.11 47.1651
4279.22 29.4867
4279.30 20.9882
4279.37 15.2852
4279.45 11.4621
4279.52 8.84095
4279.68 5.65064
4279.83 3.89982
4279.98 2.83681
4280.13 2.15169
4280.43 1.35748
4280.74 0.931232
4281.04 0.678432
4281.35 0.515574
4281.65 0.405280
4282.26 0.269130
4282.86 0.191678
4283.47 0.143478
4284.08 0.111510
4285.29 0.0729568
4286.50 0.0515396
4287.72 0.0384072
4288.93 0.0297914
4291.36 0.0195322
4293.78 0.0138990
4296.21 0.0104790
4298.64 0.00825179
4303.49 0.00563747
4308.35 0.00424597
4313.20 0.00345510
4318.06 0.00301343
4327.76 0.00284706
4332.62 0.00315956
4337.47 0.00396283
4342.33 0.00591279
4344.76 0.00793613
4347.18 0.0116874
4349.61 0.0197729
4350.82 0.0278479
4352.04 0.0425458
4353.25 0.0737647
4353.86 0.104549
4354.46 0.159831
4355.07 0.275093
4355.37 0.386670
4355.68 0.582234
4355.98 0.976259
4356.13 1.34240
4356.28 1.95365
4356.44 3.10487
4356.51 4.09731
4356.59 5.61427
4356.66 8.16423
4356.70 10.1117
4356.74 12.8002
4356.78 16.6196
4356.82 22.2051
4356.85 30.5636
4356.89 43.0239
4356.95 68.6071
4357.00 86.0394
4357.03 80.7227
4357.06 68.6054
4357.11 43.0221
4357.16 27.5442
4357.21 18.5660
4357.26 13.1395
4357.31 9.70520
4357.41 5.82247
4357.50 3.86698
4357.60 2.73705
4357.70 2.04144
4357.90 1.25518
4358.09 0.848156
4358.29 0.610990
4358.49 0.460937
4358.68 0.360494
4359.08 0.237385
4359.47 0.168131
4359.87 0.125363
4360.26 0.0971766
4361.05 0.0633418
4361.83 0.0446584
4362.62 0.0332514
4363.41 0.0257796
4364.98 0.0169054
4366.56 0.0120396
4368.13 0.00908577
4369.71 0.00715960
4372.86 0.00488007
4376.01 0.00363548
4382.31 0.00239646
4388.60 0.00183382
4394.90 0.00154919
4407.50 0.00136015
4420.10 0.00149936
4426.40 0.00172894
4432.70 0.00217332
4438.99 0.00311788
4442.14 0.00404186
4445.29 0.00570253
4448.44 0.00920464
4450.02 0.0126656
4451.59 0.0189417
4453.17 0.0322635
4453.95 0.0454193
4454.74 0.0691830
4455.53 0.119123
4456.32 0.254096
4456.71 0.430601
4456.91 0.597488
4457.10 0.882076
4457.30 1.43384
4457.40 1.92812
4457.50 2.71465
4457.60 4.10508
4457.65 5.21089
4457.69 6.80836
4457.74 9.21482
4457.79 13.0147
4457.84 19.2951
4457.89 30.0203
4457.95 47.9125
4458.00 60.0102
4458.06 47.9114
4458.11 29.9917
4458.15 21.4033
4458.19 15.5596
4458.22 11.6507
4458.26 8.97592
4458.34 5.72726
4458.41 3.93946
4458.49 2.86441
4458.57 2.17204
4458.72 1.37185
4458.87 0.940859
4459.02 0.686098
4459.17 0.521410
4459.32 0.410248
4459.63 0.272427
4459.93 0.194352
4460.54 0.113488
4461.14 0.0746085
4461.75 0.0530566
4462.96 0.0312295
4464.17 0.0209865
4465.39 0.0154153
4467.81 0.00996981
4470.24 0.00762518
4472.66 0.00657388
4477.51 0.00632519
4482.36 0.00792044
4484.79 0.00973627
4487.21 0.0129407
4489.64 0.0192911
4490.85 0.0252159
4492.06 0.0354923
4493.28 0.0564013
4493.88 0.0765152
4494.49 0.112283
4495.10 0.186544
4495.70 0.385324
4496.01 0.643554
4496.16 0.887966
4496.31 1.30367
4496.46 2.11001
4496.54 2.82741
4496.61 3.96067
4496.69 5.95883
4496.73 7.55939
4496.76 9.87077
4496.80 13.3505
4496.84 18.8389
4496.88 27.8908
4496.91 42.7974
4496.96 68.3073
4497.00 85.5819
4497.04 68.3064
4497.09 42.7967
4497.13 26.7015
4497.17 17.4541
4497.21 12.0857
4497.25 8.78883
4497.30 6.64955
4497.34 5.19396
4497.42 3.40934
4497.51 2.40492
4497.59 1.78682
4497.76 1.10245
4497.92 0.749059
4498.09 0.545744
4498.43 0.331614
4498.76 0.227940
4499.10 0.170965
4499.77 0.115354
4500.44 0.0927208
4501.11 0.0848312
4502.45 0.0942246
4503.79 0.140027
4504.46 0.189695
4505.13 0.280145
4505.80 0.467186
4506.14 0.644307
4506.47 0.948338
4506.81 1.53493
4506.97 2.05811
4507.14 2.89238
4507.23 3.51456
4507.31 4.35598
4507.39 5.52888
4507.48 7.19887
4507.56 9.73739
4507.64 13.7400
4507.73 20.3379
4507.81 31.2125
4507.91 50.0013
4508.00 62.3341
4508.10 49.7881
4508.19 31.2099
4508.30 18.0903
4508.40 11.2665
4508.51 7.54872
4508.62 5.36460
4508.72 3.99128
4508.83 3.07812
4509.04 1.98776
4509.26 1.38405
4509.47 1.01808
4509.90 0.617296
4510.33 0.413691
4510.75 0.296890
4511.18 0.223459
4511.61 0.174512
4512.46 0.115113
4513.32 0.0818373
4514.17 0.0613214
4515.03 0.0477869
4516.74 0.0315425
4518.45 0.0225316
4520.16 0.0170108
4521.87 0.0133853
4525.29 0.00907223
4528.71 0.00672776
4532.13 0.00535288
4535.54 0.00453573
4549.22 0.00513333
4552.64 0.00742420
4554.35 0.00984376
4556.06 0.0143499
4557.77 0.0240786
4558.63 0.0337760
4559.48 0.0513662
4560.33 0.0885308
4561.19 0.190003
4561.62 0.324154
4562.04 0.673034
4562.26 1.10818
4562.37 1.50247
4562.47 2.14063
4562.58 3.29558
4562.63 4.25927
4562.69 5.66520
4562.74 7.90864
4562.79 11.5709
4562.85 18.0356
4562.87 23.1792
4562.90 29.8396
4562.95 47.7395
4563.00 59.6712
4563.05 47.7385
4563.10 29.8386
4563.15 19.3956
4563.19 13.2439
4563.24 9.39437
4563.28 6.99289
4563.37 4.23746
4563.46 2.82124
4563.55 2.00652
4563.64 1.49762
4563.81 0.925930
4563.99 0.626708
4564.17 0.452790
4564.52 0.267588
4564.88 0.176624
4565.23 0.125349
4565.94 0.0726734
4566.65 0.0475236
4567.36 0.0336252
4568.78 0.0195623
4570.21 0.0129361
4571.63 0.00929414
4574.47 0.00561869
4577.31 0.00388179
4580.15 0.00291824
4585.83 0.00192790
4591.51 0.00144526
4597.19 0.00116913
4608.55 0.000877333
4631.28 0.000667983
4654.00 0.000652567
4676.72 0.000793587
4688.09 0.000963459
4699.45 0.00127320
4710.81 0.00189505
4716.49 0.00246868
4722.17 0.00343756
4727.85 0.00531249
4730.69 0.00703379
4733.53 0.00997597
4736.37 0.0158505
4737.79 0.0214330
4739.21 0.0312980
4740.64 0.0517488
4741.35 0.0716618
4742.06 0.107328
4742.77 0.181596
4743.48 0.381058
4743.83 0.639920
4744.01 0.884293
4744.19 1.29925
4744.36 2.09979
4744.45 2.80839
4744.54 3.92441
4744.63 5.87381
4744.67 7.44361
4744.72 9.64306
4744.76 12.9978
4744.81 18.1017
4744.85 26.3269
4744.90 39.9720
4744.95 64.0496
4745.00 79.9385
4745.05 64.0484
4745.10 39.9709
4745.16 23.4616
4745.22 14.8088
4745.28 9.95039
4745.33 7.12337
4745.39 5.30334
4745.45 4.10938
4745.56 2.65813
4745.68 1.85639
4745.79 1.36908
4746.02 0.835021
4746.25 0.562648
4746.48 0.406180
4746.71 0.308242
4746.94 0.243236
4747.40 0.164581
4747.86 0.121229
4748.78 0.0783900
4749.70 0.0601226
4750.62 0.0524886
4752.46 0.0540430
4753.38 0.0620992
4754.29 0.0769527
4755.21 0.103208
4756.13 0.152054
4757.05 0.254858
4757.51 0.354197
4757.97 0.527575
4758.43 0.872761
4758.66 1.18942
4758.89 1.71206
4759.00 2.11387
4759.12 2.67346
4759.23 3.48338
4759.35 4.69945
4759.46 6.67060
4759.52 8.14326
4759.58 10.0839
4759.64 12.7902
4759.69 16.5078
4759.75 21.7584
4759.81 29.1277
4759.90 46.6819
4760.00 58.2166
4760.10 46.4868
4760.19 29.1254
4760.29 17.6317
4760.39 11.3713
4760.49 7.77404
4760.59 5.61886
4760.69 4.22039
4760.79 3.28556
4760.99 2.14540
4761.19 1.50432
4761.39 1.11340
4761.78 0.678867
4762.18 0.456307
4762.58 0.328027
4762.97 0.247267
4763.37 0.193162
4764.17 0.127372
4764.96 0.0904923
4765.76 0.0677010
4766.55 0.0526612
4768.14 0.0346118
4769.73 0.0245917
4771.32 0.0184440
4772.91 0.0143946
4776.08 0.00954695
4779.26 0.00685682
4782.44 0.00520640
4785.62 0.00412080
4791.97 0.00282828
4798.33 0.00212642
4811.04 0.00147955
4823.75 0.00134434
4830.11 0.00145497
4836.46 0.00177743
4842.82 0.00258791
4845.99 0.00343800
4849.17 0.00502061
4852.35 0.00844499
4853.94 0.0118721
4855.53 0.0181308
4857.12 0.0314608
4857.91 0.0446628
4858.71 0.0684878
4859.50 0.118505
4860.29 0.253293
4860.69 0.428487
4861.09 0.874831
4861.29 1.41635
4861.39 1.89238
4861.49 2.65035
4861.59 3.97546
4861.64 5.03023
4861.68 6.50761
4861.73 8.74840
4861.78 12.1515
4861.83 17.7547
4861.88 26.8975
4861.94 42.9070
4862.00 53.7706
4862.06 42.9059
4862.12 26.8735
4862.19 15.4090
4862.25 9.56899
4862.32 6.36460
4862.39 4.52094
4862.46 3.34856
4862.52 2.58285
4862.66 1.66490
4862.79 1.15639
4862.93 0.848834
4863.20 0.513088
4863.47 0.342621
4863.73 0.245128
4864.27 0.143227
4864.81 0.0937974
4865.35 0.0662388
4866.43 0.0381214
4867.50 0.0248021
4868.58 0.0174729
4870.74 0.0100919
4872.89 0.00663268
4875.04 0.00473905
4879.35 0.00283943
4883.66 0.00195111
4887.97 0.00146418
4896.59 0.000974894
4905.21 0.000746593
4913.82 0.000624011
4931.06 0.000513578
4965.53 0.000514231
4982.77 0.000595966
5000.00 0.000764407
5009.83 0.000930031
5019.65 0.00118917
5029.48 0.00162112
5039.30 0.00241471
5044.21 0.00308641
5049.13 0.00411558
5054.04 0.00581000
5058.95 0.00889491
5061.41 0.0114911
5063.86 0.0154478
5066.32 0.0219159
5068.78 0.0335758
5070.00 0.0432936
5071.23 0.0579490
5072.46 0.0815723
5073.69 0.123289
5074.92 0.207601
5075.53 0.286423
5076.14 0.420063
5076.76 0.673396
5077.07 0.894458
5077.37 1.24243
5077.68 1.83262
5077.83 2.29381
5077.99 2.93771
5078.14 3.87965
5078.29 5.28839
5078.45 7.48947
5078.60 10.8980
5078.80 17.4244
5079.00 21.7697
5079.20 17.4228
5079.40 10.8964
5079.55 7.63196
5079.69 5.49654
5079.83 4.08634
5079.98 3.13105
5080.27 1.98276
5080.55 1.35719
5080.84 0.983488
5081.13 0.743912
5081.71 0.466954
5082.28 0.319638
5082.86 0.232286
5083.43 0.176344
5084.01 0.138401
5085.16 0.0917148
5086.31 0.0652355
5087.47 0.0487781
5088.62 0.0378589
5090.92 0.0247256
5093.23 0.0174378
5095.53 0.0129781
5097.84 0.0100530
5102.44 0.00657814
5107.05 0.00467490
5111.66 0.00352314
5116.27 0.00277646
5125.49 0.00190708
5134.70 0.00145220
5153.14 0.00106901
5171.57 0.00104885
5180.79 0.00117048
5190.01 0.00144828
5199.22 0.00207697
5203.83 0.00270495
5208.44 0.00384305
5213.05 0.00625536
5215.35 0.00864514
5217.66 0.0129911
5219.96 0.0222437
5221.12 0.0314149
5222.27 0.0480484
5223.42 0.0831683
5224.00 0.117627
5224.57 0.179323
5225.15 0.306805
5225.72 0.641637
5226.01 1.06237
5226.16 1.44660
5226.30 2.08155
5226.44 3.23881
5226.52 4.20798
5226.59 5.67053
5226.66 8.00776
5226.73 12.0145
5226.77 15.1297
5226.80 19.4496
5226.84 25.5151
5226.88 34.2287
5226.94 54.7806
5227.00 68.4510
5227.06 54.7792
5227.12 34.2274
5227.17 23.2582
5227.22 16.2993
5227.27 11.8677
5227.32 8.99938
5227.42 5.59525
5227.51 3.78562
5227.61 2.72174
5227.71 2.04719
5227.90 1.27558
5228.10 0.869214
5228.29 0.629798
5228.48 0.477152
5228.68 0.373961
5229.07 0.247258
5229.45 0.175788
5229.84 0.131466
5230.23 0.102108
5231.01 0.0668390
5231.78 0.0473285
5232.56 0.0354107
5233.34 0.0276090
5234.89 0.0183691
5236.44 0.0133435
5237.99 0.0103372
5239.55 0.00842334
5242.65 0.00629538
5245.76 0.00533667
5251.97 0.00514987
5255.07 0.00573969
5258.18 0.00692953
5261.28 0.00911570
5264.39 0.0132981
5265.94 0.0168844
5267.49 0.0224010
5269.05 0.0314872
5270.60 0.0479778
5271.38 0.0618121
5272.15 0.0827812
5272.93 0.116825
5273.70 0.177560
5274.48 0.302544
5274.87 0.421387
5275.26 0.626909
5275.65 1.02872
5275.84 1.39110
5276.03 1.98185
5276.13 2.42683
5276.23 3.03676
5276.32 3.90173
5276.42 5.17976
5276.52 7.16381
5276.62 10.4282
5276.66 12.8972
5276.71 16.1364
5276.76 20.5962
5276.81 26.4364
5276.91 42.4480
5277.00 52.9991
5277.10 42.2682
5277.19 26.4347
5277.26 18.3335
5277.33 13.0719
5277.40 9.64381
5277.48 7.34620
5277.62 4.61472
5277.76 3.15038
5277.90 2.27420
5278.04 1.71550
5278.33 1.07453
5278.61 0.733747
5278.89 0.532943
5279.18 0.404482
5279.46 0.317423
5280.03 0.210313
5280.59 0.149593
5281.16 0.111896
5281.73 0.0869416
5282.86 0.0568986
5283.99 0.0402431
5285.13 0.0300531
5286.26 0.0233709
5288.53 0.0154341
5290.79 0.0110914
5293.06 0.00847077
5295.33 0.00678046
5299.86 0.00484134
5304.39 0.00387846
5313.46 0.00330157
5322.53 0.00399535
5327.06 0.00506340
5331.59 0.00719649
5333.86 0.00905335
5336.13 0.0119276
5338.39 0.0166813
5340.66 0.0253337
5341.79 0.0325989
5342.93 0.0436225
5344.06 0.0615309
5345.19 0.0935003
5346.33 0.159297
5347.46 0.330272
5348.03 0.542584
5348.31 0.733949
5348.59 1.04612
5348.88 1.60681
5349.02 2.06796
5349.16 2.74540
5349.30 3.80666
5349.44 5.54444
5349.58 8.61522
5349.65 10.9958
5349.72 14.1352
5349.86 22.6034
5350.00 28.2430
5350.14 22.6020
5350.28 14.1339
5350.37 9.96942
5350.47 7.22884
5350.57 5.40271
5350.67 4.15666
5350.86 2.64741
5351.05 1.81893
5351.25 1.31951
5351.44 1.00017
5351.83 0.629622
5352.22 0.431429
5352.61 0.314002
5353.00 0.238502
5353.38 0.187378
5354.16 0.124353
5354.94 0.0885307
5355.72 0.0662500
5356.49 0.0514578
5358.05 0.0336572
5359.60 0.0237621
5361.15 0.0176990
5362.71 0.0137181
5365.82 0.00897240
5368.92 0.00635801
5372.03 0.00476375
5375.14 0.00371898
5381.35 0.00247373
5387.57 0.00178504
5393.78 0.00136209
5400.00 0.00108235
5400.00 1.39598
6000.00 1.32149
7000.00 1.22446
8000.00 1.14849
10000.0 1.03152
12500.0 0.930231
15000.0 0.846205
17000.0 0.798560
20000.0 0.735811
25000.0 0.648342
30000.0 0.585609
37400.0 0.515088
37410.0 0.514901
40000.0 0.470102
50000.0 0.381214
60000.0 0.322132
70000.0 0.280865
80000.0 0.250518
90000.0 0.228271
99999.9 0.210050
100000 0.210054
200000 0.208000
300000 0.180530
400000 0.172180
500000 0.171820
511800 0.142200
511835 0.142196
577900 0.134300
600000 0.132300
700000 0.133000
800000 0.137800
900000 0.144200
954900 0.150600
954900 0.150600
1.03300E+06 0.143400
1.04400E+06 0.142540
1.04404E+06 0.142537
1.14900E+06 0.134540
1.15400E+06 0.134160
1.15425E+06 0.134141
1.20000E+06 0.130750
1.30000E+06 0.123510
1.40000E+06 0.116530
1.50000E+06 0.109790
2.00000E+06 0.0799270
2.50000E+06 0.0563830
3.00000E+06 0.0391620
3.09600E+06 0.0365790
3.58200E+06 0.0270800
4.00000E+06 0.0168700
4.50000E+06 0.00965300
5.00000E+06 0.00556500
5.50000E+06 0.00324100
5.82500E+06 0.00231000
6.00000E+06 0.00194100
6.45500E+06 0.00127200
7.00000E+06 0.000839200
7.50000E+06 0.000646300
8.00000E+06 0.000568000
8.50000E+06 0.000560200
8.79000E+06 0.000575500
9.00000E+06 0.000592400
9.31600E+06 0.000623200
9.31628E+06 0.000623230
9.50000E+06 0.000642700
1.00000E+07 0.000696800
1.03800E+07 0.000736200
1.05000E+07 0.000747500
1.10000E+07 0.000792100
1.15000E+07 0.000828600
1.20000E+07 0.000855300
1.25000E+07 0.000874000
1.30000E+07 0.000889100
1.35000E+07 0.000904400
1.40000E+07 0.000920000
1.45000E+07 0.000932200
1.50000E+07 0.000936600
1.55000E+07 0.000931300
1.60000E+07 0.000918600
1.63900E+07 0.000906600
1.65000E+07 0.000903400
1.70000E+07 0.000890900
1.75000E+07 0.000884600
1.80000E+07 0.000886100
1.85000E+07 0.000894500
1.90000E+07 0.000906900
1.95200E+07 0.000919900
2.00000E+07 0.000927700