Gd-160(n,g) ENDF/B-VII.1
Energy(eV) XS(b)
1.00000E-05 70.9256
1.25000E-05 63.4378
1.50000E-05 57.9105
2.00000E-05 50.1520
2.75000E-05 42.7697
3.50000E-05 37.9113
4.25000E-05 34.4040
5.00000E-05 31.7189
6.25000E-05 28.3702
7.50000E-05 25.8984
0.000100000 22.4286
0.000125000 20.0608
0.000150000 18.3129
0.000200000 15.8594
0.000275000 13.5250
0.000350000 11.9886
0.000425000 10.8795
0.000500000 10.0304
0.000625000 8.97143
0.000750000 8.18975
0.00100000 7.09252
0.00125000 6.34374
0.00150000 5.79101
0.00200000 5.01515
0.00275000 4.27692
0.00350000 3.79107
0.00425000 3.44033
0.00500000 3.17181
0.00625000 2.83694
0.00750000 2.58974
0.0100000 2.24276
0.0125000 2.00596
0.0150000 1.83116
0.0200000 1.58579
0.0253000 1.40991
0.0314750 1.26402
0.0376500 1.15569
0.0500000 1.00280
0.0625000 0.896877
0.0750000 0.818684
0.100000 0.708916
0.125000 0.633998
0.150000 0.578689
0.200000 0.501039
0.275000 0.427134
0.350000 0.378478
0.500000 0.316431
0.750000 0.258056
1.00000 0.223217
1.50000 0.181823
2.00000 0.157091
2.75000 0.133494
3.50000 0.117913
5.00000 0.0979648
7.50000 0.0790717
10.0000 0.0677063
15.0000 0.0540731
20.0000 0.0458389
27.5000 0.0379128
35.0000 0.0326496
50.0000 0.0259252
75.0000 0.0197566
100.000 0.0164382
125.000 0.0147746
150.000 0.0147709
162.500 0.0158329
175.000 0.0184951
187.500 0.0252435
193.750 0.0326533
200.000 0.0473570
202.739 0.0587557
205.479 0.0762745
208.218 0.105213
210.958 0.158175
212.327 0.202961
213.697 0.271608
215.067 0.384695
216.436 0.590956
217.121 0.764802
217.806 1.03033
218.491 1.46573
219.176 2.25401
219.518 2.91362
219.861 3.91343
220.203 5.53550
220.545 8.42752
220.717 10.8089
220.802 12.3974
220.845 13.3263
220.888 14.3636
220.931 15.5268
220.973 16.8371
221.016 18.3204
221.038 19.1365
221.059 20.0084
221.102 21.9404
221.145 24.1657
221.187 26.7466
221.230 29.7629
221.273 33.3176
221.316 37.5463
221.359 42.6297
221.401 48.8130
221.444 56.4351
221.487 65.9749
221.530 78.1258
221.573 93.9204
221.615 114.947
221.658 143.738
221.701 184.516
221.744 244.665
221.787 337.825
221.829 490.603
221.872 756.495
221.915 1233.19
221.958 1972.92
222.000 2465.97
222.043 1972.64
222.085 1232.79
222.134 708.863
222.183 439.018
222.231 293.037
222.280 207.821
222.329 154.286
222.378 118.779
222.475 76.3800
222.573 53.0724
222.670 38.9759
222.865 23.5249
223.061 15.7113
223.256 11.2260
223.451 8.41749
223.646 6.54401
224.036 4.27904
224.426 3.01464
224.816 2.23800
225.207 1.72727
225.987 1.11842
226.767 0.783410
227.548 0.579639
228.328 0.446602
229.889 0.289235
231.449 0.203302
233.010 0.151325
234.571 0.117527
237.692 0.0777255
240.814 0.0560920
243.935 0.0430507
247.056 0.0345923
253.299 0.0246603
259.542 0.0192820
272.028 0.0139775
284.513 0.0115908
296.999 0.0103878
321.970 0.00956123
346.942 0.00994774
371.913 0.0116066
396.884 0.0159142
409.370 0.0211105
415.613 0.0283023
417.174 0.0333286
418.734 0.0457741
419.515 0.0620152
419.905 0.0778614
420.295 0.106364
420.685 0.166204
420.880 0.224728
421.075 0.329274
421.173 0.415625
421.270 0.544722
421.368 0.750700
421.466 1.10819
421.563 1.81308
421.612 2.45415
421.661 3.50588
421.709 5.41200
421.734 6.99628
421.758 9.35678
421.783 13.1001
421.807 19.4160
421.831 30.8602
421.856 52.3660
421.878 83.7993
421.900 104.769
421.922 83.8036
421.944 52.3714
421.970 30.2402
421.995 18.7900
422.020 12.5744
422.046 8.93173
422.071 6.64508
422.096 5.12646
422.147 3.30921
422.197 2.31014
422.248 1.70479
422.349 1.04118
422.450 0.705342
422.552 0.512473
422.653 0.391679
422.754 0.311162
422.956 0.213733
423.159 0.159420
423.563 0.104253
423.968 0.0783642
424.373 0.0643144
425.182 0.0506592
426.801 0.0421746
428.420 0.0408526
431.658 0.0444000
434.896 0.0528567
438.133 0.0688943
439.752 0.0831548
441.371 0.107267
442.990 0.155608
443.799 0.202127
444.609 0.285386
445.014 0.354859
445.418 0.460363
445.823 0.632538
446.228 0.943125
446.430 1.20239
446.632 1.59462
446.835 2.23011
447.037 3.35996
447.138 4.28873
447.240 5.67238
447.341 7.86377
447.442 11.6312
447.492 14.6277
447.518 16.5796
447.543 18.9488
447.568 21.8619
447.581 23.5826
447.594 25.4972
447.606 27.6709
447.619 30.1115
447.644 36.0843
447.670 43.9945
447.695 54.7568
447.720 69.8749
447.745 91.9362
447.771 125.616
447.796 179.759
447.821 271.422
447.834 339.855
447.847 429.284
447.873 687.517
447.900 859.743
447.913 809.554
447.927 688.096
447.954 430.520
447.984 250.584
448.014 156.511
448.044 105.063
448.074 74.7605
448.104 55.6728
448.134 42.9648
448.194 27.7208
448.254 19.3206
448.314 14.2231
448.433 8.63055
448.553 5.79371
448.673 4.16340
448.793 3.14182
448.913 2.46052
449.153 1.63584
449.393 1.17574
449.633 0.893352
449.873 0.707897
450.353 0.487693
450.833 0.367619
451.793 0.249726
452.752 0.198096
453.712 0.173349
455.631 0.158039
459.470 0.183455
463.309 0.263188
465.229 0.334933
467.148 0.446265
469.068 0.630157
470.987 0.964298
471.947 1.24421
472.427 1.43301
472.907 1.66879
473.147 1.80942
473.387 1.96867
473.627 2.15009
473.866 2.35796
474.106 2.59780
474.346 2.87627
474.586 3.20226
474.826 3.58722
475.066 4.04648
475.306 4.59993
475.546 5.27580
475.786 6.11219
476.026 7.16512
476.266 8.51489
476.506 10.2849
476.746 12.6689
476.986 15.9874
477.226 20.7924
477.465 28.1183
477.705 40.0628
477.945 61.4102
478.065 78.9240
478.185 104.790
478.305 145.001
478.425 211.156
478.545 327.067
478.665 536.339
478.783 858.434
478.900 1074.92
479.018 861.442
479.135 538.590
479.217 382.583
479.298 278.232
479.380 208.400
479.461 160.593
479.624 102.499
479.787 70.5103
479.950 51.2674
480.113 38.8708
480.439 24.4735
480.765 16.7805
481.091 12.2081
481.417 9.27417
481.743 7.28157
482.395 4.82775
483.047 3.43299
483.699 2.56546
484.351 1.98958
485.655 1.29678
486.959 0.911979
488.264 0.676416
489.568 0.521872
492.176 0.338147
494.784 0.237306
497.392 0.176085
500.000 0.136163
504.485 0.0939322
508.969 0.0691925
517.939 0.0429077
526.908 0.0300492
535.877 0.0229384
544.847 0.0188326
553.816 0.0169520
558.301 0.0173169
562.785 0.0205451
565.028 0.0259122
566.149 0.0315000
567.270 0.0418995
568.391 0.0644059
568.952 0.0869324
569.512 0.128048
569.793 0.162689
570.073 0.215546
570.353 0.302018
570.633 0.458010
570.774 0.588010
570.914 0.784115
571.054 1.10056
571.194 1.65920
571.264 2.11521
571.334 2.78968
571.404 3.84734
571.474 5.63860
571.544 9.04097
571.579 12.0076
571.614 16.6783
571.650 24.6326
571.685 39.5081
571.702 52.1494
571.720 71.1980
571.737 100.800
571.755 147.022
571.777 235.440
571.800 294.043
571.823 235.034
571.846 147.033
571.862 102.726
571.879 73.6762
571.895 54.5983
571.912 41.7961
571.945 26.4050
571.978 18.0483
572.011 13.0673
572.044 9.87893
572.110 6.19835
572.177 4.24105
572.243 3.08360
572.309 2.34268
572.375 1.84032
572.508 1.22242
572.640 0.872001
572.773 0.654229
572.905 0.509740
573.170 0.335939
573.435 0.239449
573.700 0.180350
573.964 0.141571
574.494 0.0954144
575.024 0.0700392
576.083 0.0444981
577.143 0.0325061
578.202 0.0259061
580.321 0.0192090
584.559 0.0141713
588.797 0.0122097
605.748 0.00975214
639.650 0.00889953
673.552 0.00962509
690.504 0.0111035
694.741 0.0121597
698.979 0.0147934
701.098 0.0182610
703.217 0.0278660
704.276 0.0410618
704.806 0.0541754
705.336 0.0780309
705.866 0.128646
706.130 0.178584
706.395 0.268492
706.528 0.343342
706.660 0.456112
706.793 0.637623
706.925 0.957467
706.991 1.21818
707.057 1.60234
707.124 2.20267
707.190 3.21633
707.256 5.12557
707.289 6.78029
707.322 9.36652
707.355 13.7082
707.388 21.7114
707.405 28.4220
707.422 38.3075
707.438 53.4431
707.455 76.3667
707.477 122.101
707.500 152.559
707.523 121.890
707.546 76.2035
707.568 47.6002
707.590 31.2873
707.612 21.7481
707.634 15.8572
707.656 12.0187
707.678 9.39858
707.721 6.18069
707.765 4.35816
707.809 3.23607
707.897 1.98316
707.985 1.33897
708.073 0.965227
708.161 0.729467
708.249 0.571331
708.425 0.378985
708.601 0.271067
708.776 0.204509
708.952 0.160595
709.304 0.108081
709.655 0.0790989
710.359 0.0498814
711.062 0.0362020
711.765 0.0287343
713.172 0.0213125
715.985 0.0161266
718.798 0.0144787
730.050 0.0140296
741.303 0.0171298
744.116 0.0197241
746.929 0.0265479
748.335 0.0357375
749.039 0.0448288
749.742 0.0613553
750.445 0.0965031
750.797 0.131302
751.148 0.194292
751.324 0.247002
751.500 0.326858
751.676 0.456357
751.852 0.687064
751.940 0.876871
752.027 1.15993
752.115 1.60884
752.203 2.38301
752.291 3.89000
752.335 5.24466
752.379 7.43686
752.423 11.3312
752.445 14.5017
752.467 19.1272
752.489 26.2635
752.511 37.8431
752.533 57.6968
752.555 92.3967
752.577 147.778
752.600 184.681
752.623 147.782
752.645 92.4016
752.664 62.0343
752.682 43.0880
752.700 31.1666
752.719 23.4259
752.756 14.4189
752.792 9.70481
752.829 6.94863
752.866 5.21600
752.939 3.24362
753.013 2.20857
753.086 1.60091
753.160 1.21443
753.233 0.953940
753.380 0.634782
753.527 0.454608
753.674 0.343002
753.821 0.269134
754.115 0.180516
754.408 0.131457
754.996 0.0818561
755.584 0.0585788
756.172 0.0458506
757.347 0.0331793
759.698 0.0242969
762.049 0.0214425
771.452 0.0201933
790.258 0.0248447
809.065 0.0336994
827.872 0.0499853
837.275 0.0636515
846.678 0.0844093
856.082 0.118178
858.432 0.129951
860.783 0.143641
861.959 0.151338
863.134 0.159690
864.309 0.168772
865.485 0.178673
866.660 0.189495
867.836 0.201354
869.011 0.214389
870.187 0.228760
871.362 0.244656
872.537 0.262302
874.888 0.303963
877.239 0.356592
879.590 0.424403
881.941 0.513851
884.291 0.635217
886.642 0.805681
888.993 1.05567
891.344 1.44332
893.695 2.09083
894.870 2.59047
896.046 3.29091
897.221 4.31372
898.396 5.88527
899.572 8.46086
900.747 13.0421
901.335 16.7354
901.923 22.0289
902.510 29.7605
903.098 41.0224
903.999 65.6635
904.900 82.4012
905.802 66.1837
906.703 41.3866
907.307 29.7392
907.910 21.8256
908.514 16.4630
909.117 12.7549
910.324 8.20129
911.531 5.66842
912.738 4.13442
913.945 3.14173
916.359 1.98382
918.773 1.36280
921.188 0.992690
923.602 0.754871
926.016 0.593216
930.844 0.394033
935.672 0.280782
940.500 0.210381
945.328 0.163703
954.984 0.107746
964.641 0.0771084
974.297 0.0603925
979.125 0.0622484
980.332 0.0695989
981.539 0.0930598
982.143 0.126543
982.445 0.159988
982.746 0.220613
983.048 0.347920
983.199 0.471753
983.350 0.690856
983.501 1.13556
983.576 1.55325
983.652 2.26340
983.727 3.61995
983.765 4.81011
983.802 6.69596
983.840 9.92524
983.878 16.0619
983.897 21.3698
983.916 29.4392
983.934 42.2810
983.953 62.6559
983.977 100.223
984.000 125.269
984.023 100.226
984.047 62.6586
984.062 45.1271
984.078 33.1939
984.109 19.4774
984.140 12.5683
984.172 8.72451
984.203 6.38309
984.234 4.86973
984.296 3.09733
984.359 2.14345
984.421 1.57505
984.545 0.960159
984.670 0.652524
984.795 0.477312
985.044 0.295423
985.293 0.207755
985.543 0.158874
986.041 0.109010
986.540 0.0852306
987.038 0.0719562
988.035 0.0581811
990.029 0.0471735
992.023 0.0423093
1000.00 0.0338684
1012.48 0.0279155
1018.72 0.0286175
1020.28 0.0312252
1021.84 0.0395464
1022.62 0.0514735
1023.40 0.0852290
1023.79 0.131349
1023.98 0.176604
1024.18 0.257543
1024.37 0.424383
1024.47 0.584754
1024.57 0.860257
1024.66 1.40803
1024.71 1.90688
1024.76 2.70669
1024.81 4.17571
1024.83 5.36535
1024.86 7.12769
1024.88 10.0197
1024.91 14.6682
1024.93 22.8954
1024.95 37.9753
1024.98 60.8269
1025.00 76.0948
1025.02 60.8278
1025.05 37.9767
1025.07 21.5771
1025.10 13.4824
1025.13 9.06169
1025.15 6.45759
1025.18 4.76601
1025.20 3.68854
1025.26 2.39223
1025.31 1.66513
1025.36 1.23301
1025.47 0.756762
1025.57 0.512750
1025.68 0.372729
1025.88 0.227047
1026.09 0.156110
1026.30 0.116649
1026.72 0.0763167
1027.56 0.0464990
1028.40 0.0356984
1030.07 0.0276213
1031.74 0.0245215
1038.44 0.0205271
1051.83 0.0178848
1078.62 0.0158951
1105.40 0.0163356
1132.19 0.0195855
1158.97 0.0284179
1172.37 0.0376867
1185.76 0.0547541
1192.46 0.0691233
1199.15 0.0909626
1205.85 0.126466
1209.20 0.153183
1210.87 0.169997
1211.71 0.179504
1212.55 0.189860
1213.38 0.201184
1214.22 0.213570
1215.06 0.227171
1215.89 0.242151
1216.73 0.258703
1217.57 0.277054
1218.41 0.297476
1219.24 0.320290
1220.92 0.374732
1222.59 0.444608
1224.26 0.536341
1225.94 0.660059
1227.61 0.832491
1229.29 1.08284
1230.96 1.46575
1232.63 2.09292
1233.47 2.56756
1234.31 3.22101
1235.15 4.15298
1235.98 5.54043
1236.82 7.71663
1237.66 11.3493
1238.49 17.8334
1239.33 29.8509
1240.12 47.7553
1240.90 59.7801
1241.69 47.9099
1242.47 29.9576
1243.23 18.7266
1243.99 12.3116
1244.74 8.55771
1245.50 6.24122
1246.26 4.72927
1247.02 3.69842
1248.53 2.42921
1250.05 1.71245
1251.56 1.27037
1254.59 0.777781
1257.62 0.524696
1260.65 0.378078
1263.68 0.285705
1266.71 0.223850
1272.77 0.148961
1278.83 0.107734
1284.89 0.0864467
1286.41 0.0862415
1287.92 0.0950485
1288.68 0.111253
1289.44 0.160183
1289.82 0.228448
1290.01 0.295991
1290.20 0.416352
1290.39 0.665962
1290.48 0.904646
1290.58 1.31351
1290.67 2.12328
1290.72 2.84774
1290.77 4.02784
1290.81 6.19432
1290.84 7.99102
1290.86 10.5378
1290.88 14.6765
1290.91 21.2159
1290.93 33.2149
1290.95 54.0479
1290.98 86.7225
1291.00 108.626
1291.02 86.7237
1291.05 54.0494
1291.06 38.3368
1291.08 28.3893
1291.09 21.2169
1291.11 16.5809
1291.14 10.6747
1291.17 7.39497
1291.20 5.41056
1291.23 4.12681
1291.29 2.64679
1291.36 1.83635
1291.42 1.35379
1291.54 0.835966
1291.66 0.574915
1291.79 0.427319
1292.03 0.273240
1292.28 0.198880
1292.53 0.157291
1293.02 0.114635
1294.01 0.0821880
1295.00 0.0694807
1298.94 0.0524640
1306.84 0.0404428
1322.64 0.0292689
1338.43 0.0246634
1354.23 0.0243319
1370.02 0.0295774
1377.92 0.0364254
1385.82 0.0498653
1389.77 0.0615179
1393.72 0.0795330
1397.67 0.109302
1401.62 0.163476
1403.59 0.208910
1405.56 0.277836
1407.54 0.389815
1409.51 0.589493
1410.01 0.664146
1410.50 0.754159
1411.00 0.864045
1411.49 0.999796
1411.74 1.08027
1411.98 1.17094
1412.23 1.27360
1412.48 1.38994
1412.72 1.52363
1412.97 1.67765
1413.46 2.06426
1413.96 2.60306
1414.45 3.38150
1414.94 4.56993
1415.44 6.50156
1415.68 7.95802
1415.93 9.95341
1416.18 12.7813
1416.42 16.9349
1416.67 23.3941
1416.92 33.9960
1417.16 52.4652
1417.41 85.4188
1417.66 136.588
1417.90 170.401
1418.15 136.061
1418.39 84.9960
1418.60 56.0175
1418.81 38.3533
1419.02 27.4496
1419.23 20.4678
1419.64 12.4788
1420.06 8.34019
1420.48 5.94733
1420.89 4.44749
1421.73 2.75053
1422.56 1.86527
1423.40 1.34795
1424.23 1.01963
1425.06 0.798439
1426.73 0.528171
1428.40 0.375861
1430.07 0.281585
1431.74 0.219282
1435.08 0.144582
1438.41 0.103220
1441.75 0.0779410
1445.09 0.0613637
1451.76 0.0416474
1458.43 0.0308011
1471.78 0.0198744
1485.13 0.0147558
1498.48 0.0119784
1525.17 0.00934620
1551.87 0.00843259
1578.56 0.00841554
1605.26 0.00919150
1618.61 0.0102933
1625.28 0.0126449
1628.62 0.0205999
1629.45 0.0285507
1630.29 0.0506886
1630.70 0.0807945
1631.12 0.163164
1631.33 0.272671
1631.54 0.558527
1631.64 0.921396
1631.69 1.25012
1631.75 1.79241
1631.80 2.77835
1631.82 3.60195
1631.85 4.84175
1631.88 6.81641
1631.90 10.1861
1631.93 16.3998
1631.95 28.8999
1631.98 45.9328
1632.00 57.7582
1632.02 45.9334
1632.05 28.9007
1632.06 20.5524
1632.08 15.1614
1632.09 11.2896
1632.11 8.79632
1632.14 5.63365
1632.17 3.92882
1632.20 2.85867
1632.23 2.16943
1632.29 1.37840
1632.35 0.947217
1632.41 0.694563
1632.54 0.419073
1632.78 0.203439
1633.03 0.122632
1633.52 0.0619182
1634.01 0.0399676
1634.99 0.0239492
1635.98 0.0182923
1639.91 0.0130141
1647.77 0.0123461
1663.50 0.0139961
1679.23 0.0172482
1687.09 0.0214720
1689.06 0.0245019
1691.02 0.0321925
1692.01 0.0423832
1692.99 0.0705034
1693.48 0.108804
1693.97 0.213948
1694.22 0.354733
1694.34 0.490695
1694.46 0.727135
1694.59 1.20391
1694.65 1.65019
1694.71 2.38719
1694.77 3.78715
1694.80 4.99526
1694.83 6.79846
1694.86 9.87388
1694.89 15.2092
1694.91 19.8579
1694.92 26.1914
1694.94 35.4782
1694.95 49.6149
1694.98 79.0229
1695.00 99.2105
1695.02 79.0237
1695.05 49.6160
1695.07 28.3283
1695.10 17.3188
1695.13 11.4632
1695.15 8.08022
1695.18 5.97801
1695.21 4.59222
1695.26 2.96812
1695.31 2.06056
1695.37 1.51416
1695.48 0.922510
1695.58 0.621170
1695.69 0.450128
1695.90 0.271372
1696.33 0.136275
1696.76 0.0870678
1697.62 0.0511211
1698.48 0.0384816
1700.20 0.0297114
1701.91 0.0270236
1708.78 0.0266293
1722.51 0.0336553
1736.25 0.0462303
1743.11 0.0557565
1749.98 0.0688258
1753.41 0.0772600
1755.13 0.0820962
1756.85 0.0874158
1758.56 0.0932920
1760.28 0.0997974
1762.00 0.107034
1763.71 0.115104
1765.43 0.124153
1767.15 0.134340
1768.86 0.145862
1770.58 0.158955
1774.01 0.191165
1777.44 0.234439
1780.88 0.294490
1784.31 0.381147
1787.74 0.512693
1791.18 0.725968
1792.89 0.885865
1794.61 1.10410
1796.33 1.41196
1798.04 1.86347
1799.76 2.55856
1801.48 3.68768
1803.19 5.63040
1804.91 9.05968
1806.66 14.4769
1808.40 18.1309
1810.15 14.5638
1811.89 9.12781
1812.95 6.78107
1814.00 5.12448
1816.11 3.13576
1818.22 2.09668
1820.32 1.51969
1822.43 1.20757
1824.54 1.13882
1825.59 1.28840
1826.12 1.48491
1826.65 1.87063
1827.18 2.70527
1827.44 3.51791
1827.70 4.92971
1827.97 7.71385
1828.10 10.2305
1828.23 14.2941
1828.36 21.5756
1828.43 27.5227
1828.46 31.4518
1828.49 36.2645
1828.53 42.2297
1828.56 49.7176
1828.58 54.3300
1828.59 59.2414
1828.63 71.5145
1828.66 87.5184
1828.69 108.555
1828.72 136.182
1828.76 170.572
1828.79 217.884
1828.83 267.829
1828.86 303.382
1828.90 305.108
1828.97 222.388
1829.04 135.409
1829.09 100.340
1829.13 75.9830
1829.22 46.8012
1829.31 31.3029
1829.40 22.3879
1829.48 16.7393
1829.57 12.9979
1829.75 8.54491
1829.92 6.07858
1830.10 4.58910
1830.45 2.94265
1830.80 2.10193
1831.15 1.61339
1831.85 1.09243
1832.55 0.829064
1833.26 0.673927
1834.66 0.500627
1837.47 0.342556
1840.27 0.263570
1845.89 0.178521
1851.50 0.131796
1862.73 0.0827329
1868.34 0.0718273
1871.15 0.0802501
1871.85 0.0933747
1872.55 0.132275
1872.90 0.186166
1873.25 0.333737
1873.43 0.528816
1873.52 0.714585
1873.60 1.03102
1873.69 1.65366
1873.74 2.21384
1873.78 3.09788
1873.82 4.69359
1873.85 5.99263
1873.87 7.89834
1873.89 10.8281
1873.91 15.5826
1873.93 23.7348
1873.95 37.8934
1873.98 60.1276
1874.00 75.6477
1874.02 60.1281
1874.05 37.8105
1874.07 24.2271
1874.09 16.4462
1874.11 11.5243
1874.13 8.57151
1874.17 5.16911
1874.21 3.44073
1874.25 2.45381
1874.29 1.84046
1874.37 1.15783
1874.45 0.799058
1874.54 0.590299
1874.70 0.370547
1875.03 0.201301
1875.35 0.138615
1876.01 0.0915092
1876.66 0.0739567
1877.96 0.0600518
1879.27 0.0540341
1884.49 0.0438457
1894.94 0.0341657
1915.84 0.0254510
1926.29 0.0253427
1931.51 0.0272488
1936.74 0.0320453
1941.96 0.0438453
1944.57 0.0561945
1947.18 0.0791620
1948.49 0.0986944
1949.80 0.128663
1951.10 0.177950
1952.41 0.267381
1953.06 0.342257
1953.71 0.455814
1954.37 0.640053
1955.02 0.968418
1955.35 1.23915
1955.67 1.64174
1956.00 2.28243
1956.16 2.75245
1956.33 3.38435
1956.49 4.26788
1956.57 4.84501
1956.65 5.53760
1956.73 6.40076
1956.82 7.46613
1956.90 8.83731
1956.98 10.5936
1957.06 12.9539
1957.14 16.1806
1957.22 20.7399
1957.31 27.3432
1957.39 37.6159
1957.47 54.0593
1957.55 82.5439
1957.59 104.129
1957.63 131.739
1957.72 210.611
1957.80 259.355
1957.89 204.389
1957.97 127.642
1958.05 79.2846
1958.13 52.1922
1958.22 36.3349
1958.30 26.5272
1958.38 20.1267
1958.46 15.7519
1958.63 10.3617
1958.79 7.29800
1958.96 5.41952
1959.28 3.32201
1959.61 2.23958
1959.94 1.61334
1960.27 1.21794
1960.60 0.952544
1961.25 0.629260
1961.91 0.447728
1962.57 0.335749
1963.22 0.261938
1964.54 0.173478
1965.85 0.124602
1967.16 0.0947228
1968.48 0.0751408
1971.10 0.0518097
1973.73 0.0389251
1978.99 0.0258053
1984.24 0.0194857
1989.49 0.0158845
2000.00 0.0120065
2016.76 0.00914618
2033.52 0.00769682
2067.03 0.00630113
2100.55 0.00586033
2134.07 0.00614646
2167.58 0.00753869
2184.34 0.00910937
2201.10 0.0120481
2217.86 0.0183440
2226.24 0.0245808
2234.61 0.0358780
2238.80 0.0453440
2242.99 0.0597274
2247.18 0.0831664
2251.37 0.125241
2253.47 0.160158
2255.56 0.212686
2257.66 0.297014
2258.70 0.359742
2259.23 0.398983
2259.75 0.444992
2260.28 0.499640
2260.80 0.565096
2261.32 0.644400
2261.85 0.741530
2262.37 0.862732
2262.89 1.01631
2263.42 1.21483
2263.94 1.47696
2264.47 1.83427
2264.99 2.33733
2265.51 3.07593
2266.04 4.21629
2266.56 6.10668
2266.82 7.54348
2267.08 9.50951
2267.35 12.2959
2267.61 16.3427
2267.87 22.3486
2268.13 31.2109
2268.52 50.0006
2268.90 62.6916
2269.29 50.2587
2269.67 31.4083
2269.92 22.8780
2270.16 16.9861
2270.66 10.1044
2271.15 6.56703
2271.64 4.57527
2272.14 3.35474
2272.63 2.56091
2273.62 1.62803
2274.60 1.12365
2275.59 0.821912
2277.56 0.494497
2279.54 0.330415
2281.51 0.236862
2283.48 0.178543
2285.46 0.139779
2289.40 0.0931109
2293.35 0.0672268
2297.30 0.0514388
2301.24 0.0411558
2309.14 0.0291548
2317.03 0.0228995
2332.81 0.0178094
2348.60 0.0180463
2356.49 0.0202543
2364.38 0.0250877
2372.28 0.0360095
2376.22 0.0469882
2380.17 0.0669658
2382.14 0.0837496
2384.12 0.109280
2386.09 0.150927
2388.06 0.225810
2389.05 0.288059
2390.04 0.381716
2391.02 0.532452
2391.52 0.644690
2392.01 0.797416
2392.26 0.895541
2392.50 1.01320
2392.75 1.15593
2393.00 1.33057
2393.24 1.54926
2393.49 1.82562
2393.74 2.18493
2393.98 2.65943
2394.23 3.30950
2394.48 4.22848
2394.72 5.58497
2394.97 7.68882
2395.22 11.2179
2395.34 13.9142
2395.46 17.6490
2395.59 23.0301
2395.71 30.8953
2395.83 42.7625
2395.96 60.6955
2396.13 97.3856
2396.30 122.441
2396.47 98.5358
2396.65 61.7682
2396.76 44.3360
2396.88 32.5872
2397.11 19.0888
2397.34 12.2749
2397.57 8.49889
2397.80 6.20081
2398.03 4.71948
2398.49 2.98623
2398.95 2.05611
2399.41 1.50144
2400.33 0.902683
2401.25 0.603353
2402.18 0.433105
2403.10 0.326998
2404.02 0.256609
2405.86 0.171856
2407.71 0.124877
2409.55 0.0962088
2411.39 0.0774970
2415.08 0.0555258
2418.76 0.0438355
2426.14 0.0331393
2433.51 0.0296315
2440.88 0.0295096
2455.63 0.0361581
2463.00 0.0434934
2470.37 0.0552336
2477.75 0.0746654
2485.12 0.109390
2486.96 0.122317
2488.81 0.137847
2489.73 0.146820
2490.65 0.156734
2491.57 0.167751
2492.49 0.180011
2493.41 0.193739
2494.34 0.209161
2495.26 0.226564
2496.18 0.246281
2497.10 0.268787
2498.02 0.294575
2499.87 0.358987
2501.71 0.447570
2503.55 0.573820
2505.40 0.762310
2507.24 1.06082
2508.16 1.27960
2509.08 1.57162
2510.00 1.97307
2510.92 2.54143
2511.85 3.37733
2512.77 4.65242
2513.69 6.67037
2514.61 9.88044
2515.76 15.7820
2516.90 19.7095
2518.05 15.7824
2519.19 9.87760
2520.31 6.15144
2521.43 4.03560
2522.54 2.80113
2523.66 2.04139
2524.78 1.54687
2525.90 1.21016
2528.13 0.796487
2530.37 0.563399
2532.60 0.419940
2537.07 0.260772
2541.54 0.180044
2546.01 0.135645
2550.48 0.120074
2551.60 0.128523
2552.71 0.162768
2553.27 0.214192
2553.83 0.359742
2554.11 0.556860
2554.25 0.747779
2554.39 1.08067
2554.53 1.75211
2554.60 2.37451
2554.67 3.40000
2554.74 5.33187
2554.77 6.98736
2554.81 9.54450
2554.84 13.7656
2554.88 21.3512
2554.91 36.4574
2554.93 49.1814
2554.95 68.7598
2554.97 110.071
2555.00 137.306
2555.03 110.072
2555.05 68.6290
2555.07 46.5682
2555.09 33.0053
2555.11 23.9047
2555.13 18.1926
2555.18 11.3137
2555.22 7.66768
2555.26 5.52862
2555.30 4.17438
2555.38 2.64072
2555.46 1.82139
2555.54 1.34419
2555.71 0.829717
2555.87 0.574980
2556.03 0.430538
2556.36 0.281097
2557.01 0.168626
2557.66 0.126930
2558.97 0.0944243
2560.27 0.0809966
2565.49 0.0613685
2575.93 0.0491516
2586.37 0.0476908
2596.81 0.0554038
2607.25 0.0792551
2612.46 0.104552
2617.68 0.150578
2622.90 0.245296
2624.21 0.284560
2624.86 0.308050
2625.51 0.334671
2626.17 0.365097
2626.82 0.399970
2627.47 0.440252
2628.12 0.487112
2628.78 0.542140
2629.43 0.607117
2630.08 0.684819
2630.73 0.778445
2631.39 0.892974
2632.04 1.03455
2632.69 1.21253
2633.34 1.44024
2633.99 1.73807
2634.65 2.13565
2635.30 2.68271
2635.95 3.45708
2636.60 4.59641
2637.26 6.33199
2637.91 9.06717
2638.56 13.3912
2639.38 21.2740
2640.20 26.0148
2641.02 20.4100
2641.84 12.7108
2642.51 8.54420
2643.18 5.95178
2643.85 4.31718
2644.51 3.24828
2645.85 2.00751
2647.19 1.35466
2648.52 0.972792
2649.86 0.731797
2652.53 0.456962
2655.21 0.312651
2657.88 0.227754
2660.55 0.173657
2663.22 0.137097
2668.57 0.0922293
2673.92 0.0667784
2679.26 0.0509451
2684.61 0.0404198
2695.30 0.0277176
2705.99 0.0206503
2727.37 0.0136529
2748.75 0.0110787
2759.45 0.0110075
2770.14 0.0121258
2780.83 0.0157728
2786.17 0.0198367
2791.52 0.0275484
2794.19 0.0341657
2796.87 0.0443637
2799.54 0.0611984
2802.21 0.0918411
2803.55 0.117589
2804.88 0.156710
2806.22 0.220441
2807.56 0.334480
2808.23 0.428923
2808.89 0.570261
2809.56 0.795850
2810.23 1.18851
2810.56 1.50408
2810.90 1.96403
2811.06 2.27713
2811.23 2.67108
2811.40 3.17598
2811.57 3.83723
2811.73 4.72560
2811.90 5.95607
2812.07 7.72441
2812.23 10.3832
2812.40 14.6089
2812.48 17.7177
2812.57 21.7917
2812.65 27.3648
2812.73 34.9333
2812.82 45.5647
2812.90 60.0058
2813.05 95.7537
2813.20 117.634
2813.35 92.4894
2813.50 57.6501
2813.67 33.6823
2813.83 21.1251
2814.00 14.2272
2814.17 10.1483
2814.33 7.57077
2814.50 5.85042
2814.84 3.78114
2815.17 2.63768
2815.50 1.94241
2816.17 1.17848
2816.84 0.789883
2817.51 0.566526
2818.17 0.426166
2818.84 0.332528
2820.18 0.219025
2821.51 0.155539
2822.85 0.116481
2824.18 0.0907533
2826.85 0.0600320
2829.52 0.0430786
2832.19 0.0327374
2834.86 0.0259637
2840.20 0.0179144
2845.54 0.0134971
2856.22 0.00911469
2866.90 0.00731556
2877.58 0.00724613
2882.92 0.00848266
2888.26 0.0129156
2890.93 0.0194447
2893.60 0.0382590
2894.94 0.0644603
2896.27 0.138231
2896.94 0.239520
2897.28 0.339544
2897.61 0.519134
2897.94 0.894868
2898.11 1.25879
2898.28 1.90070
2898.36 2.42727
2898.44 3.19550
2898.53 4.41252
2898.61 6.44618
2898.69 10.3362
2898.74 13.7300
2898.78 18.9091
2898.82 27.8316
2898.86 43.9007
2898.88 57.6595
2898.90 78.1922
2898.92 109.695
2898.94 156.716
2898.97 251.631
2899.00 313.429
2899.03 251.632
2899.06 156.718
2899.09 88.6083
2899.12 53.8888
2899.16 35.5396
2899.19 25.2238
2899.23 18.5957
2899.26 14.3476
2899.33 9.19878
2899.39 6.38274
2899.46 4.68218
2899.59 2.82360
2899.73 1.88043
2899.86 1.34461
2900.00 1.00916
2900.13 0.785390
2900.40 0.514113
2900.67 0.363343
2901.20 0.209497
2901.74 0.136739
2902.28 0.0966765
2903.35 0.0563518
2905.50 0.0271169
2907.65 0.0167326
2911.94 0.00917251
2916.24 0.00643133
2924.83 0.00433133
2933.42 0.00348189
2950.60 0.00270534
2967.78 0.00230724
3002.14 0.00185799
3036.50 0.00159737
3105.22 0.00136552
3122.40 0.00139887
3139.58 0.00159565
3156.76 0.00284864
3165.35 0.00794945
3167.50 0.0132121
3169.65 0.0280939
3170.72 0.0486656
3171.80 0.106253
3172.33 0.184773
3172.60 0.262072
3172.87 0.400056
3173.14 0.686636
3173.27 0.960509
3173.41 1.43768
3173.54 2.38159
3173.61 3.24370
3173.67 4.66847
3173.74 7.26543
3173.78 9.47968
3173.81 12.7221
3173.84 18.0661
3173.88 26.9508
3173.91 43.9472
3173.94 76.0646
3173.97 121.703
3174.00 152.128
3174.03 121.702
3174.06 76.0641
3174.08 53.2810
3174.10 38.2947
3174.12 28.4242
3174.14 22.0170
3174.18 14.0267
3174.22 9.64019
3174.27 6.95556
3174.31 5.27714
3174.39 3.32635
3174.47 2.27365
3174.55 1.65647
3174.72 0.987460
3174.88 0.654726
3175.05 0.465702
3175.38 0.270184
3176.04 0.124251
3176.70 0.0714517
3178.02 0.0328250
3179.34 0.0190818
3181.98 0.00914818
3184.61 0.00563902
3195.17 0.00222357
3216.28 0.00135234
3237.39 0.00119265
3258.50 0.00115631
3300.73 0.00133197
3321.84 0.00209287
3332.39 0.00499945
3337.67 0.0163932
3338.99 0.0280690
3340.31 0.0609101
3340.97 0.106061
3341.63 0.231062
3341.96 0.399705
3342.13 0.563641
3342.29 0.853998
3342.46 1.44356
3342.54 2.00179
3342.62 2.94197
3342.70 4.76327
3342.74 6.34974
3342.79 8.86472
3342.83 13.1749
3342.87 21.3791
3342.89 28.6794
3342.91 39.3295
3342.93 57.1283
3342.95 85.6883
3342.98 137.278
3343.00 171.292
3343.03 137.280
3343.05 85.6897
3343.08 50.2064
3343.11 31.8959
3343.13 21.6640
3343.16 15.5424
3343.19 11.5265
3343.21 8.94399
3343.27 5.81326
3343.32 4.04523
3343.38 2.98848
3343.49 1.81138
3343.60 1.21319
3343.70 0.868710
3343.92 0.508069
3344.14 0.333106
3344.36 0.235244
3344.79 0.135554
3345.66 0.0621106
3346.54 0.0358176
3348.28 0.0167606
3350.02 0.0100263
3356.99 0.00351070
3370.93 0.00199079
3384.87 0.00190683
3398.80 0.00220456
3412.74 0.00301361
3419.71 0.00385021
3426.68 0.00539216
3430.17 0.00669997
3433.65 0.00870765
3437.13 0.0120234
3440.62 0.0180882
3442.36 0.0232185
3444.10 0.0310752
3445.85 0.0440076
3447.59 0.0675590
3448.46 0.0873985
3449.33 0.117617
3450.20 0.167015
3451.07 0.256054
3451.51 0.330281
3451.94 0.442012
3452.38 0.622485
3452.81 0.940281
3453.03 1.19986
3453.25 1.58361
3453.47 2.18500
3453.69 3.19831
3453.79 3.99390
3453.90 5.12400
3454.01 6.80264
3454.07 7.97551
3454.12 9.44201
3454.18 11.3820
3454.23 13.9108
3454.29 17.4208
3454.34 22.2550
3454.39 29.3959
3454.45 39.9147
3454.50 56.1021
3454.56 81.0892
3454.63 129.706
3454.70 161.959
3454.77 129.429
3454.84 80.8711
3454.90 56.3287
3454.95 40.3009
3455.00 29.8093
3455.06 22.7519
3455.16 14.3303
3455.27 9.80745
3455.37 7.08678
3455.48 5.36263
3455.69 3.36161
3455.90 2.29536
3456.11 1.66749
3456.32 1.26555
3456.53 0.993033
3456.96 0.657439
3457.38 0.467503
3457.80 0.349458
3458.22 0.271137
3459.07 0.176877
3459.91 0.124609
3460.76 0.0925834
3461.60 0.0715977
3463.29 0.0466334
3464.98 0.0329291
3466.67 0.0246083
3468.36 0.0191820
3471.74 0.0127730
3475.11 0.00928382
3478.49 0.00718145
3481.87 0.00582229
3488.63 0.00424391
3495.38 0.00341755
3508.90 0.00270075
3522.41 0.00257858
3535.92 0.00300778
3549.43 0.00576369
3556.19 0.0163936
3557.88 0.0272232
3559.57 0.0577122
3560.41 0.0997220
3561.26 0.216628
3561.68 0.375611
3561.89 0.530736
3562.10 0.807145
3562.31 1.37382
3562.42 1.91518
3562.52 2.84018
3562.63 4.66024
3562.68 6.30034
3562.74 8.90625
3562.79 13.6095
3562.82 17.5365
3562.84 23.0982
3562.87 32.0197
3562.89 46.0192
3562.92 69.9066
3562.95 111.667
3562.97 178.668
3563.00 223.342
3563.03 178.681
3563.05 111.678
3563.07 80.4089
3563.09 60.1014
3563.12 36.0951
3563.16 23.6300
3563.19 16.5340
3563.23 12.1669
3563.26 9.30717
3563.33 5.93183
3563.40 4.08006
3563.46 2.98735
3563.60 1.79729
3563.74 1.19534
3563.87 0.853998
3564.15 0.498369
3564.42 0.326136
3564.69 0.230506
3565.24 0.133029
3566.33 0.0616288
3567.42 0.0362193
3569.60 0.0179305
3571.78 0.0115967
3580.50 0.00669291
3589.22 0.0127054
3591.40 0.0198605
3593.58 0.0403017
3594.67 0.0686583
3595.76 0.148087
3596.31 0.256499
3596.58 0.363313
3596.85 0.554175
3597.13 0.951175
3597.26 1.33125
3597.40 1.99480
3597.54 3.32578
3597.60 4.54128
3597.67 6.56081
3597.74 10.2721
3597.77 13.4071
3597.81 18.1797
3597.84 25.9005
3597.88 39.3750
3597.91 65.0625
3597.93 86.5722
3597.94 118.960
3597.97 189.126
3598.00 237.685
3598.03 189.104
3598.06 118.728
3598.09 70.5934
3598.11 45.2100
3598.14 30.8740
3598.17 22.2335
3598.20 16.6998
3598.23 12.9701
3598.29 8.44000
3598.35 5.87985
3598.41 4.34576
3598.52 2.64641
3598.64 1.77240
3598.75 1.27258
3598.99 0.747125
3599.22 0.490417
3599.45 0.347253
3599.92 0.200602
3600.85 0.0925938
3601.78 0.0539585
3603.64 0.0259398
3605.50 0.0160369
3612.94 0.00653909
3620.39 0.00499657
3627.83 0.00472999
3642.72 0.00543678
3657.61 0.00745114
3665.05 0.00924753
3672.49 0.0120272
3679.94 0.0166117
3687.38 0.0249418
3691.10 0.0319293
3694.83 0.0425512
3698.55 0.0598494
3702.27 0.0908700
3704.13 0.116568
3705.99 0.155158
3707.85 0.216950
3708.78 0.262852
3709.71 0.325031
3710.64 0.412384
3711.11 0.469842
3711.57 0.540193
3712.04 0.627793
3712.51 0.738218
3712.97 0.880395
3713.44 1.06764
3713.90 1.32160
3714.37 1.67585
3714.83 2.19096
3715.30 2.97777
3715.76 4.25648
3715.99 5.21360
3716.23 6.50246
3716.46 8.29493
3716.69 10.8229
3716.92 14.4781
3717.16 19.6938
3717.53 31.5202
3717.90 39.4635
3718.27 31.6229
3718.64 19.7726
3718.94 13.4028
3719.23 9.37962
3719.53 6.82214
3719.82 5.14575
3720.41 3.18456
3721.00 2.14953
3721.59 1.54223
3722.18 1.15885
3723.36 0.721243
3724.54 0.491121
3725.72 0.355787
3726.90 0.269614
3728.07 0.211462
3730.43 0.140208
3732.79 0.0999579
3735.15 0.0750306
3737.50 0.0585423
3742.22 0.0387968
3746.93 0.0279103
3751.65 0.0213078
3756.36 0.0170354
3765.79 0.0121189
3775.22 0.00965835
3794.08 0.00807841
3812.94 0.00945531
3822.37 0.0117066
3831.80 0.0161961
3836.51 0.0200821
3841.22 0.0260641
3845.94 0.0359002
3850.65 0.0536882
3853.01 0.0685361
3855.37 0.0909738
3857.73 0.127228
3860.08 0.191487
3861.26 0.244120
3862.44 0.322257
3863.03 0.376409
3863.62 0.445423
3863.91 0.487384
3864.21 0.535410
3864.80 0.655768
3865.09 0.731907
3865.39 0.822093
3865.68 0.929978
3865.98 1.05998
3866.27 1.21968
3866.57 1.41726
3866.86 1.66739
3867.15 1.98770
3867.45 2.40960
3867.74 2.97765
3868.04 3.76509
3868.33 4.88998
3868.63 6.57298
3868.92 9.18461
3869.22 13.4347
3869.51 20.3884
3869.86 32.6297
3870.20 40.7312
3870.55 32.5436
3870.89 20.3494
3871.13 14.5244
3871.36 10.6030
3871.60 7.96622
3871.83 6.15400
3872.31 3.94232
3872.78 2.71922
3873.25 1.98130
3873.72 1.50492
3874.66 0.950938
3875.61 0.654028
3876.55 0.477445
3878.44 0.286880
3880.33 0.191915
3882.21 0.138021
3884.10 0.104589
3885.99 0.0825034
3889.76 0.0562715
3893.54 0.0422398
3897.31 0.0343454
3901.09 0.0301178
3908.63 0.0295936
3912.41 0.0339995
3916.18 0.0443958
3918.07 0.0538816
3919.96 0.0687880
3921.85 0.0936192
3923.73 0.138874
3924.68 0.176747
3925.62 0.234012
3926.56 0.326422
3927.51 0.489426
3927.98 0.622399
3928.45 0.818859
3928.92 1.12643
3929.16 1.34988
3929.39 1.64556
3929.63 2.05182
3929.87 2.62810
3929.98 3.01084
3930.10 3.48251
3930.22 4.07237
3930.34 4.82244
3930.46 5.79459
3930.57 7.08245
3930.69 8.83184
3930.81 11.2770
3930.93 14.8046
3931.05 20.0641
3931.16 28.1215
3931.28 40.3466
3931.44 64.4791
3931.60 79.7480
3931.76 63.1284
3931.92 39.4151
3932.06 25.4699
3932.20 17.2298
3932.35 12.2006
3932.49 9.03376
3932.77 5.45531
3933.06 3.63020
3933.34 2.57889
3933.63 1.92552
3934.20 1.18807
3934.77 0.804798
3935.34 0.581553
3935.90 0.440096
3936.47 0.344893
3937.61 0.228642
3938.75 0.163179
3939.89 0.122668
3941.03 0.0958564
3943.30 0.0636502
3945.58 0.0457602
3947.86 0.0347684
3950.13 0.0275212
3954.69 0.0188126
3959.24 0.0139406
3968.34 0.00889133
3977.45 0.00640714
3986.56 0.00497379
4004.77 0.00343137
4022.98 0.00264334
4041.19 0.00218205
4077.62 0.00169848
4150.47 0.00141653
4223.32 0.00155607
4296.16 0.00216701
4332.59 0.00283886
4369.01 0.00409022
4387.23 0.00514985
4405.44 0.00676762
4423.65 0.00941199
4441.86 0.0141730
4450.97 0.0181313
4460.07 0.0240965
4469.18 0.0336949
4478.29 0.0506059
4482.84 0.0643666
4485.12 0.0734751
4487.39 0.0846705
4489.67 0.0986533
4490.81 0.106981
4491.95 0.116410
4493.08 0.127154
4494.22 0.139446
4495.36 0.153607
4496.50 0.170034
4497.64 0.189251
4498.78 0.211882
4499.91 0.238799
4501.05 0.271143
4502.19 0.310495
4503.33 0.358909
4504.47 0.419390
4505.60 0.496210
4506.74 0.595739
4507.88 0.727282
4509.02 0.905636
4510.16 1.15438
4511.30 1.51269
4512.43 2.04498
4513.57 2.85800
4514.71 4.10212
4516.26 6.55542
4517.80 8.18233
4519.35 6.54360
4520.89 4.09183
4522.74 2.30616
4524.58 1.40919
4526.42 0.932256
4528.27 0.656906
4530.11 0.485700
4531.96 0.372892
4535.65 0.238870
4539.33 0.165693
4543.02 0.121571
4550.40 0.0734401
4557.78 0.0492036
4565.16 0.0353511
4572.53 0.0267238
4579.91 0.0210212
4594.67 0.0143410
4609.42 0.0112925
4616.80 0.0111215
4624.18 0.0133134
4627.86 0.0173666
4631.55 0.0296982
4633.40 0.0471631
4635.24 0.0966428
4636.16 0.164765
4636.63 0.232162
4637.09 0.353898
4637.55 0.608907
4637.78 0.857504
4638.01 1.29589
4638.24 2.19029
4638.35 3.02748
4638.47 4.45348
4638.59 7.20997
4638.64 9.64851
4638.70 13.4564
4638.76 20.1264
4638.82 32.6656
4638.84 43.7392
4638.87 60.8642
4638.90 88.3756
4638.93 132.044
4638.97 210.658
4639.00 264.074
4639.04 210.647
4639.07 132.036
4639.10 89.5813
4639.12 63.1297
4639.15 46.1676
4639.18 34.9379
4639.23 21.5815
4639.29 14.6339
4639.34 10.4790
4639.40 7.89709
4639.51 4.91485
4639.61 3.34682
4639.72 2.42400
4639.94 1.43884
4640.16 0.952295
4640.38 0.677100
4640.81 0.393976
4641.25 0.258188
4641.68 0.183065
4642.55 0.106878
4644.30 0.0512899
4646.04 0.0315088
4649.52 0.0172269
4653.01 0.0123311
4659.98 0.0111715
4663.46 0.0213587
4665.21 0.0639750
4665.64 0.106965
4666.08 0.224102
4666.30 0.379023
4666.51 0.783289
4666.62 1.28693
4666.73 2.49134
4666.79 3.85420
4666.84 6.60522
4666.87 9.17185
4666.89 13.4308
4666.92 20.9712
4666.95 35.1554
4666.97 56.0265
4667.00 70.3047
4667.03 56.0261
4667.05 35.1552
4667.08 19.8912
4667.11 12.0963
4667.14 7.97782
4667.18 5.60878
4667.24 3.17560
4667.30 2.03127
4667.42 1.03259
4667.55 0.623411
4667.80 0.299466
4668.04 0.176956
4668.54 0.0843095
4669.03 0.0505867
4671.01 0.0168207
4674.98 0.00777261
4682.90 0.00499998
4698.75 0.00377252
4730.44 0.00323243
4746.29 0.00353941
4754.22 0.00400259
4762.14 0.00494899
4770.06 0.00709162
4774.03 0.00927478
4777.99 0.0132995
4779.97 0.0167137
4781.95 0.0219537
4783.93 0.0305893
4785.91 0.0463296
4786.90 0.0595849
4787.89 0.0797775
4788.88 0.112826
4789.87 0.172344
4790.37 0.222004
4790.87 0.296799
4791.36 0.417309
4791.86 0.629973
4792.35 1.06055
4792.60 1.46321
4792.85 2.14243
4792.97 2.67571
4793.09 3.43349
4793.22 4.55961
4793.34 6.31318
4793.40 7.59683
4793.47 9.30129
4793.53 11.6233
4793.59 14.8809
4793.65 19.6032
4793.71 26.6883
4793.78 37.6320
4793.84 54.2436
4793.92 86.7072
4794.00 107.978
4794.04 101.403
4794.08 86.0595
4794.16 53.7370
4794.22 39.5387
4794.27 29.7780
4794.37 17.9926
4794.47 11.8208
4794.57 8.31638
4794.67 6.12627
4794.77 4.70138
4794.97 3.00365
4795.17 2.07951
4795.37 1.52318
4795.77 0.916892
4796.18 0.611710
4796.58 0.437020
4796.98 0.327842
4797.38 0.255107
4798.19 0.167282
4798.99 0.118308
4799.79 0.0882445
4800.60 0.0684765
4802.21 0.0449209
4803.81 0.0319563
4805.42 0.0240685
4807.03 0.0189152
4810.25 0.0128130
4813.46 0.00947768
4819.89 0.00614418
4826.33 0.00459880
4832.76 0.00376581
4845.62 0.00296896
4871.35 0.00256658
4897.08 0.00278759
4922.81 0.00360040
4935.68 0.00440115
4948.54 0.00572500
4961.41 0.00808279
4974.27 0.0128362
4980.70 0.0172519
4987.14 0.0246866
4993.57 0.0386706
4996.78 0.0508184
5000.00 0.0699326
5002.15 0.0895218
5004.29 0.118796
5006.44 0.165352
5007.51 0.199690
5008.58 0.245927
5009.66 0.310375
5010.19 0.352566
5010.73 0.403848
5011.27 0.467262
5011.80 0.546602
5012.34 0.648029
5012.88 0.779905
5013.41 0.956253
5013.95 1.19806
5014.49 1.54261
5015.02 2.05262
5015.56 2.84983
5016.09 4.16788
5016.36 5.15884
5016.63 6.49264
5016.90 8.30098
5017.17 10.7313
5017.68 17.1603
5018.20 21.4085
5018.72 17.0943
5019.23 10.6789
5019.69 6.95596
5020.14 4.72328
5020.59 3.36026
5021.05 2.49133
5021.95 1.50823
5022.86 1.00405
5023.77 0.713863
5024.67 0.532884
5026.49 0.328809
5028.30 0.222735
5030.11 0.160799
5031.92 0.121557
5033.74 0.0951640
5037.36 0.0629526
5040.99 0.0448173
5044.61 0.0336107
5048.24 0.0262080
5055.49 0.0173504
5062.74 0.0124630
5069.99 0.00949174
5077.24 0.00755906
5091.74 0.00530438
5106.24 0.00412902
5135.25 0.00318856
5164.25 0.00333814
5178.75 0.00390513
5193.25 0.00514283
5200.50 0.00625084
5207.75 0.00798597
5215.00 0.0108801
5222.25 0.0161889
5225.88 0.0206682
5229.51 0.0275011
5233.13 0.0386700
5236.76 0.0587831
5238.57 0.0755106
5240.38 0.100715
5242.19 0.141252
5244.01 0.212544
5245.82 0.355887
5246.73 0.488991
5246.95 0.534041
5247.18 0.585345
5247.63 0.713074
5248.09 0.887730
5248.31 0.999915
5248.54 1.13388
5248.77 1.29708
5248.99 1.49662
5249.22 1.74627
5249.44 2.06085
5249.67 2.46809
5249.90 3.00156
5250.12 3.72343
5250.35 4.71759
5250.58 6.13981
5250.80 8.21684
5251.03 11.3507
5251.26 16.0345
5251.58 25.6366
5251.90 31.9597
5252.22 25.5000
5252.54 15.9271
5252.83 10.3414
5253.11 6.99958
5253.40 4.96810
5253.68 3.68078
5254.25 2.22391
5254.82 1.47900
5255.39 1.05059
5255.96 0.783840
5257.10 0.483271
5258.24 0.327104
5259.38 0.236028
5260.52 0.178282
5261.65 0.139464
5263.93 0.0920796
5266.21 0.0654061
5268.49 0.0489190
5270.76 0.0380228
5275.32 0.0249690
5279.87 0.0177479
5284.43 0.0133362
5288.98 0.0104456
5298.09 0.00701004
5307.20 0.00512236
5316.31 0.00397387
5325.42 0.00322293
5343.63 0.00233236
5361.85 0.00184516
5398.29 0.00136395
5434.72 0.00115620
5471.16 0.00106786
5544.03 0.00108226
5616.90 0.00132566
5653.33 0.00159003
5689.77 0.00205566
5726.20 0.00297864
5744.42 0.00383709
5762.64 0.00531769
5780.85 0.00829575
5789.96 0.0111368
5799.07 0.0161584
5803.63 0.0202992
5808.18 0.0265239
5812.74 0.0365608
5817.29 0.0543838
5819.57 0.0690561
5821.84 0.0909702
5824.12 0.125860
5825.26 0.151651
5826.40 0.186457
5827.54 0.235114
5828.11 0.266994
5828.68 0.305902
5829.25 0.354147
5829.81 0.414721
5830.38 0.492315
5830.95 0.593881
5831.52 0.730542
5832.09 0.919462
5832.66 1.19088
5833.23 1.59894
5833.80 2.24931
5834.37 3.35560
5834.65 4.21258
5834.94 5.39138
5835.22 7.04481
5835.51 9.33698
5836.00 15.0063
5836.50 19.1134
5836.75 18.1884
5837.00 15.5869
5837.49 9.79015
5837.84 6.93697
5838.19 5.03244
5838.53 3.76091
5838.88 2.89287
5839.57 1.84080
5840.26 1.26499
5840.96 0.919278
5841.65 0.697471
5843.03 0.440360
5844.42 0.303432
5845.80 0.222227
5848.57 0.135073
5851.34 0.0919308
5854.11 0.0676518
5859.65 0.0431359
5865.19 0.0322178
5870.73 0.0271668
5881.81 0.0258677
5887.35 0.0286427
5892.89 0.0343208
5898.43 0.0446547
5903.97 0.0639225
5909.50 0.103849
5912.27 0.141529
5913.66 0.169022
5914.35 0.185967
5915.04 0.205663
5915.74 0.228766
5916.43 0.256019
5917.12 0.288564
5917.81 0.327724
5918.51 0.375540
5919.20 0.434536
5919.89 0.508527
5920.58 0.602934
5921.28 0.725998
5921.97 0.889643
5922.66 1.11372
5923.35 1.42908
5924.05 1.88972
5924.74 2.58545
5925.43 3.67142
5926.12 5.37542
5927.01 8.59656
5927.90 10.7297
5928.79 8.57389
5929.68 5.36002
5930.58 3.28375
5931.48 2.12898
5932.37 1.46606
5933.27 1.06207
5934.17 0.801342
5935.07 0.624627
5936.86 0.408790
5938.66 0.287739
5940.46 0.213401
5944.05 0.130871
5947.64 0.0885902
5951.23 0.0641017
5954.82 0.0486629
5958.42 0.0383056
5965.60 0.0256978
5972.78 0.0185995
5979.97 0.0142065
5987.15 0.0112975
6001.52 0.00780295
6015.89 0.00586565
6044.62 0.00392360
6073.36 0.00305668
6102.10 0.00264845
6159.57 0.00249837
6217.04 0.00298740
6245.78 0.00356027
6274.51 0.00455668
6303.25 0.00646981
6317.62 0.00819996
6331.98 0.0111229
6346.35 0.0168843
6353.54 0.0223033
6360.72 0.0317703
6367.90 0.0509869
6371.50 0.0692625
6373.29 0.0827775
6375.09 0.101069
6375.99 0.112747
6376.88 0.126703
6377.78 0.143573
6378.68 0.164229
6379.58 0.189895
6380.48 0.222329
6381.37 0.264129
6382.27 0.319255
6383.17 0.393985
6384.07 0.498712
6384.97 0.651603
6385.86 0.886522
6386.76 1.27175
6387.21 1.56208
6387.66 1.95829
6388.11 2.51352
6388.56 3.31275
6389.01 4.48884
6389.46 6.22477
6390.80 13.0656
6391.14 12.5902
6391.47 10.8826
6392.14 6.87271
6392.56 5.05505
6392.98 3.78012
6393.81 2.26615
6394.64 1.48100
6395.47 1.03568
6396.30 0.762387
6397.13 0.584294
6398.79 0.374964
6400.45 0.261915
6402.11 0.194379
6405.43 0.121445
6408.75 0.0853135
6412.07 0.0650987
6418.71 0.0452056
6425.35 0.0371497
6431.99 0.0344614
6445.28 0.0383036
6451.92 0.0445360
6455.24 0.0490629
6458.56 0.0548217
6461.88 0.0621572
6463.54 0.0665664
6465.20 0.0715715
6466.86 0.0772798
6468.52 0.0838087
6470.18 0.0913155
6471.84 0.0999930
6473.51 0.110091
6475.17 0.121906
6476.83 0.135852
6478.49 0.152433
6480.15 0.172357
6481.81 0.196520
6485.13 0.263087
6486.79 0.309696
6488.45 0.369458
6490.11 0.447561
6491.77 0.551491
6493.43 0.692723
6495.09 0.887917
6496.75 1.16088
6498.41 1.53972
6501.31 2.45629
6504.20 3.05532
6507.10 2.43668
6509.99 1.52367
6512.17 1.05412
6514.35 0.750485
6516.53 0.553285
6518.71 0.421441
6523.07 0.265090
6527.42 0.181021
6531.78 0.131229
6536.14 0.0994949
6544.86 0.0630185
6553.57 0.0437280
6562.29 0.0323483
6579.72 0.0202271
6597.15 0.0143465
6614.59 0.0111849
6649.45 0.00861545
6684.32 0.00907710
6701.75 0.0106703
6719.18 0.0140475
6736.61 0.0214896
6745.33 0.0287541
6754.05 0.0415086
6762.76 0.0669623
6767.12 0.0904418
6769.30 0.107367
6770.39 0.117741
6771.48 0.129730
6772.57 0.143713
6773.66 0.160121
6774.75 0.179584
6775.84 0.202856
6776.93 0.231041
6778.02 0.265534
6779.11 0.308415
6780.19 0.362462
6781.28 0.431928
6782.37 0.522853
6783.46 0.644827
6784.55 0.812355
6785.64 1.04933
6786.73 1.39328
6787.82 1.90420
6788.91 2.66000
6790.51 4.23960
6792.10 5.27444
6793.70 4.21396
6795.29 2.64096
6796.42 1.87180
6797.54 1.36041
6798.67 1.01990
6799.79 0.788242
6802.04 0.508654
6804.29 0.356653
6806.55 0.267060
6808.80 0.211451
6813.30 0.154986
6817.80 0.144457
6820.05 0.157721
6822.30 0.193102
6824.55 0.276343
6825.68 0.358104
6826.80 0.499124
6827.93 0.769268
6828.49 1.00569
6828.77 1.16900
6829.06 1.37688
6829.34 1.64761
6829.62 2.00527
6829.76 2.22969
6829.90 2.49304
6830.04 2.80429
6830.18 3.17204
6830.32 3.61617
6830.46 4.15323
6830.74 5.60385
6831.03 7.80131
6831.31 11.0944
6831.70 17.4163
6831.90 19.8640
6832.10 20.2019
6832.50 15.0523
6832.89 9.24707
6833.16 6.68905
6833.42 4.95937
6833.95 2.96256
6834.48 1.94183
6835.00 1.36482
6835.53 1.01084
6836.06 0.779319
6837.11 0.506011
6838.17 0.357373
6839.22 0.267722
6841.33 0.169434
6843.44 0.119294
6845.54 0.0901165
6849.76 0.0588474
6853.98 0.0430563
6858.19 0.0338893
6866.63 0.0244042
6875.06 0.0210302
6879.28 0.0213590
6883.49 0.0239132
6887.71 0.0313919
6889.82 0.0395221
6891.92 0.0547705
6892.98 0.0677387
6894.03 0.0875715
6895.09 0.119983
6896.14 0.178164
6896.67 0.226315
6897.19 0.298490
6897.72 0.413693
6898.25 0.614152
6898.78 1.00969
6899.04 1.37072
6899.30 1.96299
6899.57 3.04073
6899.70 3.93863
6899.83 5.27328
6899.90 6.20732
6899.96 7.39959
6900.03 8.94717
6900.09 10.9918
6900.16 13.7412
6900.23 17.4944
6900.29 22.6547
6900.36 29.5389
6900.48 46.8539
6900.60 56.4753
6900.72 43.5783
6900.84 26.9818
6900.94 18.1705
6901.04 12.7272
6901.14 9.27473
6901.24 7.00423
6901.43 4.35274
6901.63 2.94651
6901.83 2.11723
6902.02 1.59479
6902.41 0.996970
6902.81 0.681330
6903.20 0.495831
6903.59 0.377467
6903.98 0.297393
6904.77 0.199067
6905.55 0.143430
6906.34 0.108838
6907.12 0.0859153
6908.69 0.0582826
6910.26 0.0428916
6913.40 0.0271445
6916.54 0.0195751
6919.68 0.0153041
6925.95 0.0107950
6932.23 0.00849166
6938.51 0.00709733
6951.06 0.00547370
6976.17 0.00392306
7001.27 0.00316409
7051.49 0.00248947
7101.70 0.00236227
7151.91 0.00270002
7177.02 0.00314528
7202.13 0.00396306
7227.24 0.00560261
7239.79 0.00712196
7252.34 0.00972281
7264.90 0.0148983
7271.17 0.0197887
7277.45 0.0283548
7283.73 0.0458121
7286.87 0.0624933
7290.00 0.0916779
7293.14 0.150204
7294.71 0.204602
7295.50 0.244073
7296.28 0.296426
7297.07 0.368105
7297.46 0.414175
7297.85 0.469538
7298.24 0.537029
7298.63 0.619955
7299.03 0.723590
7299.42 0.855285
7299.81 1.02636
7300.20 1.25235
7300.60 1.55920
7300.99 1.98799
7301.38 2.60871
7301.77 3.53355
7302.16 4.95564
7302.56 7.15452
7303.08 11.4838
7303.60 14.5748
7303.86 13.8455
7304.12 11.8478
7304.64 7.43890
7305.21 4.41600
7305.77 2.79453
7306.33 1.89282
7306.89 1.35601
7307.45 1.01546
7308.02 0.787617
7309.14 0.513246
7310.26 0.361322
7311.39 0.268989
7313.63 0.167720
7315.88 0.116651
7318.13 0.0876587
7322.62 0.0583909
7327.12 0.0457073
7331.61 0.0404174
7340.60 0.0417357
7349.59 0.0578141
7354.09 0.0754537
7358.58 0.106660
7360.83 0.131554
7361.95 0.147726
7363.08 0.167263
7364.20 0.191181
7365.32 0.220829
7365.89 0.238376
7366.45 0.258137
7367.57 0.305856
7368.70 0.368237
7369.82 0.451636
7370.94 0.566177
7372.07 0.728289
7373.19 0.966376
7374.31 1.32872
7375.44 1.89931
7376.56 2.79886
7377.98 4.44768
7379.40 5.44274
7380.82 4.27170
7382.24 2.66042
7383.44 1.76544
7384.64 1.21703
7385.83 0.876161
7387.03 0.655846
7389.43 0.402841
7391.82 0.270934
7394.22 0.194316
7396.61 0.146121
7401.40 0.0913746
7406.19 0.0627067
7410.98 0.0458617
7420.56 0.0278791
7430.14 0.0189816
7439.72 0.0139400
7458.88 0.00874906
7478.04 0.00630647
7497.20 0.00502527
7535.52 0.00405642
7573.84 0.00443067
7593.01 0.00526971
7612.17 0.00700331
7631.33 0.0108430
7640.91 0.0146537
7650.49 0.0214880
7655.28 0.0271356
7660.07 0.0355896
7664.86 0.0490637
7669.65 0.0724708
7674.44 0.118571
7675.63 0.137152
7676.83 0.160484
7678.03 0.190370
7679.23 0.229413
7679.83 0.253603
7680.42 0.281804
7681.02 0.314937
7681.62 0.354127
7682.22 0.401076
7682.82 0.457821
7683.42 0.527197
7684.02 0.612941
7684.62 0.720774
7685.21 0.858291
7685.81 1.03664
7686.41 1.27165
7687.01 1.58800
7687.61 2.02001
7688.21 2.61518
7688.81 3.42588
7689.90 5.46160
7691.00 6.73786
7692.10 5.32210
7693.19 3.31654
7694.34 2.00527
7695.48 1.28899
7696.62 0.882535
7697.76 0.637100
7698.91 0.479461
7700.05 0.373151
7702.33 0.243817
7704.62 0.171541
7706.90 0.127308
7711.47 0.0783546
7716.04 0.0533971
7720.61 0.0390277
7725.18 0.0300418
7729.75 0.0240826
7738.89 0.0170188
7748.02 0.0133155
7766.30 0.0105155
7784.58 0.0115839
7793.72 0.0140049
7802.85 0.0190250
7807.42 0.0234066
7811.99 0.0301376
7816.56 0.0411041
7821.13 0.0605760
7825.70 0.0999803
7827.98 0.136775
7830.27 0.198956
7831.41 0.247526
7831.98 0.278754
7832.55 0.316275
7833.12 0.361874
7833.70 0.418003
7834.27 0.488096
7834.84 0.577075
7835.41 0.692386
7835.98 0.844509
7836.55 1.05046
7837.12 1.33704
7837.69 1.74807
7838.26 2.35597
7838.84 3.27691
7839.41 4.66768
7840.20 7.41755
7841.00 9.02657
7841.80 7.03379
7842.59 4.36750
7843.49 2.54116
7844.39 1.59098
7845.29 1.07082
7846.19 0.763804
7847.09 0.569996
7847.99 0.440719
7849.79 0.285296
7851.59 0.199436
7853.39 0.147231
7856.99 0.0898111
7860.59 0.0606304
7864.19 0.0438199
7867.79 0.0332605
7871.39 0.0261967
7878.59 0.0176162
7885.79 0.0127947
7892.99 0.00981101
7900.19 0.00783308
7914.59 0.00544702
7928.99 0.00411063
7957.79 0.00273750
7986.58 0.00208617
8015.38 0.00174159
8072.98 0.00148903
8130.57 0.00163714
8159.37 0.00191996
8188.17 0.00249455
8216.96 0.00376136
8231.36 0.00502264
8245.76 0.00730353
8252.96 0.00920906
8260.16 0.0120957
8267.36 0.0167792
8274.56 0.0251377
8278.16 0.0320343
8281.76 0.0423523
8285.36 0.0587944
8288.96 0.0873488
8292.56 0.143611
8293.46 0.166282
8294.36 0.194776
8295.26 0.231248
8296.16 0.278882
8297.06 0.342818
8297.51 0.383254
8297.96 0.431169
8298.41 0.488487
8298.86 0.557767
8299.31 0.642475
8299.76 0.747373
8300.21 0.879113
8300.66 1.04715
8301.11 1.26513
8301.56 1.55300
8302.01 1.94011
8302.46 2.46907
8302.91 3.19840
8303.36 4.19232
8304.18 6.68838
8305.00 8.27021
8305.82 6.54615
8306.64 4.08089
8307.26 2.82973
8307.87 2.01851
8308.49 1.49012
8309.10 1.13636
8310.33 0.715011
8311.55 0.487654
8312.78 0.352672
8314.01 0.266501
8316.46 0.167287
8318.92 0.114721
8321.37 0.0836375
8323.82 0.0637744
8326.28 0.0503298
8331.19 0.0338442
8336.09 0.0245346
8341.00 0.0187915
8345.91 0.0150226
8355.73 0.0106097
8365.54 0.00833554
8385.18 0.00669699
8404.81 0.00753082
8414.63 0.00918619
8424.44 0.0125758
8429.35 0.0155307
8434.26 0.0200808
8439.17 0.0275320
8444.07 0.0408821
8446.53 0.0518911
8448.98 0.0683245
8451.44 0.0943993
8453.89 0.139372
8456.34 0.226879
8457.57 0.305372
8458.19 0.360819
8458.80 0.432565
8459.41 0.527886
8459.72 0.587607
8460.03 0.657597
8460.33 0.740855
8460.64 0.840506
8460.95 0.960976
8461.25 1.10768
8461.56 1.28964
8461.87 1.51753
8462.17 1.80682
8462.48 2.17774
8462.79 2.66267
8463.09 3.30137
8463.40 4.14547
8463.71 5.24429
8464.35 8.34875
8465.00 10.2318
8465.65 8.02786
8466.29 4.99330
8466.74 3.56793
8467.18 2.61161
8467.62 1.96735
8468.06 1.52339
8468.95 0.979635
8469.83 0.677643
8470.72 0.494846
8471.60 0.376540
8473.37 0.238490
8475.14 0.164393
8476.90 0.120191
8480.44 0.0724154
8483.98 0.0485457
8487.51 0.0349446
8491.05 0.0264702
8494.58 0.0208372
8501.66 0.0140518
8508.73 0.0102824
8515.80 0.00798062
8522.87 0.00648032
8537.02 0.00473687
8551.16 0.00385210
8579.45 0.00327814
8607.74 0.00381584
8621.88 0.00469900
8636.03 0.00647465
8643.10 0.00801893
8650.17 0.0104014
8657.25 0.0143202
8664.32 0.0213947
8667.85 0.0272780
8671.39 0.0361300
8674.93 0.0503342
8678.46 0.0752382
8682.00 0.124972
8683.77 0.170854
8684.65 0.203900
8685.53 0.247506
8686.42 0.306640
8687.30 0.389517
8687.74 0.443965
8688.19 0.510459
8688.63 0.592740
8689.07 0.696064
8689.51 0.827985
8689.95 0.999586
8690.40 1.22750
8690.84 1.53723
8691.28 1.96849
8691.72 2.58311
8692.16 3.47323
8692.61 4.75346
8693.30 7.56728
8694.00 9.27103
8694.70 7.27109
8695.39 4.52180
8695.99 2.98321
8696.58 2.04685
8697.18 1.46807
8697.77 1.09528
8698.96 0.669240
8700.15 0.448063
8701.34 0.319969
8702.53 0.239576
8704.91 0.148518
8707.29 0.100964
8709.67 0.0731056
8712.05 0.0554131
8714.43 0.0434904
8719.19 0.0289118
8723.95 0.0206844
8728.71 0.0155896
8733.47 0.0122187
8742.99 0.00817446
8752.51 0.00593330
8762.03 0.00456362
8771.55 0.00366669
8790.58 0.00260643
8809.62 0.00203547
8847.70 0.00150933
8885.77 0.00136104
8923.85 0.00145561
8961.93 0.00187012
8980.96 0.00230503
9000.00 0.00305460
9011.76 0.00380602
9023.53 0.00496198
9035.29 0.00686283
9047.05 0.0103026
9052.94 0.0131727
9058.82 0.0175092
9064.70 0.0245082
9070.58 0.0368836
9073.52 0.0469901
9076.46 0.0619504
9079.40 0.0854356
9082.34 0.125329
9083.81 0.156651
9085.28 0.201230
9086.02 0.230988
9086.76 0.267724
9087.49 0.313826
9088.23 0.372693
9088.96 0.449492
9089.70 0.551735
9090.43 0.691674
9091.17 0.889135
9091.90 1.17749
9092.64 1.61410
9093.37 2.29601
9094.11 3.36373
9095.05 5.35774
9096.00 6.57811
9096.95 5.16987
9097.89 3.21671
9098.71 2.11077
9099.53 1.44260
9100.35 1.03165
9101.17 0.767987
9102.80 0.467709
9104.44 0.312528
9106.08 0.222827
9107.71 0.166664
9110.99 0.103130
9114.26 0.0700094
9117.53 0.0506285
9120.80 0.0383299
9124.08 0.0300468
9130.62 0.0199279
9137.17 0.0142229
9143.71 0.0106938
9150.26 0.00836125
9163.35 0.00556800
9176.44 0.00402526
9189.53 0.00308676
9202.62 0.00247615
9228.80 0.00176483
9254.99 0.00139654
9307.35 0.00111464
9359.71 0.00119635
9385.90 0.00140522
9412.08 0.00184092
9438.26 0.00281107
9451.35 0.00378096
9464.44 0.00554037
9470.99 0.00701429
9477.53 0.00925315
9484.08 0.0128997
9490.62 0.0194447
9493.90 0.0248764
9497.17 0.0330503
9500.44 0.0461798
9503.72 0.0692474
9505.35 0.0879837
9506.99 0.115547
9508.63 0.158520
9510.26 0.230731
9511.08 0.286872
9511.90 0.365952
9512.31 0.418191
9512.72 0.482280
9513.13 0.562008
9513.53 0.662762
9513.94 0.792378
9514.35 0.962533
9514.76 1.19109
9515.17 1.50607
9515.58 1.95243
9515.99 2.60287
9516.40 3.57107
9516.81 5.00739
9517.40 7.98208
9518.00 9.83293
9518.60 7.75366
9519.19 4.82872
9519.75 3.07631
9520.30 2.05569
9520.86 1.44548
9521.41 1.06344
9522.52 0.637617
9523.62 0.422114
9524.73 0.299129
9525.84 0.222781
9528.05 0.137204
9530.26 0.0929542
9532.48 0.0672150
9534.69 0.0509421
9536.90 0.0400229
9541.33 0.0267463
9545.76 0.0193128
9550.18 0.0147573
9554.61 0.0117852
9563.46 0.00833551
9572.32 0.00659030
9581.17 0.00573179
9590.03 0.00544851
9607.73 0.00642059
9616.59 0.00804100
9625.44 0.0112917
9629.87 0.0141090
9634.30 0.0184408
9638.72 0.0255308
9643.15 0.0382380
9645.36 0.0487271
9647.58 0.0643897
9649.79 0.0892817
9652.00 0.132267
9654.22 0.216166
9655.32 0.291644
9655.88 0.344968
9656.43 0.414188
9656.98 0.506368
9657.54 0.632114
9657.81 0.713029
9658.09 0.809674
9658.37 0.927142
9658.64 1.07048
9658.92 1.24880
9659.20 1.47287
9659.47 1.75835
9659.75 2.12579
9660.03 2.60870
9660.30 3.24558
9660.58 4.09489
9660.86 5.20600
9661.43 8.27824
9662.00 10.0928
9662.50 8.28454
9663.00 5.55374
9663.00 0.407275
10000.0 0.398550
12000.0 0.354823
14000.0 0.321086
16000.0 0.294046
18000.0 0.271771
20000.0 0.253036
22000.0 0.237017
24000.0 0.223139
26000.0 0.210982
28000.0 0.200234
30000.0 0.190656
32000.0 0.182060
34000.0 0.174300
36000.0 0.167256
38000.0 0.160830
40000.0 0.154944
42000.0 0.149531
44000.0 0.144535
46000.0 0.139908
48000.0 0.135612
50000.0 0.131610
52000.0 0.127874
54000.0 0.124377
56000.0 0.121097
58000.0 0.118015
60000.0 0.115112
62000.0 0.112373
64000.0 0.109785
66000.0 0.107336
68000.0 0.105014
70000.0 0.102810
75000.0 0.0977607
75000.0 0.0977823
75734.7 0.0974804
75734.7 0.0974804
80000.0 0.0957276
90000.0 0.0765580
100000 0.0666599
120000 0.0607708
150000 0.0497467
200000 0.0405484
250000 0.0374248
250087 0.0374190
250088 0.0374190
270000 0.0360872
300000 0.0340807
320000 0.0333008
350000 0.0321310
370000 0.0315389
400000 0.0306507
420000 0.0303111
450000 0.0298018
470000 0.0294622
500000 0.0289528
517997 0.0289298
517997 0.0289298
520000 0.0289273
550000 0.0288890
570000 0.0288635
600000 0.0288252
620000 0.0289920
643500 0.0291879
643500 0.0291879
650000 0.0292421
670000 0.0294089
700000 0.0296590
800000 0.0312571
873374 0.0358240
900000 0.0374813
918758 0.0374333
918758 0.0374333
950000 0.0373534
951966 0.0373483
951967 0.0373483
980000 0.0372766
994634 0.0372391
1.00000E+06 0.0372254
1.01134E+06 0.0367897
1.02000E+06 0.0364568
1.02241E+06 0.0363642
1.02241E+06 0.0363642
1.04000E+06 0.0356882
1.06000E+06 0.0349196
1.06421E+06 0.0347578
1.06421E+06 0.0347578
1.07717E+06 0.0342598
1.07717E+06 0.0342597
1.08000E+06 0.0341510
1.10000E+06 0.0333825
1.12000E+06 0.0326139
1.14000E+06 0.0318453
1.15502E+06 0.0312681
1.16000E+06 0.0310767
1.18000E+06 0.0303081
1.20000E+06 0.0295395
1.20021E+06 0.0295341
1.20021E+06 0.0295340
1.22000E+06 0.0290225
1.23200E+06 0.0287123
1.23200E+06 0.0287122
1.24000E+06 0.0285054
1.26000E+06 0.0279884
1.26902E+06 0.0277552
1.26903E+06 0.0277551
1.28000E+06 0.0274714
1.29824E+06 0.0269999
1.29824E+06 0.0269998
1.30000E+06 0.0269543
1.30374E+06 0.0268577
1.30374E+06 0.0268576
1.30890E+06 0.0267243
1.30891E+06 0.0267241
1.32000E+06 0.0264373
1.33409E+06 0.0260731
1.33409E+06 0.0260730
1.33951E+06 0.0259330
1.33951E+06 0.0259329
1.34000E+06 0.0259203
1.35961E+06 0.0254133
1.35961E+06 0.0254133
1.36000E+06 0.0254032
1.38000E+06 0.0248862
1.38575E+06 0.0247377
1.38575E+06 0.0247376
1.38826E+06 0.0246727
1.38826E+06 0.0246726
1.39740E+06 0.0244364
1.39740E+06 0.0244364
1.40000E+06 0.0243692
1.40158E+06 0.0243283
1.40159E+06 0.0243282
1.42000E+06 0.0238521
1.43687E+06 0.0234161
1.43687E+06 0.0234160
1.44000E+06 0.0233351
1.44505E+06 0.0232046
1.44505E+06 0.0232046
1.46000E+06 0.0228181
1.46951E+06 0.0225722
1.46951E+06 0.0225722
1.48000E+06 0.0223010
1.50000E+06 0.0217840
1.52000E+06 0.0215660
1.54000E+06 0.0213480
1.56000E+06 0.0211301
1.58000E+06 0.0209121
1.60000E+06 0.0206941
1.70000E+06 0.0196042
1.80000E+06 0.0186241
1.90000E+06 0.0176439
2.00000E+06 0.0166638
2.20000E+06 0.0145094
2.40000E+06 0.0125473
2.50000E+06 0.0115663
2.60000E+06 0.0108221
2.80000E+06 0.00933355
3.00000E+06 0.00784505
3.20000E+06 0.00686000
3.34698E+06 0.00620447
3.70000E+06 0.00463000
4.00000E+06 0.00365000
4.50000E+06 0.00253000
5.00000E+06 0.00175000
5.50000E+06 0.000711839
6.00000E+06 0.000542896
6.50000E+06 0.000446286
7.00000E+06 0.000420778
7.49799E+06 0.000432575
7.49800E+06 0.000432576
7.50000E+06 0.000432623
7.80000E+06 0.000459004
8.00000E+06 0.000476591
8.29901E+06 0.000503881
8.50000E+06 0.000522225
9.00000E+06 0.000580794
9.24192E+06 0.000610233
9.50000E+06 0.000641637
1.00000E+07 0.000697255
1.05000E+07 0.000784513
1.10000E+07 0.000876478
1.15000E+07 0.000966356
1.20000E+07 0.00101000
1.25000E+07 0.00102000
1.30000E+07 0.00102000
1.34785E+07 0.00101043
1.34785E+07 0.00101043
1.35000E+07 0.00101000
1.39000E+07 0.000983452
1.40000E+07 0.000972776
1.45000E+07 0.000919398
1.50000E+07 0.000858722
1.54000E+07 0.000810182
1.60000E+07 0.000677676
1.61985E+07 0.000638965
1.65000E+07 0.000580168
1.70000E+07 0.000495297
1.80000E+07 0.000362937
1.82000E+07 0.000336465
1.89000E+07 0.000257714
1.90000E+07 0.000250928
1.91000E+07 0.000244393
1.92000E+07 0.000238960
2.00000E+07 0.000181812