Gd-158(n,g) ENDF/B-VII.1
Energy(eV) XS(b)
1.00000E-05 110.658
1.25000E-05 98.9759
1.50000E-05 90.3522
2.00000E-05 78.2473
2.75000E-05 66.7296
3.50000E-05 59.1495
4.25000E-05 53.6773
5.00000E-05 49.4880
6.25000E-05 44.2634
7.50000E-05 40.4068
0.000100000 34.9934
0.000125000 31.2991
0.000150000 28.5720
0.000200000 24.7441
0.000275000 21.1019
0.000350000 18.7049
0.000425000 16.9745
0.000500000 15.6497
0.000625000 13.9976
0.000750000 12.7781
0.00100000 11.0662
0.00125000 9.89803
0.00150000 9.03571
0.00200000 7.82529
0.00275000 6.67361
0.00350000 5.91569
0.00425000 5.36854
0.00500000 4.94969
0.00625000 4.42733
0.00750000 4.04177
0.0100000 3.50059
0.0125000 3.13130
0.0150000 2.85874
0.0200000 2.47619
0.0253000 2.20202
0.0314750 1.97468
0.0376500 1.80590
0.0500000 1.56778
0.0625000 1.40291
0.0750000 1.28126
0.100000 1.11062
0.125000 0.994276
0.150000 0.908483
0.200000 0.788228
0.275000 0.674092
0.350000 0.599217
0.500000 0.504244
0.750000 0.415814
1.00000 0.363826
1.50000 0.303579
2.00000 0.269097
2.75000 0.238377
3.50000 0.220355
5.00000 0.203135
7.50000 0.203998
10.0000 0.233576
12.5000 0.305321
13.7500 0.370699
15.0000 0.473946
16.2500 0.648173
17.5000 0.974380
18.1250 1.25612
18.7500 1.69722
19.3750 2.44615
20.0000 3.87672
20.2811 4.98779
20.5622 6.67493
20.8432 9.42069
21.1243 14.3439
21.2648 18.4244
21.4054 24.5578
21.5459 34.3956
21.6865 51.6532
21.7216 58.0193
21.7567 65.6402
21.7743 70.0290
21.7919 74.8737
21.8094 80.2396
21.8270 86.2005
21.8446 92.8552
21.8621 100.311
21.8797 108.701
21.8973 118.182
21.9148 128.963
21.9324 141.284
21.9675 171.843
22.0027 213.436
22.0378 271.979
22.0729 357.963
22.1081 491.024
22.1432 711.458
22.1608 879.111
22.1783 1109.55
22.1959 1435.53
22.2135 1909.14
22.2310 2613.17
22.2486 3656.97
22.2743 5847.77
22.3000 7305.48
22.3257 5841.00
22.3514 3648.52
22.3784 2191.89
22.4054 1400.07
22.4324 953.882
22.4594 685.568
22.4864 514.066
22.5134 398.665
22.5674 258.767
22.6214 180.898
22.6754 133.335
22.7834 80.8213
22.8914 54.0772
22.9994 38.6644
23.1074 28.9895
23.2154 22.5255
23.4314 14.7012
23.6474 10.3312
23.8634 7.64742
24.0794 5.88352
24.5115 3.78448
24.9435 2.63248
25.3755 1.93398
25.8075 1.47936
26.6715 0.944147
27.5355 0.653847
28.3995 0.479417
29.2636 0.366716
30.9916 0.235123
32.7196 0.164378
34.4477 0.122135
36.1757 0.0949535
39.6318 0.0633015
43.0879 0.0462731
50.0000 0.0294281
56.2500 0.0221649
62.5000 0.0180126
75.0000 0.0139039
87.5000 0.0136758
90.6250 0.0151630
93.7500 0.0195221
95.3125 0.0249996
96.8750 0.0377810
97.6563 0.0516482
98.4375 0.0794596
98.8281 0.105266
99.2188 0.148737
99.6094 0.230630
99.8047 0.301906
100.000 0.414312
100.132 0.531603
100.264 0.708482
100.396 0.993334
100.528 1.49573
100.594 1.90492
100.660 2.50917
100.726 3.45472
100.792 5.05442
100.858 8.07680
100.891 10.7049
100.924 14.8264
100.957 21.7791
100.990 34.6880
101.007 45.5505
101.023 61.7577
101.040 86.6169
101.056 124.804
101.067 159.310
101.078 198.517
101.100 247.179
101.122 198.482
101.144 124.756
101.168 73.6179
101.192 46.4773
101.217 31.3697
101.241 22.4298
101.265 16.7399
101.289 12.9512
101.337 8.38251
101.385 5.84827
101.434 4.30665
101.530 2.61187
101.627 1.75027
101.723 1.25490
101.820 0.943831
101.916 0.736270
102.110 0.484848
102.303 0.344310
102.496 0.257909
102.689 0.201064
103.075 0.133228
103.461 0.0958763
103.847 0.0731371
104.233 0.0582826
105.006 0.0406903
105.778 0.0310653
107.323 0.0214234
108.867 0.0169165
110.412 0.0144426
113.501 0.0119396
119.680 0.0100816
125.858 0.00941009
150.572 0.00923397
175.286 0.0110462
187.643 0.0131818
200.000 0.0173361
210.655 0.0251073
215.982 0.0326928
221.310 0.0463649
223.973 0.0578253
226.637 0.0753098
229.301 0.104024
231.964 0.156347
233.296 0.200494
234.628 0.268078
235.960 0.379328
237.292 0.582117
237.958 0.753021
238.624 1.01406
239.290 1.44206
239.955 2.21724
240.288 2.86596
240.621 3.84949
240.954 5.44630
241.121 6.64726
241.162 7.00955
241.204 7.40235
241.246 7.82917
241.287 8.29406
241.329 8.80294
241.371 9.35879
241.412 9.96904
241.454 10.6410
241.495 11.3853
241.537 12.2083
241.620 14.1466
241.704 16.5890
241.787 19.7181
241.870 23.8220
241.953 29.3500
242.036 37.0534
242.120 48.2029
242.203 65.2322
242.286 92.9842
242.328 113.959
242.369 142.668
242.411 183.412
242.453 243.674
242.494 337.342
242.536 491.702
242.577 762.120
242.619 1250.71
242.660 1994.42
242.700 2490.71
242.741 1990.71
242.782 1240.01
242.816 828.331
242.849 573.190
242.883 413.463
242.916 309.927
242.983 190.352
243.051 127.789
243.118 91.3443
243.185 68.4422
243.319 42.4202
243.453 28.7955
243.588 20.8090
243.722 15.7285
243.856 12.3043
244.125 8.11585
244.393 5.75129
244.662 4.28763
244.930 3.31943
245.467 2.15890
246.004 1.51658
246.541 1.12441
247.078 0.867649
248.152 0.563074
249.226 0.396403
250.300 0.295521
251.374 0.229989
253.522 0.153177
255.670 0.112081
257.817 0.0881739
259.965 0.0738260
264.261 0.0622534
266.409 0.0639242
268.557 0.0731811
270.705 0.0989149
271.779 0.126506
272.853 0.178162
273.390 0.222233
273.927 0.289996
274.464 0.401728
275.001 0.605173
275.269 0.776177
275.538 1.03652
275.806 1.46118
276.075 2.22407
276.209 2.85727
276.343 3.80865
276.477 5.33572
276.612 8.01076
276.746 13.3589
276.813 18.2927
276.847 21.8537
276.880 26.5408
276.897 29.4755
276.914 32.9200
276.931 36.9981
276.947 41.8411
276.964 47.7237
276.981 54.9151
276.998 63.8247
277.014 74.9547
277.031 89.2653
277.048 107.921
277.065 132.767
277.081 166.421
277.098 213.739
277.115 281.616
277.132 380.816
277.149 524.287
277.174 839.582
277.200 1049.23
277.213 987.600
277.226 839.186
277.252 524.959
277.268 382.688
277.285 284.336
277.317 169.398
277.350 110.286
277.383 76.8699
277.416 56.3592
277.449 43.0269
277.515 27.3484
277.581 18.8623
277.647 13.7862
277.778 8.27398
277.910 5.51101
278.042 3.93374
278.173 2.94985
278.305 2.29570
278.568 1.50631
278.832 1.06678
279.095 0.797247
279.359 0.620205
279.885 0.409300
280.412 0.293312
280.939 0.222747
281.466 0.176654
282.519 0.122067
283.573 0.0922039
285.680 0.0623557
287.787 0.0485736
289.894 0.0412481
294.107 0.0346522
302.535 0.0333997
310.963 0.0403868
319.391 0.0591790
323.605 0.0785239
327.819 0.113988
329.926 0.143927
332.033 0.189736
334.140 0.265071
336.247 0.402272
337.301 0.517825
338.354 0.694294
339.408 0.983602
340.461 1.50761
340.988 1.94619
341.120 2.08618
341.251 2.24199
341.383 2.41611
341.515 2.61136
341.646 2.83166
341.778 3.08129
341.910 3.36568
342.041 3.69162
342.173 4.06760
342.305 4.50440
342.437 5.01591
342.568 5.61964
342.700 6.34033
342.832 7.20956
342.963 8.27106
343.095 9.58594
343.227 11.2416
343.358 13.3665
343.490 16.1556
343.622 19.9133
343.753 25.1523
343.885 32.7551
344.017 44.3754
344.148 63.3693
344.280 97.4908
344.346 125.652
344.412 167.429
344.478 232.885
344.543 341.571
344.609 534.453
344.675 889.401
344.738 1424.25
344.800 1786.85
344.863 1434.73
344.925 897.464
344.988 552.038
345.050 358.589
345.113 247.157
345.175 179.102
345.238 135.117
345.300 105.278
345.425 68.8016
345.550 48.3301
345.675 35.7552
345.925 21.7990
346.175 14.6495
346.425 10.5144
346.675 7.90993
346.925 6.16628
347.425 4.04888
347.925 2.86241
348.425 2.13165
348.924 1.65006
349.924 1.07504
350.924 0.758178
351.924 0.565380
352.924 0.439538
354.923 0.291004
356.923 0.210422
358.923 0.162266
360.922 0.131585
364.922 0.0973473
368.921 0.0815880
376.920 0.0767817
380.919 0.0844927
384.918 0.100784
388.918 0.131137
392.917 0.189534
394.917 0.239707
396.916 0.316991
398.916 0.444516
400.915 0.676778
401.915 0.871987
402.915 1.16915
403.415 1.37970
403.665 1.50739
403.915 1.65388
404.165 1.82319
404.415 2.02015
404.665 2.25132
404.915 2.52488
405.040 2.68097
405.165 2.85212
405.415 3.24790
405.665 3.73278
405.915 4.33536
406.165 5.09766
406.415 6.08062
406.665 7.37939
406.914 9.14337
407.164 11.6260
407.414 15.2727
407.664 20.9438
407.914 30.4441
408.039 37.7999
408.164 48.1429
408.289 63.3028
408.414 86.6883
408.539 125.301
408.664 194.668
408.727 251.143
408.789 332.826
408.852 453.448
408.914 630.926
409.007 1010.25
409.100 1267.09
409.193 1017.12
409.286 636.190
409.375 400.006
409.463 264.094
409.552 184.107
409.640 134.493
409.729 102.065
409.818 79.8806
409.995 52.5295
410.172 37.0506
410.349 27.4890
410.704 16.8207
411.058 11.3298
411.412 8.14389
411.767 6.13323
412.121 4.78488
412.830 3.14526
413.538 2.22481
414.247 1.65727
414.956 1.28291
416.373 0.835513
417.791 0.588629
419.208 0.438213
420.625 0.339885
423.460 0.223507
426.295 0.160005
429.130 0.121725
431.965 0.0970045
437.634 0.0684786
443.304 0.0539180
454.643 0.0431502
465.982 0.0468669
471.652 0.0551824
477.322 0.0716948
482.991 0.105826
485.826 0.137183
488.661 0.188789
491.496 0.282178
492.913 0.360069
494.330 0.477732
495.748 0.667622
497.165 1.00360
497.874 1.27820
498.228 1.46053
498.583 1.68528
498.760 1.81787
498.937 1.96688
499.114 2.13515
499.291 2.32602
499.469 2.54399
499.646 2.79430
499.823 3.08366
500.000 3.42043
500.195 3.85854
500.389 4.38687
500.584 5.03196
500.778 5.83042
500.973 6.83603
501.167 8.12551
501.362 9.81825
501.557 12.0984
501.751 15.2749
501.946 19.8813
502.140 26.9145
502.335 38.3980
502.529 58.9793
502.627 75.9120
502.724 100.983
502.821 140.110
502.919 204.887
503.016 319.149
503.113 527.350
503.207 843.083
503.300 1056.38
503.394 848.936
503.487 531.864
503.570 345.040
503.653 233.340
503.736 165.406
503.819 122.333
503.985 73.8172
504.151 49.0113
504.317 34.7900
504.482 25.9281
504.814 15.9594
505.146 10.7891
505.478 7.77447
505.809 5.86540
506.141 4.58200
506.805 3.01732
507.468 2.13668
508.132 1.59270
508.795 1.23341
510.122 0.803400
511.449 0.565757
512.776 0.420799
514.103 0.325938
516.757 0.213487
519.411 0.151964
522.065 0.114727
524.719 0.0905314
530.027 0.0621704
535.335 0.0470182
545.951 0.0330832
556.567 0.0293519
561.875 0.0305018
567.183 0.0348350
572.492 0.0461618
575.146 0.0580960
577.800 0.0803070
579.127 0.0992181
580.454 0.128293
581.781 0.176291
583.108 0.263961
583.771 0.337900
584.435 0.450888
585.098 0.636172
585.762 0.971691
586.093 1.25237
586.425 1.67770
586.757 2.36770
587.089 3.59674
587.254 4.60831
587.420 6.11722
587.503 7.16721
587.545 7.79666
587.586 8.51095
587.628 9.33014
587.669 10.2710
587.711 11.3642
587.752 12.6379
587.794 14.1416
587.835 15.9295
587.877 18.0773
587.918 20.6810
587.959 23.8945
588.001 27.9123
588.042 33.0232
588.084 39.6382
588.125 48.4454
588.167 60.4755
588.208 77.4600
588.250 102.335
588.291 140.716
588.333 202.966
588.374 310.295
588.416 499.433
588.458 799.899
588.500 1001.65
588.542 802.747
588.585 502.223
588.610 373.145
588.635 281.759
588.686 171.713
588.737 113.332
588.788 79.7636
588.838 58.8982
588.889 45.1873
588.990 28.9126
589.092 20.0282
589.193 14.6792
589.396 8.84066
589.599 5.89934
589.802 4.21489
590.005 3.16184
590.208 2.46016
590.614 1.61263
591.020 1.14013
591.425 0.850081
591.831 0.659370
592.643 0.432142
593.454 0.307151
594.266 0.231142
595.078 0.181529
596.701 0.122877
598.324 0.0909041
601.571 0.0591637
604.818 0.0446915
608.064 0.0371134
614.557 0.0304489
627.544 0.0293468
640.530 0.0363534
653.516 0.0549804
660.009 0.0741606
666.502 0.109329
669.749 0.138981
672.996 0.184245
676.242 0.258362
679.489 0.392336
680.300 0.442911
681.112 0.504237
681.518 0.539924
681.924 0.579616
682.330 0.623947
682.735 0.673669
683.141 0.729709
683.547 0.793152
683.953 0.865380
684.359 0.948092
684.765 1.04345
685.170 1.15410
685.576 1.28353
685.982 1.43626
686.794 1.83738
687.605 2.43483
688.417 3.38107
688.823 4.07608
689.229 5.00961
689.634 6.30440
690.040 8.17131
690.446 11.0011
690.852 15.5775
691.258 23.6539
691.461 30.1978
691.663 39.7549
691.866 54.3633
692.069 77.8939
692.272 117.859
692.475 187.415
692.688 300.314
692.900 377.848
693.113 304.268
693.325 190.460
693.475 134.669
693.624 97.5001
693.774 72.7651
693.923 55.9126
694.222 35.5406
694.521 24.3861
694.820 17.6980
695.119 13.4009
695.717 8.42390
696.315 5.77139
696.913 4.19718
697.511 3.18830
698.109 2.50373
699.304 1.66158
700.500 1.18335
701.696 0.886154
702.892 0.689037
705.284 0.452140
707.676 0.320764
710.067 0.240495
712.459 0.187961
717.243 0.125819
722.026 0.0920776
726.810 0.0719569
731.593 0.0592077
741.160 0.0452349
750.727 0.0392338
769.861 0.0393741
779.428 0.0444635
788.995 0.0541105
798.562 0.0713746
808.129 0.103852
812.913 0.131398
817.696 0.173437
822.480 0.242048
824.871 0.293873
826.067 0.326562
826.665 0.345067
827.263 0.365244
827.861 0.387306
828.459 0.411485
829.057 0.438072
829.655 0.467386
830.253 0.499825
830.851 0.535837
831.449 0.575972
832.047 0.620886
833.242 0.728386
834.438 0.866976
835.634 1.04990
836.830 1.29823
838.026 1.64732
839.222 2.15977
840.418 2.95536
841.614 4.28631
842.212 5.31496
842.809 6.75888
843.407 8.87151
844.005 12.1247
844.603 17.4749
845.201 27.0355
845.500 34.7811
845.799 45.9277
846.098 62.3001
846.397 86.2808
846.849 138.122
847.300 173.395
847.752 139.386
848.203 87.2347
848.532 60.9584
848.861 43.7157
849.190 32.3846
849.519 24.7457
850.177 15.6078
850.835 10.6554
851.493 7.70768
852.150 5.82297
853.466 3.65026
854.782 2.49781
856.098 1.81605
857.413 1.38030
858.729 1.08544
861.361 0.724645
863.992 0.523903
866.624 0.419387
867.282 0.417912
867.940 0.458996
868.269 0.533956
868.433 0.612081
868.597 0.754820
868.762 1.05176
868.844 1.33465
868.926 1.82227
869.009 2.76939
869.050 3.61430
869.091 4.97603
869.132 7.36564
869.173 12.0838
869.194 16.3314
869.214 23.0613
869.235 34.3628
869.255 53.5125
869.278 85.4380
869.300 106.723
869.322 85.4388
869.345 53.5127
869.368 32.5132
869.391 20.9901
869.414 14.4523
869.438 10.5013
869.461 7.96659
869.484 6.25622
869.530 4.17965
869.577 3.01669
869.623 2.30447
869.716 1.51599
869.809 1.11184
869.901 0.877727
870.087 0.629770
870.272 0.507044
870.458 0.436529
870.829 0.360749
871.571 0.295977
872.313 0.264607
875.280 0.204001
881.216 0.147966
887.151 0.122895
893.087 0.118338
899.022 0.140353
901.990 0.171180
904.958 0.232623
906.442 0.286105
907.925 0.368779
909.409 0.505048
910.893 0.751610
911.635 0.957002
912.377 1.26656
912.748 1.48384
912.934 1.61480
913.119 1.76431
913.304 1.93624
913.490 2.13518
913.675 2.36709
913.861 2.63948
914.046 2.96268
914.232 3.34991
914.417 3.81919
914.603 4.39534
914.788 5.11326
914.974 6.02329
915.159 7.20007
915.345 8.75704
915.530 10.8780
915.716 13.8662
915.901 18.2570
916.087 25.0550
916.272 36.3292
916.365 44.9151
916.458 56.7176
916.550 73.4334
916.643 97.7213
916.736 133.810
916.829 187.320
916.964 299.362
917.100 372.370
917.236 296.459
917.372 185.100
917.533 104.572
917.694 64.0214
917.856 42.4233
918.017 29.9249
918.179 22.1475
918.340 17.0145
918.663 10.9114
918.985 7.57459
919.308 5.56067
919.954 3.36098
920.599 2.25105
921.245 1.61484
921.890 1.21674
922.536 0.951243
923.827 0.630181
925.118 0.450765
926.409 0.340354
927.700 0.267543
930.282 0.180321
932.864 0.131873
938.029 0.0823114
943.193 0.0584075
948.357 0.0448578
958.686 0.0305514
969.014 0.0233903
979.343 0.0193024
1000.00 0.0155265
1016.96 0.0154063
1025.44 0.0166874
1033.92 0.0197867
1042.39 0.0271948
1046.63 0.0348468
1050.87 0.0489994
1052.99 0.0610203
1055.11 0.0794744
1057.23 0.109892
1059.35 0.165303
1060.41 0.211959
1061.47 0.283115
1062.53 0.399487
1063.59 0.609112
1064.12 0.783840
1064.65 1.04762
1064.92 1.23309
1065.18 1.47301
1065.45 1.79095
1065.58 1.99100
1065.71 2.22474
1065.84 2.50463
1065.98 2.83819
1066.11 3.24660
1066.24 3.74576
1066.37 4.37478
1066.51 5.16951
1066.64 6.21044
1066.77 7.58682
1066.90 9.49038
1067.04 12.1791
1067.17 16.2142
1067.30 22.5330
1067.43 33.3729
1067.50 41.7814
1067.57 53.6219
1067.63 70.8734
1067.70 96.9363
1067.76 137.580
1067.83 201.323
1067.92 322.279
1068.00 403.728
1068.09 323.692
1068.17 202.416
1068.24 132.270
1068.32 89.9366
1068.39 64.0359
1068.47 47.5014
1068.61 28.7866
1068.76 19.2138
1068.91 13.6599
1069.06 10.1922
1069.35 6.29265
1069.65 4.25855
1069.94 3.07440
1070.24 2.32332
1070.53 1.81752
1071.12 1.19928
1071.72 0.851051
1072.31 0.635829
1072.90 0.493812
1074.08 0.323425
1075.26 0.229277
1076.44 0.171768
1077.62 0.134150
1079.99 0.0895166
1082.35 0.0650865
1084.71 0.0502971
1087.07 0.0406895
1091.80 0.0294187
1096.52 0.0233825
1105.98 0.0176878
1115.43 0.0155435
1124.88 0.0150087
1143.78 0.0169490
1162.68 0.0238501
1172.13 0.0311933
1181.59 0.0447267
1186.31 0.0561461
1191.04 0.0735777
1195.76 0.102129
1200.49 0.153788
1202.85 0.197024
1205.21 0.262640
1207.58 0.369293
1208.76 0.449601
1209.94 0.559967
1210.53 0.631410
1211.12 0.717670
1211.71 0.823146
1212.01 0.884813
1212.30 0.953747
1212.60 1.03141
1212.89 1.11873
1213.19 1.21807
1213.48 1.33093
1214.08 1.61018
1214.67 1.98718
1215.26 2.51533
1215.85 3.28578
1216.44 4.47160
1217.03 6.42668
1217.32 7.92355
1217.62 9.99332
1217.91 12.9728
1218.21 17.4630
1218.51 24.6556
1218.80 36.9201
1219.10 59.5733
1219.24 78.0316
1219.39 103.485
1219.65 164.803
1219.90 206.223
1220.16 166.448
1220.41 104.769
1220.70 60.7624
1220.99 37.8694
1221.28 25.3745
1221.57 18.0293
1221.86 13.4098
1222.15 10.3383
1222.72 6.65907
1223.30 4.63202
1223.88 3.40587
1225.04 2.06120
1226.19 1.38011
1227.35 0.989395
1228.51 0.744540
1229.66 0.581394
1231.98 0.384230
1234.29 0.274418
1236.60 0.207235
1238.91 0.163342
1243.54 0.111837
1248.16 0.0847433
1252.79 0.0698358
1257.42 0.0622131
1266.67 0.0630247
1271.29 0.0731763
1275.92 0.0961130
1278.23 0.116801
1280.54 0.149231
1282.86 0.203262
1285.17 0.301998
1286.33 0.385027
1287.48 0.511086
1288.64 0.716166
1289.79 1.08209
1290.37 1.38434
1290.66 1.58579
1290.95 1.83525
1291.24 2.14925
1291.53 2.55205
1291.67 2.79847
1291.82 3.08046
1291.96 3.40991
1292.11 3.79244
1292.40 4.78351
1292.69 6.21991
1292.97 8.41151
1293.12 9.97170
1293.26 11.9885
1293.41 14.6966
1293.55 18.3869
1293.70 23.6646
1293.84 31.4223
1293.99 43.5810
1294.13 63.5123
1294.28 98.7795
1294.42 162.331
1294.56 260.143
1294.70 325.046
1294.84 259.943
1294.98 162.739
1295.09 110.845
1295.20 77.8754
1295.31 56.8087
1295.42 42.9057
1295.64 26.6385
1295.86 18.0066
1296.08 12.9386
1296.30 9.72847
1296.74 6.06586
1297.18 4.13331
1297.62 2.99777
1298.06 2.27225
1298.50 1.78301
1299.38 1.18272
1300.26 0.843064
1301.14 0.632467
1302.01 0.492973
1303.77 0.325438
1305.53 0.232606
1307.29 0.175833
1309.05 0.138608
1312.56 0.0943991
1316.08 0.0702327
1323.11 0.0464292
1330.15 0.0364193
1337.18 0.0337817
1340.70 0.0362624
1344.21 0.0469229
1345.97 0.0629277
1346.85 0.0791552
1347.73 0.108953
1348.61 0.172685
1349.05 0.236034
1349.49 0.350558
1349.71 0.446589
1349.93 0.592264
1350.15 0.828730
1350.37 1.24795
1350.48 1.59425
1350.59 2.11108
1350.70 2.93148
1350.81 4.34825
1350.92 7.11171
1350.97 9.59749
1351.03 13.6379
1351.05 16.7362
1351.08 20.8193
1351.09 23.5366
1351.11 26.8062
1351.12 30.7826
1351.14 35.2901
1351.15 41.2901
1351.16 48.8636
1351.18 58.5631
1351.19 70.1537
1351.20 86.4476
1351.22 106.389
1351.23 134.841
1351.24 169.456
1351.26 216.368
1351.27 269.735
1351.30 336.260
1351.31 316.967
1351.33 270.192
1351.36 169.814
1351.38 121.878
1351.39 89.3405
1351.43 52.7982
1351.47 34.2092
1351.51 23.7728
1351.54 17.4111
1351.58 13.2740
1351.65 8.42445
1351.73 5.81048
1351.80 4.24701
1351.95 2.55324
1352.10 1.70112
1352.25 1.21911
1352.39 0.918423
1352.54 0.718380
1352.84 0.476582
1353.14 0.342502
1353.43 0.260252
1353.73 0.206196
1354.32 0.141744
1354.91 0.106330
1356.10 0.0708051
1357.28 0.0542426
1358.47 0.0452643
1360.84 0.0364864
1365.58 0.0309566
1370.32 0.0302332
1379.80 0.0339742
1389.29 0.0436881
1398.77 0.0646875
1403.51 0.0847914
1408.25 0.119998
1412.99 0.191749
1415.36 0.260678
1417.73 0.382746
1418.92 0.483386
1419.51 0.550708
1420.11 0.634156
1420.70 0.739782
1420.99 0.803283
1421.29 0.875788
1421.59 0.959400
1421.88 1.05583
1422.18 1.16826
1422.48 1.30042
1422.77 1.45784
1423.07 1.64603
1423.37 1.87523
1423.66 2.15624
1423.96 2.50849
1424.25 2.95493
1424.55 3.53431
1424.85 4.30488
1425.14 5.36455
1425.44 6.86505
1425.74 9.09355
1426.03 12.5977
1426.33 18.5605
1426.48 23.1876
1426.62 29.6876
1426.77 39.1307
1426.92 53.3487
1427.07 75.4405
1427.22 109.998
1427.41 176.472
1427.60 223.249
1427.79 180.810
1427.98 113.378
1428.10 83.4651
1428.22 62.6481
1428.46 37.8109
1428.69 24.8248
1428.93 17.4082
1429.17 12.8364
1429.40 9.84023
1429.87 6.30259
1430.35 4.38356
1430.82 3.23176
1431.76 1.98191
1432.71 1.35710
1433.65 1.00396
1435.54 0.646466
1437.43 0.487891
1439.32 0.416260
1443.09 0.406566
1444.98 0.455724
1446.87 0.552087
1448.76 0.725211
1449.70 0.859712
1450.65 1.04622
1451.12 1.16737
1451.59 1.31322
1451.83 1.39762
1452.06 1.49111
1452.30 1.59499
1452.54 1.71084
1452.77 1.84054
1453.01 1.98634
1453.24 2.15097
1453.48 2.33778
1453.95 2.79540
1454.42 3.40602
1454.90 4.24729
1455.37 5.44410
1455.84 7.22895
1456.31 10.0500
1456.55 12.1118
1456.78 14.8612
1457.02 18.6265
1457.26 23.9438
1457.49 31.7177
1457.73 43.5099
1457.96 61.9798
1458.20 91.0364
1458.50 145.021
1458.80 179.847
1459.10 143.254
1459.40 89.6335
1459.64 60.2990
1459.89 41.9606
1460.13 30.3970
1460.38 22.8669
1460.86 14.1017
1461.35 9.50248
1461.84 6.81188
1462.33 5.11771
1463.30 3.18608
1464.28 2.17293
1465.25 1.57738
1466.23 1.19813
1467.20 0.942101
1469.15 0.627889
1471.10 0.449897
1473.05 0.339193
1475.00 0.265667
1478.90 0.176885
1482.80 0.127261
1486.70 0.0966550
1490.59 0.0764230
1498.39 0.0521638
1506.19 0.0387976
1521.79 0.0259032
1537.38 0.0218407
1545.18 0.0224582
1552.98 0.0258839
1560.78 0.0354908
1564.68 0.0458321
1568.58 0.0652259
1570.53 0.0817803
1572.48 0.107210
1574.43 0.149120
1576.38 0.225256
1577.35 0.289132
1578.33 0.386163
1579.30 0.543934
1580.28 0.825636
1580.76 1.05865
1581.25 1.40659
1581.49 1.64972
1581.74 1.96207
1581.98 2.37260
1582.10 2.62801
1582.23 2.92435
1582.35 3.27690
1582.47 3.69715
1582.59 4.20352
1582.71 4.82110
1582.84 5.58473
1582.96 6.54392
1583.08 7.77088
1583.20 9.35887
1583.32 11.5009
1583.44 14.4560
1583.57 18.6816
1583.69 24.9290
1583.81 34.8298
1583.93 51.4379
1584.05 81.2688
1584.11 104.851
1584.17 136.313
1584.29 217.730
1584.40 271.569
1584.51 217.169
1584.63 135.866
1584.70 97.6141
1584.78 71.6447
1584.85 54.0536
1584.93 41.8911
1585.08 26.9541
1585.23 18.6837
1585.39 13.6324
1585.54 10.3632
1585.84 6.55803
1586.14 4.50794
1586.45 3.28904
1586.75 2.50244
1587.05 1.96904
1587.66 1.30975
1588.27 0.934210
1588.88 0.700301
1589.48 0.545065
1590.70 0.357728
1591.91 0.253585
1593.12 0.189688
1594.34 0.147742
1596.76 0.0977556
1599.19 0.0702353
1601.62 0.0534702
1604.04 0.0424947
1608.90 0.0294474
1613.75 0.0222587
1623.46 0.0149813
1633.17 0.0115472
1642.88 0.00968393
1662.29 0.00801185
1681.71 0.00776076
1701.12 0.00872838
1720.54 0.0119904
1730.25 0.0161821
1735.10 0.0219290
1737.53 0.0354929
1738.14 0.0479547
1738.74 0.0817110
1739.05 0.126965
1739.35 0.248307
1739.50 0.406584
1739.65 0.806937
1739.73 1.29408
1739.77 1.72522
1739.80 2.41403
1739.84 3.60761
1739.88 5.91753
1739.90 7.94661
1739.92 11.1052
1739.94 16.2207
1739.96 24.2061
1739.98 38.9471
1740.00 48.3670
1740.02 38.9476
1740.04 24.2068
1740.06 16.5679
1740.08 11.7554
1740.10 8.49741
1740.11 6.47017
1740.15 4.01765
1740.18 2.71894
1740.22 1.95761
1740.25 1.47594
1740.32 0.931676
1740.46 0.469302
1740.60 0.287885
1740.88 0.147074
1741.16 0.0949805
1741.72 0.0565299
1742.27 0.0430690
1744.50 0.0320805
1748.96 0.0367564
1753.41 0.0496780
1757.87 0.0742140
1760.10 0.0950234
1762.33 0.126829
1764.56 0.178963
1766.78 0.273260
1767.90 0.352115
1769.01 0.471413
1770.13 0.664566
1771.24 1.00789
1771.80 1.28971
1772.08 1.47767
1772.35 1.70907
1772.63 2.00062
1772.91 2.37215
1773.19 2.85950
1773.33 3.16023
1773.47 3.51086
1773.61 3.92624
1773.75 4.41572
1774.03 5.71294
1774.30 7.68026
1774.44 9.05797
1774.58 10.8362
1774.72 13.2027
1774.86 16.3895
1775.00 20.8434
1775.14 27.3001
1775.28 37.1597
1775.42 52.7443
1775.56 78.7369
1775.70 122.929
1775.85 196.831
1776.00 246.807
1776.15 198.065
1776.30 123.886
1776.40 90.1277
1776.50 67.0363
1776.69 39.8451
1776.89 25.8992
1777.08 18.0623
1777.28 13.2403
1777.47 10.1121
1777.86 6.42386
1778.25 4.43105
1778.64 3.23727
1779.42 1.94225
1780.20 1.29256
1780.97 0.922296
1781.75 0.691323
1782.53 0.537666
1784.09 0.352331
1785.64 0.249242
1787.20 0.186016
1788.76 0.144528
1791.87 0.0951791
1794.98 0.0681212
1798.10 0.0517463
1801.21 0.0411311
1807.43 0.0287923
1813.66 0.0223691
1826.11 0.0171066
1838.56 0.0172923
1844.79 0.0195538
1851.01 0.0245740
1857.24 0.0360384
1860.35 0.0476385
1863.47 0.0688656
1865.02 0.0867777
1866.58 0.114131
1868.14 0.159023
1869.69 0.240312
1870.47 0.308459
1871.25 0.411749
1872.03 0.579511
1872.81 0.879106
1873.19 1.12621
1873.58 1.49565
1873.78 1.75385
1873.97 2.08359
1874.17 2.51878
1874.36 3.10275
1874.56 3.92099
1874.65 4.45388
1874.75 5.10284
1874.85 5.91316
1874.95 6.91993
1875.04 8.20509
1875.14 9.88010
1875.24 12.1441
1875.33 15.2310
1875.43 19.6285
1875.53 26.1651
1875.63 36.5306
1875.72 53.6611
1875.82 84.1559
1875.87 108.379
1875.92 140.510
1876.01 225.552
1876.10 282.579
1876.19 226.586
1876.28 142.084
1876.35 98.6009
1876.42 70.3100
1876.49 51.8662
1876.55 39.6529
1876.69 24.8837
1876.83 16.9768
1876.96 12.2485
1877.10 9.25378
1877.37 5.79195
1877.64 3.95865
1877.91 2.87471
1878.18 2.18193
1878.45 1.71421
1878.99 1.13755
1879.53 0.810724
1880.08 0.607882
1880.62 0.473656
1881.70 0.312138
1882.78 0.222694
1883.87 0.168013
1884.95 0.132269
1887.12 0.0899911
1889.29 0.0670777
1893.62 0.0449075
1897.95 0.0357731
1902.29 0.0324196
1906.62 0.0337373
1908.79 0.0415240
1909.87 0.0690679
1910.14 0.0958455
1910.41 0.167296
1910.55 0.259707
1910.68 0.490108
1910.75 0.765893
1910.82 1.37080
1910.85 2.00108
1910.89 3.17430
1910.92 5.64486
1910.94 7.92364
1910.95 11.3381
1910.98 18.0314
1911.00 22.6561
1911.02 18.0317
1911.05 11.3384
1911.06 7.92398
1911.08 5.75341
1911.11 3.27252
1911.14 2.07682
1911.18 1.44347
1911.24 0.808070
1911.31 0.520366
1911.44 0.276138
1911.57 0.178314
1911.83 0.102134
1912.09 0.0737298
1913.13 0.0456540
1915.21 0.0406450
1919.37 0.0468798
1923.53 0.0608536
1927.69 0.0874181
1929.77 0.109936
1931.85 0.144281
1933.93 0.200333
1936.01 0.301054
1937.05 0.384655
1938.09 0.510455
1939.13 0.712489
1939.65 0.862919
1939.91 0.956961
1940.17 1.06747
1940.43 1.19853
1940.69 1.35554
1940.95 1.54583
1941.21 1.77945
1941.47 2.07060
1941.73 2.43971
1941.99 2.91713
1942.25 3.54938
1942.51 4.41065
1942.77 5.62482
1943.03 7.41053
1943.29 10.1807
1943.55 14.7823
1943.68 18.2920
1943.81 23.1318
1943.94 29.9982
1944.07 40.0244
1944.20 55.0057
1944.33 77.3875
1944.51 123.867
1944.70 155.556
1944.89 125.171
1945.07 78.4022
1945.25 49.4624
1945.43 32.8055
1945.60 22.9016
1945.78 16.7751
1946.13 9.98850
1946.49 6.58113
1946.84 4.64986
1947.19 3.45569
1947.90 2.12321
1948.60 1.43592
1949.31 1.03702
1950.02 0.785421
1950.72 0.616961
1952.13 0.412164
1953.54 0.297760
1954.96 0.227689
1956.37 0.182062
1959.19 0.129200
1962.01 0.102606
1967.66 0.0857749
1973.30 0.102197
1976.13 0.128549
1978.95 0.181107
1980.36 0.226585
1981.77 0.296398
1983.19 0.410673
1984.60 0.615223
1985.30 0.784071
1986.01 1.03629
1986.36 1.21184
1986.71 1.43690
1987.07 1.73191
1987.24 1.91446
1987.42 2.12767
1987.60 2.38030
1987.77 2.67903
1987.95 3.04004
1988.13 3.47646
1988.30 4.01718
1988.48 4.68962
1988.66 5.55025
1988.83 6.66140
1989.01 8.14703
1989.18 10.1662
1989.36 13.0359
1989.54 17.2315
1989.71 23.7395
1989.89 34.2853
1990.07 52.4427
1990.24 84.5253
1990.42 135.018
1990.60 168.208
1990.78 134.277
1990.96 83.9396
1991.10 56.9347
1991.24 39.9690
1991.38 29.0829
1991.52 21.9654
1991.81 13.6195
1992.09 9.21126
1992.37 6.61487
1992.65 4.97664
1993.22 3.10093
1993.78 2.11424
1994.35 1.53332
1994.91 1.16309
1995.48 0.912861
1996.61 0.606005
1997.74 0.432489
1998.87 0.324815
2000.00 0.253419
2001.77 0.182021
2003.53 0.137654
2007.06 0.0875799
2010.59 0.0613609
2014.12 0.0458721
2021.18 0.0291402
2028.24 0.0206908
2035.30 0.0157939
2042.36 0.0126882
2056.48 0.00911096
2070.60 0.00724470
2084.72 0.00628519
2098.83 0.00649467
2105.89 0.00980236
2107.66 0.0133948
2109.42 0.0236491
2110.31 0.0378747
2111.19 0.0777032
2111.63 0.132024
2112.07 0.280971
2112.29 0.479376
2112.40 0.668863
2112.51 0.998984
2112.62 1.66064
2112.68 2.26223
2112.73 3.25824
2112.79 5.07896
2112.82 6.64234
2112.84 8.92427
2112.87 12.7291
2112.90 19.0599
2112.93 31.4029
2112.94 41.6793
2112.95 55.9953
2112.98 89.7772
2113.00 112.053
2113.02 89.7779
2113.05 55.9964
2113.06 39.9788
2113.08 29.0803
2113.09 21.7850
2113.11 16.7899
2113.14 10.7192
2113.17 7.37615
2113.21 5.36501
2113.24 4.06933
2113.30 2.58105
2113.37 1.76985
2113.43 1.29406
2113.56 0.775178
2113.68 0.514721
2113.81 0.367868
2114.06 0.215547
2114.57 0.101372
2115.08 0.0600281
2116.10 0.0297351
2117.12 0.0189441
2121.19 0.00834409
2129.33 0.00559682
2145.60 0.00493745
2178.16 0.00559501
2194.44 0.00676114
2210.72 0.00962362
2218.86 0.0131427
2222.93 0.0164658
2227.00 0.0223424
2231.07 0.0346059
2233.10 0.0466742
2235.14 0.0685329
2236.15 0.0869144
2237.17 0.114924
2238.19 0.160847
2239.21 0.243883
2239.72 0.313404
2240.22 0.418847
2240.73 0.590020
2241.24 0.894668
2241.50 1.14665
2241.75 1.52154
2242.00 2.11682
2242.13 2.55520
2242.26 3.14535
2242.39 3.97359
2242.51 5.16487
2242.58 5.97800
2242.64 6.97992
2242.70 8.27677
2242.77 9.93644
2242.83 12.1820
2242.89 15.2096
2242.96 19.5689
2243.02 25.9014
2243.09 35.8780
2243.15 51.9993
2243.21 80.5738
2243.24 102.655
2243.28 131.131
2243.34 210.311
2243.40 263.282
2243.46 211.625
2243.53 133.212
2243.60 76.5493
2243.67 47.3492
2243.74 31.5712
2243.81 22.4578
2243.88 16.6553
2243.96 12.8127
2244.10 8.25112
2244.24 5.72893
2244.39 4.21319
2244.67 2.55015
2244.96 1.70563
2245.25 1.22242
2245.53 0.918691
2245.82 0.716757
2246.39 0.471765
2246.97 0.335289
2247.54 0.251459
2248.11 0.196331
2249.26 0.130647
2250.40 0.0946259
2251.55 0.0727926
2252.70 0.0586415
2254.99 0.0421426
2257.28 0.0334503
2261.87 0.0256432
2266.46 0.0232414
2271.04 0.0233916
2280.21 0.0289901
2284.80 0.0349636
2289.38 0.0445190
2293.97 0.0604846
2298.56 0.0896246
2300.85 0.114103
2303.14 0.151343
2305.43 0.212066
2307.73 0.321198
2308.87 0.411881
2310.02 0.548307
2311.17 0.767799
2311.74 0.931230
2312.31 1.15360
2312.60 1.29641
2312.89 1.46763
2313.17 1.67532
2313.46 1.92957
2313.75 2.24774
2314.03 2.65004
2314.32 3.17270
2314.61 3.86326
2314.89 4.80867
2315.18 6.13921
2315.47 8.10786
2315.75 11.1612
2316.04 16.2758
2316.18 20.1824
2316.33 25.5904
2316.47 33.3654
2316.61 44.7283
2316.76 61.8505
2316.90 87.6876
2317.10 140.473
2317.30 176.939
2317.50 142.790
2317.70 89.4944
2317.87 59.3060
2318.04 40.7471
2318.21 29.2288
2318.38 21.7987
2318.72 13.3044
2319.05 8.89726
2319.39 6.34719
2319.73 4.74816
2320.41 2.93844
2321.08 1.99504
2321.76 1.44294
2322.43 1.09263
2323.11 0.856971
2324.46 0.568851
2325.81 0.406679
2327.16 0.306474
2328.52 0.240452
2331.22 0.161812
2333.92 0.118963
2336.62 0.0935170
2339.33 0.0776463
2344.73 0.0614358
2350.14 0.0573629
2355.55 0.0651827
2356.90 0.0719806
2358.25 0.0878165
2358.93 0.107424
2359.60 0.159183
2359.94 0.227665
2360.28 0.411364
2360.45 0.650396
2360.53 0.877680
2360.62 1.26271
2360.70 2.01512
2360.74 2.67716
2360.78 3.73766
2360.83 5.58300
2360.87 9.17984
2360.89 12.3653
2360.91 17.3693
2360.93 25.5837
2360.95 39.6177
2360.98 63.0953
2361.00 79.0856
2361.02 63.0960
2361.05 39.6188
2361.07 24.1372
2361.10 15.6900
2361.12 10.6802
2361.15 7.77334
2361.17 5.82794
2361.19 4.56819
2361.24 2.99863
2361.29 2.12269
2361.34 1.58669
2361.44 0.993874
2361.54 0.691488
2361.64 0.517042
2361.83 0.334969
2362.22 0.197206
2362.61 0.147775
2363.39 0.113894
2364.18 0.104671
2367.31 0.114818
2370.43 0.151746
2373.56 0.222858
2375.13 0.282728
2376.69 0.373067
2378.26 0.518307
2379.04 0.626245
2379.43 0.693635
2379.82 0.772733
2380.21 0.866663
2380.60 0.978746
2381.00 1.11431
2381.39 1.28036
2381.78 1.48670
2382.17 1.74740
2382.56 2.08321
2382.95 2.52567
2383.34 3.12636
2383.73 3.96458
2384.12 5.18443
2384.52 7.04984
2384.91 10.0862
2385.30 15.4316
2385.49 19.7093
2385.69 25.7500
2385.88 34.5135
2386.08 47.0429
2386.39 75.3414
2386.70 94.2876
2387.01 75.5255
2387.32 47.2579
2387.67 27.5936
2388.01 17.2928
2388.36 11.6345
2388.70 8.29155
2389.05 6.17635
2389.39 4.77073
2390.08 3.08164
2390.77 2.14825
2391.46 1.58216
2392.85 0.959633
2394.23 0.643885
2395.61 0.462252
2396.99 0.348329
2398.37 0.272265
2401.13 0.180047
2403.89 0.128440
2406.65 0.0966359
2409.41 0.0756591
2414.94 0.0505379
2420.46 0.0366202
2425.98 0.0281018
2431.51 0.0225107
2442.55 0.0158792
2453.60 0.0123002
2475.69 0.00907662
2497.78 0.00858540
2508.83 0.00933137
2519.87 0.0112679
2530.92 0.0159254
2536.44 0.0207122
2541.97 0.0295189
2544.73 0.0369662
2547.49 0.0483566
2550.25 0.0670725
2553.01 0.101052
2554.39 0.129584
2555.77 0.173013
2557.16 0.243876
2558.54 0.371210
2559.23 0.477162
2559.92 0.636521
2560.61 0.893151
2561.30 1.34412
2561.64 1.71177
2561.99 2.25213
2562.16 2.62485
2562.33 3.09507
2562.51 3.70748
2562.68 4.51484
2562.85 5.62290
2563.02 7.17902
2563.20 9.48732
2563.37 13.0600
2563.46 15.6659
2563.54 19.0608
2563.63 23.6356
2563.71 29.9674
2563.80 39.1187
2563.89 52.4390
2563.97 72.5010
2564.06 102.744
2564.18 164.426
2564.30 206.586
2564.42 166.396
2564.54 104.282
2564.62 74.7088
2564.71 54.8800
2564.87 32.1202
2565.03 20.6266
2565.19 14.2756
2565.36 10.4058
2565.52 7.91708
2565.84 5.00333
2566.17 3.44045
2566.49 2.50875
2566.82 1.90985
2567.14 1.50362
2567.79 1.00104
2568.44 0.715434
2569.09 0.537455
2569.74 0.419556
2571.04 0.277977
2572.34 0.200042
2573.64 0.153312
2574.94 0.124006
2577.53 0.0956206
2578.83 0.0933507
2580.13 0.101762
2581.43 0.131934
2582.08 0.165965
2582.73 0.230330
2583.05 0.285354
2583.38 0.369656
2583.70 0.507605
2584.03 0.754433
2584.19 0.959991
2584.35 1.26626
2584.52 1.75835
2584.68 2.60948
2584.84 4.30087
2584.92 5.83340
2584.96 6.94154
2585.00 8.35555
2585.04 10.3005
2585.08 12.9236
2585.13 16.7809
2585.17 22.4212
2585.19 26.5489
2585.21 31.5832
2585.23 38.1027
2585.25 46.6979
2585.27 58.9121
2585.29 74.9130
2585.31 96.9774
2585.33 127.172
2585.36 204.614
2585.40 254.585
2585.42 238.560
2585.44 202.733
2585.47 127.444
2585.51 80.9619
2585.54 53.8860
2585.58 37.7882
2585.61 27.9648
2585.68 16.7958
2585.74 11.1275
2585.81 7.85485
2585.88 5.85752
2586.01 3.61336
2586.15 2.44461
2586.28 1.76950
2586.41 1.34192
2586.55 1.05424
2586.82 0.702295
2587.09 0.504255
2587.36 0.381838
2587.62 0.301113
2588.16 0.203769
2588.70 0.149706
2589.77 0.0943761
2590.85 0.0677128
2591.92 0.0526404
2594.07 0.0366914
2596.22 0.0285781
2598.37 0.0237371
2602.67 0.0183311
2611.26 0.0140017
2619.86 0.0132196
2628.45 0.0153439
2632.75 0.0183309
2637.05 0.0242472
2641.35 0.0373672
2643.50 0.0505928
2645.65 0.0747995
2646.72 0.0952307
2647.80 0.126406
2648.87 0.177516
2649.94 0.269779
2650.48 0.346920
2651.02 0.463370
2651.56 0.651548
2652.09 0.985050
2652.36 1.25860
2652.63 1.66478
2652.90 2.30514
2653.03 2.77149
2653.17 3.39468
2653.30 4.26075
2653.44 5.49196
2653.50 6.31600
2653.57 7.33810
2653.64 8.62612
2653.71 10.2791
2653.77 12.4827
2653.84 15.4059
2653.91 19.4479
2653.97 25.2275
2654.04 33.8177
2654.11 47.1397
2654.18 68.6368
2654.24 103.751
2654.32 165.954
2654.40 208.517
2654.48 168.104
2654.56 105.434
2654.61 76.7287
2654.66 57.2227
2654.76 34.2190
2654.86 22.2411
2654.96 15.5335
2655.06 11.3825
2655.16 8.70121
2655.36 5.52959
2655.56 3.81537
2655.76 2.78832
2656.17 1.67588
2656.57 1.11645
2656.97 0.797779
2657.37 0.598422
2657.77 0.466102
2658.57 0.306287
2659.38 0.217281
2660.18 0.162693
2660.98 0.126823
2662.59 0.0841139
2664.20 0.0606321
2665.80 0.0463614
2667.41 0.0370514
2670.62 0.0260602
2673.83 0.0200953
2680.26 0.0142566
2686.68 0.0117406
2693.11 0.0106856
2699.53 0.0110793
2702.74 0.0146677
2704.35 0.0289353
2705.15 0.0823072
2705.35 0.133993
2705.55 0.269125
2705.65 0.439123
2705.75 0.843110
2705.80 1.29501
2705.85 2.22614
2705.88 3.10200
2705.90 4.56871
2705.93 7.20075
2705.95 12.3380
2705.98 19.7696
2706.00 24.6673
2706.02 19.7698
2706.05 12.3382
2706.07 7.79680
2706.09 5.15199
2706.13 2.62928
2706.18 1.56592
2706.22 1.04214
2706.31 0.552283
2706.40 0.342468
2706.57 0.170638
2706.74 0.104423
2707.44 0.0349999
2708.84 0.0162786
2711.63 0.0114965
2717.21 0.0105869
2728.37 0.0115384
2739.53 0.0137782
2750.69 0.0178738
2761.85 0.0261278
2767.43 0.0339433
2773.01 0.0476946
2778.59 0.0760887
2781.38 0.103718
2784.17 0.153223
2785.57 0.194404
2786.96 0.256549
2788.36 0.356975
2789.06 0.432314
2789.75 0.535277
2790.45 0.681723
2790.80 0.779230
2791.15 0.899363
2791.50 1.05063
2791.85 1.24420
2792.20 1.49738
2792.54 1.83618
2792.89 2.30685
2793.24 2.98516
2793.59 4.01239
2793.94 5.66558
2794.11 6.90648
2794.29 8.58388
2794.46 10.9521
2794.64 14.3852
2794.81 19.6532
2794.99 28.0697
2795.16 42.3093
2795.33 67.0410
2795.52 107.771
2795.70 137.626
2795.88 112.628
2796.07 70.8372
2796.20 48.8673
2796.34 34.6385
2796.48 25.4239
2796.62 19.2858
2796.89 12.0420
2797.17 8.16907
2797.45 5.88493
2797.72 4.43392
2798.27 2.77365
2798.83 1.89624
2799.38 1.37987
2799.93 1.04994
2800.48 0.827310
2801.58 0.554319
2802.69 0.400076
2803.79 0.304692
2804.89 0.241768
2807.10 0.166911
2809.30 0.126269
2813.72 0.0874576
2818.13 0.0724492
2822.54 0.0680741
2831.36 0.0780455
2835.78 0.0923489
2840.19 0.116000
2842.39 0.133091
2843.50 0.143466
2844.60 0.155349
2845.15 0.161949
2845.70 0.169024
2846.81 0.184847
2847.91 0.203268
2849.01 0.224863
2850.12 0.250382
2851.22 0.280809
2852.32 0.317457
2853.42 0.362113
2854.53 0.417248
2855.63 0.486360
2856.73 0.574521
2857.84 0.689300
2858.94 0.842368
2860.04 1.05240
2861.15 1.35064
2862.25 1.79200
2863.35 2.47866
2864.45 3.61185
2865.56 5.60198
2866.11 7.14634
2866.66 9.21398
2867.73 14.7322
2868.80 18.4790
2869.87 14.8643
2870.94 9.31494
2871.92 5.97536
2872.89 4.00704
2873.87 2.82442
2874.84 2.08115
2876.79 1.25141
2878.74 0.830930
2880.69 0.591115
2882.64 0.442436
2886.55 0.276140
2890.45 0.190919
2894.35 0.142278
2898.25 0.112769
2902.15 0.0946530
2909.95 0.0807618
2913.85 0.0846467
2917.76 0.100388
2921.66 0.142162
2923.61 0.185985
2925.56 0.266282
2926.53 0.333425
2927.51 0.434408
2928.48 0.596086
2929.46 0.878039
2929.95 1.10508
2930.19 1.25414
2930.44 1.43621
2930.68 1.66171
2930.92 1.94550
2931.17 2.30930
2931.29 2.53084
2931.41 2.78360
2931.53 3.07872
2931.65 3.42312
2931.90 4.30887
2932.14 5.58167
2932.39 7.48514
2932.63 10.5180
2932.75 12.7321
2932.87 15.6658
2933.00 19.6257
2933.12 25.0589
2933.24 32.5801
2933.36 42.7867
2933.58 68.0437
2933.80 83.2602
2934.02 65.2870
2934.24 40.6275
2934.37 30.1118
2934.51 22.7613
2934.77 13.8796
2935.04 9.18056
2935.31 6.47125
2935.58 4.78898
2935.84 3.68025
2936.38 2.36319
2936.91 1.64403
2937.44 1.21013
2938.51 0.736151
2939.58 0.496904
2940.65 0.359602
2941.72 0.273560
2942.78 0.216067
2944.92 0.146300
2947.06 0.107062
2951.33 0.0665261
2955.60 0.0468107
2959.87 0.0355815
2968.41 0.0236419
2976.96 0.0175486
2985.50 0.0139167
3002.59 0.00988607
3019.68 0.00786398
3036.76 0.00704079
3045.31 0.00723058
3053.85 0.00858682
3058.12 0.0107041
3060.26 0.0128464
3062.39 0.0167613
3064.53 0.0251162
3065.60 0.0334211
3066.66 0.0485440
3067.20 0.0612802
3067.73 0.0807324
3068.27 0.112628
3068.80 0.170412
3069.07 0.218779
3069.33 0.292159
3069.60 0.411321
3069.87 0.624055
3070.14 1.06157
3070.27 1.48046
3070.40 2.20045
3070.54 3.62274
3070.60 4.91188
3070.67 6.98354
3070.74 10.7470
3070.77 13.7944
3070.80 18.2903
3070.84 25.5239
3070.85 30.7479
3070.87 37.1439
3070.89 46.1291
3070.90 57.4459
3070.92 73.6555
3070.94 94.0181
3070.95 121.672
3070.97 151.313
3071.00 187.811
3071.02 175.688
3071.03 149.184
3071.07 93.7991
3071.09 66.2263
3071.11 47.9129
3071.13 35.7460
3071.16 27.7648
3071.20 17.7746
3071.25 12.2554
3071.29 8.92685
3071.34 6.77837
3071.43 4.27798
3071.52 2.93940
3071.61 2.14230
3071.70 1.63028
3071.79 1.28223
3071.97 0.851511
3072.15 0.608078
3072.33 0.456490
3072.51 0.355774
3072.87 0.234271
3073.23 0.166967
3073.59 0.125754
3073.95 0.0987214
3074.67 0.0666104
3075.39 0.0491100
3076.83 0.0318486
3078.27 0.0242595
3079.71 0.0206909
3082.59 0.0193504
3085.48 0.0241800
3086.92 0.0304846
3088.36 0.0427205
3089.08 0.0532818
3089.80 0.0695559
3090.52 0.0964746
3091.24 0.145444
3091.60 0.186698
3091.96 0.249292
3092.32 0.351209
3092.68 0.533785
3092.86 0.685823
3093.04 0.912786
3093.22 1.27547
3093.40 1.90785
3093.58 3.16032
3093.67 4.30577
3093.76 6.20157
3093.81 7.65084
3093.85 9.66492
3093.90 12.5723
3093.94 16.9703
3093.97 20.1324
3093.99 24.0216
3094.01 29.3518
3094.03 36.1665
3094.06 45.8992
3094.08 58.8565
3094.10 77.9740
3094.12 104.283
3094.14 134.101
3094.16 167.237
3094.20 208.267
3094.22 196.038
3094.24 166.863
3094.28 103.989
3094.31 66.9822
3094.35 44.8140
3094.38 31.5372
3094.42 23.3878
3094.48 14.0839
3094.55 9.34195
3094.62 6.62817
3094.69 4.93894
3094.83 3.04003
3094.97 2.05622
3095.11 1.48266
3095.24 1.11963
3095.38 0.875518
3095.66 0.577962
3095.93 0.410469
3096.21 0.306983
3096.49 0.238612
3097.04 0.156742
3097.59 0.111457
3098.14 0.0838058
3098.69 0.0656897
3099.80 0.0441595
3100.90 0.0323544
3103.11 0.0204950
3105.32 0.0149502
3107.53 0.0119291
3111.94 0.00896024
3120.78 0.00716554
3129.61 0.00736840
3138.45 0.00935117
3142.86 0.0116657
3147.28 0.0160796
3149.49 0.0198732
3151.70 0.0257254
3153.91 0.0354149
3156.11 0.0531293
3157.22 0.0680893
3158.32 0.0909296
3159.43 0.128363
3160.53 0.196074
3161.08 0.252634
3161.63 0.338251
3162.19 0.476834
3162.74 0.723035
3163.01 0.925013
3163.29 1.22538
3163.57 1.69992
3163.70 2.04769
3163.84 2.51381
3163.98 3.15835
3164.12 4.08454
3164.26 5.48158
3164.33 6.46166
3164.39 7.72542
3164.46 9.39131
3164.53 11.6447
3164.60 14.7868
3164.67 19.3283
3164.74 26.1741
3164.81 36.9917
3164.88 54.8837
3164.95 84.9775
3165.02 135.976
3165.10 170.048
3165.18 136.103
3165.25 85.0745
3165.33 52.0391
3165.41 33.6758
3165.49 23.1536
3165.57 16.7503
3165.64 12.6221
3165.72 9.82653
3165.88 6.41514
3166.03 4.50374
3166.19 3.33088
3166.50 2.03003
3166.81 1.36449
3167.13 0.979595
3167.44 0.737332
3167.75 0.575099
3168.37 0.378178
3169.00 0.267796
3169.62 0.199795
3170.25 0.155024
3171.49 0.101436
3172.74 0.0718843
3173.99 0.0538548
3175.24 0.0420677
3177.73 0.0280787
3180.23 0.0204168
3182.72 0.0157665
3185.22 0.0127322
3190.21 0.00914121
3195.20 0.00717697
3205.18 0.00521159
3225.14 0.00382591
3245.10 0.00341857
3285.03 0.00356595
3304.99 0.00435859
3314.97 0.00663905
3319.96 0.0149651
3321.21 0.0234061
3322.45 0.0470607
3323.08 0.0794960
3323.70 0.169246
3324.01 0.289847
3324.33 0.613168
3324.48 1.03017
3324.56 1.41983
3324.64 2.08008
3324.72 3.33032
3324.75 4.41992
3324.79 6.13256
3324.83 9.03061
3324.87 14.4355
3324.89 19.1455
3324.91 25.8445
3324.93 36.0511
3324.95 51.6294
3324.97 82.6078
3325.00 103.262
3325.03 82.6085
3325.05 51.6302
3325.07 36.0519
3325.09 25.8452
3325.11 19.1461
3325.13 14.8284
3325.16 9.43606
3325.20 6.48101
3325.24 4.67086
3325.28 3.54354
3325.35 2.23403
3325.43 1.52705
3325.50 1.11337
3325.65 0.664816
3325.95 0.315222
3326.24 0.184289
3326.84 0.0866048
3327.44 0.0512872
3328.63 0.0254737
3329.82 0.0163176
3334.58 0.00749398
3344.12 0.00561100
3363.18 0.00616097
3382.24 0.00792136
3401.31 0.0112754
3410.84 0.0141024
3420.37 0.0183976
3429.90 0.0253836
3439.43 0.0378967
3444.20 0.0482625
3448.97 0.0638386
3453.73 0.0888173
3456.11 0.107395
3457.31 0.119008
3458.50 0.132637
3459.69 0.148805
3460.88 0.168150
3462.07 0.191600
3463.26 0.220352
3463.86 0.237252
3464.46 0.256188
3465.65 0.301548
3466.84 0.360217
3468.03 0.437768
3469.22 0.543371
3470.41 0.691889
3471.60 0.910078
3472.80 1.24738
3473.99 1.80612
3474.58 2.23086
3475.18 2.81363
3475.77 3.63842
3476.37 4.83457
3476.97 6.61387
3477.56 9.25012
3478.43 14.8064
3479.30 18.6413
3480.17 15.0511
3481.04 9.44020
3481.88 5.89449
3482.73 3.87170
3483.57 2.68808
3484.41 1.95879
3485.25 1.48352
3486.10 1.15980
3487.78 0.761934
3489.46 0.537384
3491.15 0.399031
3494.52 0.245088
3497.89 0.166118
3501.26 0.120464
3504.63 0.0917963
3508.00 0.0727066
3514.73 0.0499811
3521.47 0.0384080
3524.84 0.0357096
3528.21 0.0366558
3529.90 0.0411050
3531.58 0.0562104
3532.42 0.0781385
3533.27 0.140271
3533.69 0.225143
3534.11 0.457120
3534.32 0.764452
3534.42 1.05636
3534.53 1.56181
3534.64 2.56566
3534.69 3.47936
3534.74 4.94663
3534.79 7.63724
3534.82 9.81971
3534.85 13.0547
3534.87 18.3479
3534.90 26.8887
3534.92 42.0481
3534.95 71.1456
3534.98 113.014
3535.00 142.133
3535.03 113.016
3535.05 71.1481
3535.07 43.6454
3535.10 28.2148
3535.12 19.3863
3535.15 14.0205
3535.17 10.5645
3535.20 8.22591
3535.25 5.41612
3535.30 3.80279
3535.35 2.83071
3535.45 1.73659
3535.55 1.17569
3535.64 0.850874
3535.84 0.509068
3536.24 0.248568
3536.64 0.153058
3537.43 0.0823873
3538.22 0.0569138
3539.81 0.0381571
3541.39 0.0313282
3544.56 0.0262911
3547.73 0.0247237
3554.07 0.0253347
3560.41 0.0301809
3566.75 0.0431276
3569.92 0.0567080
3573.09 0.0817520
3574.68 0.102847
3576.26 0.134905
3577.85 0.186954
3579.43 0.279657
3580.22 0.355903
3581.02 0.469308
3581.81 0.649017
3582.21 0.780769
3582.60 0.957569
3583.00 1.20314
3583.20 1.36259
3583.39 1.55596
3583.59 1.79349
3583.79 2.08956
3583.99 2.46482
3584.19 2.94973
3584.39 3.59434
3584.58 4.46542
3584.78 5.68522
3584.98 7.45797
3585.18 10.1495
3585.38 14.4440
3585.57 21.6393
3585.77 33.9302
3585.99 54.3053
3586.20 67.6898
3586.42 54.0051
3586.63 33.7730
3586.78 24.1047
3586.92 17.6334
3587.07 13.2713
3587.21 10.2666
3587.51 6.58146
3587.80 4.54710
3588.09 3.31387
3588.38 2.51980
3588.97 1.59405
3589.55 1.09701
3590.14 0.800947
3591.31 0.481612
3592.48 0.322133
3593.65 0.231434
3594.82 0.174961
3595.98 0.137448
3598.32 0.0923008
3600.66 0.0672870
3603.00 0.0520769
3605.34 0.0422761
3610.02 0.0315334
3614.69 0.0288417
3617.03 0.0321513
3619.37 0.0461365
3620.54 0.0672464
3621.71 0.127920
3622.29 0.211665
3622.59 0.294205
3622.88 0.442690
3623.17 0.753122
3623.32 1.05203
3623.46 1.57703
3623.61 2.62883
3623.68 3.60275
3623.75 5.23654
3623.83 8.28321
3623.86 10.9400
3623.90 14.9357
3623.94 21.7326
3623.97 33.6380
3623.99 43.9351
3624.01 58.1451
3624.03 79.0728
3624.05 109.819
3624.07 175.706
3624.10 219.631
3624.13 175.704
3624.15 109.818
3624.18 64.2311
3624.21 40.8413
3624.24 27.7602
3624.27 19.9285
3624.30 14.7980
3624.33 11.4876
3624.39 7.47309
3624.45 5.20733
3624.51 3.85069
3624.62 2.33997
3624.74 1.57186
3624.86 1.12938
3625.09 0.667266
3625.32 0.441711
3625.56 0.315965
3626.02 0.187147
3626.96 0.0921762
3627.89 0.0579673
3629.76 0.0328141
3631.63 0.0236159
3635.37 0.0165396
3639.10 0.0137243
3646.58 0.0113833
3654.05 0.0105560
3669.00 0.0114698
3676.47 0.0168017
3680.21 0.0367018
3681.14 0.0567597
3682.08 0.112605
3682.54 0.188411
3683.01 0.395069
3683.24 0.668375
3683.36 0.929270
3683.48 1.37681
3683.59 2.26082
3683.65 3.06997
3683.71 4.37224
3683.77 6.75564
3683.80 8.69207
3683.83 11.5621
3683.86 16.0363
3683.89 23.4404
3683.92 36.4909
3683.94 60.2752
3683.97 96.4362
3684.00 120.544
3684.03 96.4354
3684.06 60.2749
3684.08 41.7067
3684.10 30.1401
3684.12 22.4757
3684.14 17.2658
3684.18 10.8659
3684.22 7.47183
3684.26 5.39381
3684.30 4.09546
3684.38 2.58607
3684.46 1.77111
3684.54 1.29335
3684.70 0.775251
3685.02 0.370371
3685.35 0.219282
3685.99 0.106362
3686.64 0.0655808
3687.93 0.0358707
3689.21 0.0254313
3694.37 0.0159485
3699.53 0.0151841
3704.69 0.0160355
3715.00 0.0202172
3725.32 0.0286633
3730.48 0.0358550
3735.63 0.0467886
3740.79 0.0645036
3745.95 0.0959277
3748.53 0.121658
3751.11 0.159839
3752.40 0.186273
3753.69 0.219975
3754.33 0.240440
3754.98 0.263940
3755.62 0.291101
3756.27 0.322670
3756.91 0.359768
3757.56 0.403686
3758.20 0.456190
3758.84 0.519542
3759.49 0.597174
3760.13 0.693504
3760.78 0.814959
3761.42 0.970645
3762.07 1.17511
3762.71 1.44995
3763.36 1.83021
3764.00 2.37332
3764.65 3.18231
3765.29 4.43603
3765.94 6.46489
3766.58 9.77949
3767.34 15.6681
3768.10 19.6863
3768.86 15.8259
3769.62 9.90123
3770.27 6.51099
3770.92 4.44842
3771.57 3.17855
3772.22 2.36517
3773.53 1.43882
3774.83 0.960999
3776.13 0.685176
3777.43 0.512726
3780.03 0.317866
3782.64 0.216493
3785.24 0.157256
3787.84 0.119717
3790.44 0.0944659
3795.65 0.0637093
3800.86 0.0464555
3806.06 0.0358687
3811.27 0.0289564
3821.68 0.0209222
3832.09 0.0168421
3852.91 0.0140375
3873.74 0.0156181
3884.15 0.0183990
3894.56 0.0237254
3904.97 0.0347223
3910.18 0.0451384
3915.38 0.0632734
3920.59 0.0999137
3923.19 0.134720
3925.80 0.195481
3927.10 0.244743
3927.75 0.277315
3928.40 0.317299
3929.05 0.367309
3929.70 0.430916
3930.35 0.513550
3931.00 0.623439
3931.65 0.774518
3932.30 0.989772
3932.95 1.31099
3933.60 1.81863
3933.93 2.19159
3934.26 2.68859
3934.58 3.37116
3934.91 4.33906
3935.23 5.76812
3935.56 7.95082
3935.88 11.4200
3936.21 17.0057
3937.00 35.0640
3937.20 33.5004
3937.40 28.7973
3937.79 18.1307
3938.13 11.9876
3938.46 8.21592
3938.80 5.88368
3939.13 4.38491
3939.80 2.67926
3940.47 1.79888
3941.14 1.29158
3941.81 0.974658
3943.15 0.618124
3944.49 0.433897
3945.83 0.327696
3948.51 0.218814
3951.19 0.170739
3953.87 0.150048
3959.23 0.152546
3961.91 0.172162
3964.59 0.207780
3965.93 0.234111
3966.60 0.250143
3967.27 0.268469
3967.94 0.289541
3968.27 0.301247
3968.61 0.313828
3969.28 0.341947
3969.94 0.374624
3970.61 0.412946
3971.28 0.458142
3971.95 0.511874
3972.62 0.576229
3973.29 0.654332
3973.96 0.750092
3974.63 0.869053
3975.30 1.01880
3975.97 1.21107
3976.64 1.46240
3977.31 1.79806
3977.98 2.25644
3978.65 2.90057
3979.32 3.82753
3979.99 5.18566
3980.66 7.16008
3981.68 11.3765
3982.70 13.9476
3983.72 10.9744
3984.74 6.84248
3985.50 4.74792
3986.27 3.39198
3987.03 2.50806
3987.79 1.91490
3989.32 1.20834
3990.85 0.826540
3992.37 0.599556
3993.90 0.454453
3996.95 0.287041
4000.00 0.198052
4003.05 0.145232
4009.16 0.0882801
4015.26 0.0597957
4021.37 0.0434995
4027.47 0.0332913
4033.57 0.0264666
4045.78 0.0181853
4057.99 0.0135566
4082.41 0.00896737
4106.82 0.00726566
4131.24 0.00781618
4143.45 0.00993826
4149.55 0.0123037
4155.66 0.0167852
4158.71 0.0206244
4161.76 0.0265354
4164.81 0.0362854
4167.86 0.0540321
4169.39 0.0689313
4170.92 0.0915872
4172.44 0.128477
4173.97 0.194570
4174.73 0.249251
4175.49 0.331247
4176.26 0.462258
4177.02 0.690657
4177.40 0.874795
4177.78 1.14289
4178.16 1.55704
4178.36 1.85354
4178.55 2.24040
4178.74 2.76390
4178.83 3.09818
4178.93 3.49143
4179.12 4.54158
4179.31 6.11949
4179.40 7.23676
4179.50 8.65772
4179.60 10.5377
4179.69 13.0217
4179.79 16.4431
4179.88 21.1442
4179.98 27.7376
4180.07 36.9137
4180.24 59.0120
4180.40 73.0875
4180.57 57.9347
4180.73 36.1820
4180.89 22.2523
4181.06 14.4676
4181.22 9.98234
4181.39 7.24081
4181.55 5.46741
4181.72 4.26332
4182.05 2.78998
4182.38 1.96219
4182.71 1.45327
4183.37 0.888384
4184.03 0.598315
4184.69 0.430399
4185.35 0.324641
4186.01 0.253876
4187.33 0.167795
4188.65 0.119563
4189.97 0.0898437
4191.28 0.0702555
4193.92 0.0468754
4196.56 0.0340313
4199.20 0.0262799
4201.84 0.0213168
4207.12 0.0159301
4212.39 0.0146468
4215.03 0.0163699
4217.67 0.0235191
4218.99 0.0342802
4220.31 0.0652470
4220.97 0.108106
4221.63 0.226964
4221.96 0.387319
4222.29 0.818877
4222.45 1.37811
4222.54 1.90687
4222.62 2.79603
4222.70 4.51419
4222.74 6.00680
4222.78 8.36626
4222.83 12.3930
4222.87 20.0070
4222.89 26.7340
4222.91 36.4776
4222.93 52.6044
4222.95 77.7094
4222.97 123.851
4223.00 155.419
4223.03 123.851
4223.05 77.7097
4223.07 54.5828
4223.09 38.9893
4223.11 28.7974
4223.13 22.2526
4223.16 13.9564
4223.20 9.58097
4223.24 6.90312
4223.28 5.23632
4223.35 3.28267
4223.43 2.24618
4223.50 1.63262
4223.65 0.977137
4223.80 0.649009
4223.95 0.463943
4224.25 0.271759
4224.85 0.128199
4225.45 0.0762933
4226.64 0.0382685
4227.84 0.0246515
4232.62 0.0110177
4237.41 0.00827094
4242.20 0.00728624
4251.77 0.00690362
4261.34 0.00776936
4270.92 0.0105329
4275.70 0.0135204
4280.49 0.0191067
4282.88 0.0238671
4285.28 0.0311742
4287.67 0.0432040
4290.06 0.0650691
4291.26 0.0834195
4292.46 0.111282
4293.65 0.156655
4294.85 0.237795
4295.45 0.304981
4296.05 0.405478
4296.64 0.565814
4297.24 0.844742
4297.54 1.06968
4297.84 1.39651
4297.99 1.61976
4298.14 1.89872
4298.29 2.25858
4298.44 2.72658
4298.59 3.35940
4298.74 4.22969
4298.89 5.48843
4299.04 7.36731
4299.19 10.3727
4299.26 12.5710
4299.34 15.4446
4299.41 19.3777
4299.49 24.7917
4299.56 32.3220
4299.63 42.5497
4299.77 67.9371
4299.90 84.5446
4300.03 67.4390
4300.17 42.1587
4300.25 31.1161
4300.33 23.3675
4300.49 14.1196
4300.66 9.27612
4300.82 6.51797
4300.99 4.80234
4301.15 3.67684
4301.48 2.34916
4301.80 1.62495
4302.13 1.19066
4302.79 0.717342
4303.44 0.478798
4304.10 0.342340
4304.75 0.257097
4305.40 0.200399
4306.71 0.131842
4308.02 0.0936519
4309.33 0.0701948
4310.64 0.0547850
4313.26 0.0364189
4315.88 0.0263154
4318.50 0.0201730
4321.12 0.0161651
4326.36 0.0114351
4331.59 0.00887037
4342.07 0.00637433
4352.55 0.00532033
4363.02 0.00488135
4383.97 0.00494660
4404.92 0.00606099
4415.40 0.00721949
4425.87 0.00916443
4436.35 0.0127723
4441.59 0.0159364
4446.83 0.0211364
4452.06 0.0310862
4454.68 0.0402742
4457.30 0.0562058
4459.92 0.0886457
4461.23 0.119928
4462.54 0.175500
4463.19 0.221417
4463.85 0.290357
4464.50 0.400952
4465.16 0.594924
4465.49 0.752959
4465.81 0.985148
4465.98 1.14534
4466.14 1.34738
4466.30 1.61068
4466.47 1.95781
4466.63 2.43466
4466.80 3.10959
4466.96 4.10752
4467.12 5.65499
4467.20 6.77915
4467.29 8.26391
4467.37 10.2737
4467.45 13.0306
4467.53 17.0282
4467.61 22.9535
4467.70 31.9801
4467.78 45.5820
4467.89 73.2406
4468.00 93.1659
4468.06 88.6033
4468.11 75.8681
4468.22 47.6339
4468.35 27.7464
4468.47 17.3169
4468.60 11.6158
4468.72 8.28280
4468.85 6.16545
4468.97 4.75791
4469.22 3.07729
4469.47 2.14836
4469.72 1.58751
4470.22 0.971162
4470.72 0.659535
4471.22 0.480922
4471.72 0.369412
4472.22 0.295367
4473.21 0.206784
4474.21 0.158539
4476.21 0.112747
4478.20 0.0957532
4480.20 0.0919772
4484.19 0.108980
4486.19 0.130412
4488.18 0.165200
4490.18 0.222558
4491.18 0.265364
4492.17 0.323195
4492.67 0.360022
4493.17 0.403855
4493.67 0.456549
4494.17 0.520615
4494.67 0.599512
4495.17 0.698113
4495.67 0.823442
4496.17 0.985905
4496.66 1.20140
4497.16 1.49510
4497.66 1.90850
4498.16 2.51325
4498.66 3.43937
4499.16 4.93425
4499.66 7.47814
4500.16 11.8944
4500.68 19.0036
4501.20 23.6526
4501.72 18.8474
4502.24 11.7711
4502.71 7.65305
4503.17 5.18647
4503.63 3.68529
4504.09 2.73209
4505.01 1.65477
4505.93 1.10227
4506.85 0.784833
4507.77 0.586694
4509.61 0.363361
4511.46 0.247292
4513.30 0.179537
4515.14 0.136585
4516.98 0.107670
4520.67 0.0723822
4524.35 0.0525270
4528.04 0.0402911
4531.72 0.0322581
4539.09 0.0228295
4546.46 0.0179424
4561.19 0.0143572
4575.93 0.0160502
4583.30 0.0195478
4590.67 0.0267654
4594.35 0.0330836
4598.04 0.0428392
4601.72 0.0588647
4605.40 0.0876904
4607.25 0.111565
4609.09 0.147315
4610.93 0.204314
4612.77 0.303305
4613.69 0.382662
4614.16 0.434709
4614.62 0.498033
4615.08 0.576481
4615.54 0.674772
4616.00 0.800723
4616.23 0.877092
4616.46 0.964839
4616.92 1.18503
4617.38 1.48798
4617.84 1.92184
4618.30 2.56782
4618.76 3.58633
4618.99 4.32193
4619.22 5.28915
4619.45 6.58954
4619.68 8.34913
4619.91 10.7586
4620.14 14.0279
4620.57 22.4012
4621.00 27.7360
4621.43 21.9814
4621.86 13.7151
4622.20 9.30990
4622.54 6.52750
4622.88 4.75598
4623.22 3.58947
4623.90 2.22712
4624.58 1.50606
4625.26 1.08226
4625.94 0.813946
4627.30 0.507611
4628.66 0.346335
4630.02 0.251450
4631.38 0.190966
4632.73 0.150081
4635.45 0.0999550
4638.17 0.0715900
4640.89 0.0539842
4643.61 0.0423172
4649.05 0.0282877
4654.48 0.0204909
4659.92 0.0157122
4665.36 0.0125731
4676.23 0.00884416
4687.11 0.00682066
4708.85 0.00494387
4730.60 0.00450404
4741.48 0.00475544
4752.35 0.00553461
4763.22 0.00748846
4768.66 0.00951817
4774.10 0.0132673
4776.82 0.0164444
4779.54 0.0213103
4782.25 0.0293155
4784.97 0.0438641
4786.33 0.0560925
4787.69 0.0746941
4789.05 0.105037
4790.41 0.159568
4791.09 0.204872
4791.77 0.273054
4792.45 0.382550
4793.13 0.574478
4793.47 0.730274
4793.81 0.959335
4794.15 1.31564
4794.49 1.91094
4794.66 2.37294
4794.83 3.02276
4795.00 3.97557
4795.08 4.62668
4795.17 5.44744
4795.25 6.50020
4795.34 7.87734
4795.42 9.71923
4795.51 12.2444
4795.59 15.8000
4795.68 20.9412
4795.76 28.5255
4795.85 39.5231
4795.97 63.1880
4796.10 78.7538
4796.23 62.8209
4796.35 39.2355
4796.45 27.1777
4796.54 19.3596
4796.64 14.2728
4796.73 10.8670
4796.92 6.82215
4797.11 4.65287
4797.30 3.35856
4797.49 2.53700
4797.87 1.58835
4798.25 1.08585
4798.63 0.788685
4799.01 0.598723
4799.39 0.470059
4800.15 0.311916
4800.90 0.222398
4801.66 0.166816
4802.42 0.129967
4803.94 0.0856803
4805.45 0.0611430
4806.97 0.0461411
4808.49 0.0363271
4811.52 0.0247100
4814.55 0.0184000
4820.62 0.0122576
4826.68 0.00966446
4832.75 0.00858677
4844.88 0.00882425
4857.01 0.0121558
4863.08 0.0160168
4869.14 0.0232989
4872.18 0.0294962
4875.21 0.0389769
4878.24 0.0544865
4881.28 0.0823924
4882.79 0.105564
4884.31 0.140385
4885.83 0.196259
4887.34 0.294092
4888.86 0.489465
4889.24 0.568969
4889.62 0.669494
4890.00 0.799092
4890.37 0.970040
4890.75 1.20175
4890.94 1.35011
4891.13 1.52632
4891.32 1.74008
4891.51 1.99967
4891.70 2.32249
4891.89 2.72557
4892.08 3.24277
4892.27 3.91170
4892.46 4.80460
4892.65 6.01127
4892.84 7.70033
4893.03 10.0958
4893.22 13.5886
4893.41 18.6036
4893.70 29.7246
4894.00 36.9602
4894.30 29.4144
4894.59 18.3604
4894.95 10.3595
4895.30 6.33698
4895.66 4.19679
4896.01 2.95913
4896.36 2.18931
4896.72 1.68140
4897.43 1.07754
4898.13 0.747611
4898.84 0.548512
4900.26 0.331058
4901.67 0.221378
4903.09 0.158515
4904.51 0.119192
4905.92 0.0929939
4908.75 0.0613137
4911.58 0.0436429
4914.42 0.0327885
4917.25 0.0256548
4922.91 0.0171631
4928.57 0.0125164
4934.24 0.00972932
4939.90 0.00796774
4951.23 0.00617674
4962.55 0.00620721
4968.22 0.00753345
4971.05 0.00909753
4973.88 0.0121190
4976.71 0.0187856
4978.13 0.0255094
4979.54 0.0378229
4980.25 0.0482302
4980.96 0.0641464
4981.67 0.0902595
4982.38 0.137556
4982.73 0.177112
4983.08 0.237061
4983.44 0.334248
4983.79 0.507298
4984.15 0.861650
4984.32 1.19768
4984.50 1.77648
4984.68 2.90093
4984.77 3.91521
4984.85 5.53792
4984.94 8.43797
4984.99 10.7645
4985.03 14.1564
4985.07 19.3283
4985.12 27.6290
4985.14 33.6910
4985.16 41.6511
4985.18 52.1476
4985.21 66.2131
4985.23 84.8449
4985.25 105.614
4985.30 131.793
4985.32 123.362
4985.35 104.805
4985.39 65.5816
4985.42 48.5415
4985.45 36.3707
4985.51 22.0762
4985.57 14.5481
4985.62 10.2237
4985.68 7.54617
4985.74 5.78530
4985.85 3.69835
4985.96 2.56153
4986.08 1.87685
4986.31 1.13037
4986.54 0.753260
4986.76 0.538513
4986.99 0.404232
4987.22 0.314740
4987.68 0.206465
4988.13 0.146228
4988.59 0.109167
4989.05 0.0848521
4989.96 0.0558388
4990.87 0.0398694
4991.78 0.0301527
4992.70 0.0238046
4994.52 0.0162921
4996.35 0.0121919
5000.00 0.00813271
5003.73 0.00630761
5007.46 0.00548844
5011.19 0.00528939
5014.92 0.00573026
5018.65 0.00734878
5022.38 0.0126360
5024.25 0.0202229
5026.11 0.0418404
5027.05 0.0717559
5027.98 0.155215
5028.45 0.268896
5028.91 0.578256
5029.14 0.985714
5029.26 1.37578
5029.38 2.04489
5029.49 3.36642
5029.55 4.55033
5029.61 6.47893
5029.67 10.0011
5029.70 12.8567
5029.73 17.0809
5029.76 23.6502
5029.79 34.4881
5029.81 53.5242
5029.84 89.3978
5029.87 143.166
5029.90 178.644
5029.93 143.169
5029.96 89.4007
5029.98 62.1614
5030.00 44.9566
5030.02 33.0787
5030.04 25.4530
5030.08 16.0571
5030.12 11.0577
5030.16 7.98956
5030.20 6.06915
5030.28 3.81295
5030.36 2.61170
5030.44 1.89893
5030.61 1.13232
5030.77 0.751083
5030.93 0.534516
5031.25 0.310511
5031.90 0.143169
5032.55 0.0826838
5033.85 0.0384642
5035.14 0.0227034
5040.33 0.00722155
5050.71 0.00316651
5061.08 0.00235181
5071.45 0.00207655
5081.83 0.00204310
5092.20 0.00235689
5102.58 0.00455625
5107.76 0.0134958
5110.36 0.0485067
5111.00 0.0840240
5111.65 0.182303
5111.98 0.314499
5112.30 0.669425
5112.46 1.12809
5112.62 2.28653
5112.71 3.67187
5112.75 4.90237
5112.79 6.79707
5112.83 10.1092
5112.87 16.1992
5112.89 21.6928
5112.91 29.6729
5112.93 42.1338
5112.95 62.7079
5112.97 99.6490
5113.00 125.296
5113.03 99.6454
5113.05 62.7053
5113.07 42.1323
5113.09 29.6721
5113.11 21.3754
5113.13 16.1991
5113.17 10.0027
5113.21 6.79719
5113.26 4.86563
5113.30 3.67201
5113.38 2.28666
5113.54 1.12819
5113.70 0.669505
5114.02 0.314553
5114.35 0.182342
5115.00 0.0839623
5115.65 0.0485168
5118.24 0.0134811
5123.43 0.00450843
5133.80 0.00224627
5154.55 0.00178353
5175.29 0.00229719
5185.67 0.00461324
5190.86 0.0137214
5193.45 0.0491538
5194.10 0.0849679
5194.75 0.183642
5195.07 0.315639
5195.39 0.667035
5195.56 1.11620
5195.72 2.23211
5195.80 3.53923
5195.88 6.40359
5195.92 9.33711
5195.96 14.5144
5195.98 18.9888
5196.00 25.2218
5196.02 34.4572
5196.04 48.1172
5196.07 77.5090
5196.10 96.2352
5196.13 76.4644
5196.16 48.1168
5196.19 27.6171
5196.23 17.0834
5196.26 11.3945
5196.29 8.14848
5196.36 4.64598
5196.43 2.99991
5196.56 1.53274
5196.70 0.929302
5196.97 0.445180
5197.24 0.260473
5197.78 0.120842
5198.31 0.0699448
5200.47 0.0191680
5204.77 0.00607032
5213.39 0.00279159
5222.00 0.00223963
5230.61 0.00210949
5247.84 0.00220481
5265.07 0.00257256
5282.30 0.00335995
5290.91 0.00410348
5299.52 0.00540318
5308.14 0.00807568
5312.44 0.0106804
5316.75 0.0153737
5318.90 0.0193072
5321.06 0.0252970
5323.21 0.0351086
5325.36 0.0528723
5326.44 0.0677599
5327.52 0.0903792
5328.59 0.127196
5329.67 0.193087
5330.21 0.247720
5330.75 0.329532
5331.29 0.460301
5331.82 0.688427
5332.36 1.14188
5332.63 1.55664
5332.90 2.24416
5333.04 2.77286
5333.17 3.50322
5333.30 4.56766
5333.44 6.17013
5333.51 7.31449
5333.57 8.76916
5333.64 10.6786
5333.71 13.2373
5333.78 16.8026
5333.84 21.7255
5333.91 28.7073
5333.98 38.5625
5334.09 61.8451
5334.20 78.0390
5334.26 73.8587
5334.31 63.0255
5334.42 39.4840
5334.50 28.0114
5334.58 20.4136
5334.66 15.3136
5334.73 11.8145
5334.89 7.53318
5335.04 5.19026
5335.20 3.77110
5335.35 2.86278
5335.66 1.80367
5335.97 1.23790
5336.28 0.901503
5336.59 0.685659
5336.90 0.539067
5337.51 0.358561
5338.13 0.255940
5338.75 0.192113
5339.37 0.149803
5340.60 0.0988244
5341.84 0.0705491
5343.07 0.0532486
5344.31 0.0419307
5346.78 0.0285335
5349.25 0.0212716
5354.19 0.0142327
5359.14 0.0112964
5364.08 0.0101092
5373.96 0.0104789
5383.85 0.0143550
5388.79 0.0187624
5393.73 0.0270103
5396.20 0.0340022
5398.68 0.0446687
5401.15 0.0620789
5403.62 0.0933349
5404.85 0.119246
5406.09 0.158119
5407.32 0.220389
5408.56 0.329129
5409.18 0.416948
5409.80 0.545484
5410.10 0.633326
5410.41 0.744215
5410.72 0.886908
5411.03 1.07400
5411.34 1.32758
5411.65 1.68150
5411.96 2.19527
5412.27 2.97836
5412.58 4.24730
5412.73 5.19570
5412.88 6.46707
5413.04 8.23422
5413.19 10.7132
5413.35 14.2658
5413.50 19.3381
5413.75 31.0423
5414.00 39.1652
5414.13 37.0748
5414.25 31.6290
5414.50 19.8350
5414.69 13.6405
5414.88 9.66880
5415.07 7.09942
5415.26 5.38794
5415.63 3.36703
5416.01 2.28539
5416.39 1.64686
5416.77 1.24089
5417.52 0.775344
5418.28 0.529620
5419.04 0.384650
5419.79 0.292136
5420.55 0.229556
5422.06 0.152778
5423.57 0.109344
5425.09 0.0824067
5426.60 0.0645656
5429.62 0.0431573
5432.65 0.0313160
5435.67 0.0240986
5438.70 0.0193937
5444.74 0.0138729
5450.79 0.0109350
5462.89 0.00824615
5474.99 0.00736140
5487.09 0.00732457
5511.28 0.00896065
5535.48 0.0136329
5547.57 0.0183691
5559.67 0.0268156
5571.77 0.0440190
5577.82 0.0602456
5580.84 0.0721350
5582.35 0.0794953
5583.87 0.0880794
5585.38 0.0981814
5586.89 0.110164
5588.40 0.124533
5589.91 0.141965
5591.43 0.163405
5592.94 0.190138
5594.45 0.224062
5595.96 0.267973
5597.48 0.326184
5598.99 0.405373
5600.50 0.516707
5602.01 0.679393
5603.52 0.928293
5605.04 1.32981
5606.55 2.01342
5608.06 3.20754
5609.63 5.13663
5611.20 6.48560
5611.99 6.14603
5612.77 5.25205
5614.34 3.29771
5615.37 2.39171
5616.39 1.76927
5618.44 1.04637
5620.49 0.679237
5622.54 0.473668
5624.59 0.348761
5626.63 0.267849
5630.73 0.173743
5634.83 0.123967
5638.93 0.0952839
5647.12 0.0683175
5655.32 0.0646229
5659.42 0.0718344
5663.52 0.0900144
5667.61 0.132538
5669.66 0.174764
5671.71 0.249067
5673.76 0.396139
5674.27 0.455487
5674.79 0.529865
5675.30 0.624913
5675.81 0.748911
5676.07 0.825838
5676.32 0.915035
5676.58 1.01962
5676.83 1.14324
5677.09 1.29071
5677.35 1.46836
5677.60 1.68472
5677.86 1.95141
5678.11 2.28449
5678.37 2.70652
5678.63 3.24954
5678.88 3.95957
5679.14 4.90269
5679.39 6.17196
5679.65 7.88997
5679.91 10.1879
5680.40 16.1713
5680.90 19.6400
5681.40 15.2847
5681.89 9.49387
5682.19 7.06517
5682.49 5.35586
5683.09 3.28586
5683.69 2.18426
5684.28 1.54717
5684.88 1.14949
5685.47 0.887126
5686.67 0.574258
5687.86 0.402797
5689.05 0.299220
5691.44 0.185799
5693.83 0.128387
5696.21 0.0954194
5700.99 0.0610417
5705.76 0.0446343
5710.53 0.0359166
5720.08 0.0292073
5729.62 0.0319205
5734.39 0.0380644
5739.17 0.0508716
5743.94 0.0793263
5746.33 0.107440
5748.71 0.157368
5751.10 0.258412
5752.29 0.352629
5752.89 0.421047
5753.48 0.511743
5754.08 0.635885
5754.38 0.715573
5754.68 0.811247
5754.98 0.927847
5755.27 1.07080
5755.57 1.24911
5755.87 1.47516
5756.17 1.76816
5756.47 2.15342
5756.77 2.67375
5757.06 3.39569
5757.36 4.43144
5757.66 5.95209
5757.96 8.24301
5758.26 11.6817
5758.68 18.5690
5759.10 22.6286
5759.52 17.6580
5759.94 10.9693
5760.40 6.53101
5760.85 4.15904
5761.31 2.82934
5761.76 2.03453
5762.22 1.52638
5762.67 1.18558
5763.58 0.772161
5764.49 0.542072
5765.40 0.401477
5767.22 0.246147
5769.03 0.166833
5770.85 0.121009
5772.67 0.0921626
5774.49 0.0728362
5778.12 0.0493027
5781.76 0.0360429
5789.03 0.0223402
5796.30 0.0157016
5803.57 0.0119497
5818.11 0.00803110
5832.65 0.00611221
5847.19 0.00504755
5876.28 0.00412852
5905.36 0.00427410
5919.90 0.00487354
5934.44 0.00620077
5948.98 0.00926459
5956.25 0.0123827
5963.52 0.0180906
5967.16 0.0228951
5970.80 0.0302054
5974.43 0.0421132
5978.07 0.0634485
5979.88 0.0811022
5981.70 0.107569
5983.52 0.149846
5985.34 0.223458
5987.15 0.369146
5987.61 0.428118
5988.06 0.502214
5988.52 0.597246
5988.97 0.721813
5989.43 0.889780
5989.65 0.996090
5989.88 1.12234
5990.11 1.27446
5990.34 1.45811
5990.56 1.68340
5990.79 1.96347
5991.02 2.31856
5991.24 2.77220
5991.47 3.36456
5991.70 4.15312
5991.93 5.22387
5992.15 6.70427
5992.38 8.77384
5992.61 11.6440
5993.00 18.5882
5993.40 23.0333
5993.80 18.2684
5994.19 11.3936
5994.66 6.52093
5995.12 4.03318
5995.58 2.69086
5996.04 1.90703
5996.50 1.41529
5996.96 1.09008
5997.88 0.701446
5998.80 0.487878
5999.72 0.358742
6001.56 0.217259
6003.40 0.145661
6005.24 0.104578
6007.08 0.0788356
6008.92 0.0616712
6012.60 0.0409075
6016.28 0.0293213
6019.96 0.0222078
6023.64 0.0175336
6031.01 0.0119802
6038.37 0.00895430
6053.09 0.00602965
6067.82 0.00493124
6082.54 0.00502900
6089.91 0.00590747
6093.59 0.00690493
6097.27 0.00879980
6100.95 0.0129307
6102.79 0.0170764
6104.63 0.0246553
6105.55 0.0310612
6106.47 0.0408495
6107.39 0.0569179
6108.31 0.0860592
6108.77 0.110534
6109.23 0.147626
6109.69 0.207912
6110.15 0.315662
6110.61 0.537662
6110.84 0.749612
6111.07 1.11748
6111.30 1.84078
6111.42 2.49712
6111.53 3.57418
6111.65 5.51659
6111.71 7.14237
6111.76 9.52671
6111.82 13.3473
6111.88 19.6426
6111.91 24.5140
6111.94 31.1597
6111.97 40.3073
6111.99 52.5426
6112.02 67.1661
6112.05 84.1484
6112.10 104.615
6112.13 98.0889
6112.15 83.5520
6112.21 52.0759
6112.25 36.1804
6112.29 25.7323
6112.33 18.9468
6112.37 14.5046
6112.45 9.08152
6112.52 6.19832
6112.60 4.46647
6112.68 3.37604
6112.84 2.11220
6113.00 1.44324
6113.16 1.04784
6113.32 0.795165
6113.48 0.624071
6113.80 0.414029
6114.11 0.294963
6114.43 0.221048
6114.75 0.172174
6115.39 0.113244
6116.02 0.0805564
6116.66 0.0605657
6117.29 0.0474761
6118.56 0.0319033
6119.84 0.0233759
6122.38 0.0148523
6124.92 0.0109234
6127.46 0.00882977
6132.55 0.00688726
6152.89 0.00704665
6163.06 0.0100401
6168.15 0.0131993
6173.23 0.0190260
6175.78 0.0239476
6178.32 0.0314596
6180.86 0.0437452
6183.41 0.0658794
6184.68 0.0843171
6185.95 0.112109
6187.22 0.156919
6188.49 0.235925
6189.76 0.395533
6190.40 0.544587
6191.03 0.796475
6191.35 0.993640
6191.67 1.27350
6191.99 1.68881
6192.15 1.97577
6192.31 2.33835
6192.46 2.81129
6192.62 3.43846
6192.78 4.29153
6192.94 5.48596
6193.10 7.21332
6193.26 9.79733
6193.42 13.7748
6193.58 19.8656
6193.79 31.7619
6194.00 39.5995
6194.11 37.2144
6194.21 31.5997
6194.42 19.7383
6194.57 14.0968
6194.71 10.2970
6194.86 7.74031
6195.00 5.99207
6195.29 3.84507
6195.58 2.65505
6195.87 1.93592
6196.16 1.47112
6196.74 0.929548
6197.32 0.639309
6197.89 0.466366
6198.47 0.355227
6199.05 0.279658
6200.21 0.186436
6201.36 0.133430
6202.52 0.100432
6203.67 0.0785149
6205.99 0.0521314
6208.30 0.0374871
6210.61 0.0285299
6212.92 0.0226695
6217.55 0.0157433
6222.17 0.0119997
6231.42 0.00841392
6240.67 0.00698801
6249.92 0.00650896
6268.42 0.00714783
6286.92 0.0100152
6296.17 0.0130240
6305.42 0.0183921
6314.67 0.0293123
6319.30 0.0396783
6323.92 0.0577609
6328.55 0.0941353
6330.86 0.128335
6333.17 0.187065
6334.33 0.233856
6334.91 0.264379
6335.49 0.301509
6336.06 0.347299
6336.64 0.404663
6337.22 0.477833
6337.80 0.573150
6338.38 0.700421
6338.95 0.875428
6339.53 1.12473
6340.11 1.49544
6340.69 2.07624
6341.27 3.04493
6341.55 3.77880
6341.84 4.77385
6342.13 6.13571
6342.42 7.98783
6342.96 12.8180
6343.50 16.2621
6343.77 15.4520
6344.04 13.2250
6344.58 8.31463
6345.06 5.36492
6345.55 3.61203
6346.03 2.55564
6346.52 1.88950
6347.49 1.14535
6348.46 0.768507
6349.43 0.554002
6350.40 0.421769
6352.34 0.275893
6354.28 0.204148
6356.22 0.166878
6360.09 0.144429
6363.97 0.172909
6365.91 0.214347
6367.85 0.292070
6368.82 0.355509
6369.79 0.447440
6370.27 0.509463
6370.76 0.586669
6371.24 0.684229
6371.73 0.809381
6371.97 0.886010
6372.21 0.973897
6372.46 1.07616
6372.70 1.19495
6373.18 1.50031
6373.67 1.93487
6374.15 2.57913
6374.64 3.57104
6375.12 5.15162
6375.61 7.67075
6376.20 12.1538
6376.80 14.6789
6377.40 11.3671
6377.99 7.05373
6378.39 5.09926
6378.79 3.77282
6379.58 2.23818
6380.37 1.45706
6381.16 1.01762
6381.95 0.749137
6382.74 0.574135
6384.32 0.368327
6385.90 0.256869
6387.48 0.189871
6390.64 0.116732
6393.80 0.0796595
6396.96 0.0582341
6403.28 0.0355350
6409.60 0.0242678
6415.92 0.0178048
6428.56 0.0109713
6441.20 0.00757470
6453.84 0.00562308
6479.12 0.00356250
6504.40 0.00254819
6529.69 0.00197862
6580.25 0.00142707
6630.81 0.00127413
6656.10 0.00132768
6681.38 0.00152348
6706.66 0.00202789
6719.30 0.00254970
6731.94 0.00350064
6744.58 0.00549632
6750.90 0.00744355
6757.22 0.0109275
6760.39 0.0138221
6763.55 0.0181960
6766.71 0.0252914
6769.87 0.0380096
6771.45 0.0485860
6773.03 0.0645458
6774.61 0.0903423
6776.19 0.136190
6776.98 0.173871
6777.77 0.230056
6778.56 0.319193
6779.35 0.473103
6780.14 0.773471
6780.53 1.04393
6780.73 1.23591
6780.93 1.48415
6781.12 1.81621
6781.32 2.26846
6781.52 2.91204
6781.72 3.85597
6781.91 5.32446
6782.01 6.37218
6782.11 7.71762
6782.21 9.50740
6782.31 11.8973
6782.41 15.1078
6782.51 19.3319
6782.70 30.9125
6782.90 38.5718
6783.00 36.2454
6783.10 30.8072
6783.29 19.2494
6783.48 12.1318
6783.67 8.02830
6783.86 5.60773
6784.04 4.10980
6784.41 2.45011
6784.79 1.61628
6785.16 1.14248
6785.53 0.850384
6786.28 0.524069
6787.03 0.355987
6787.77 0.258750
6788.52 0.197549
6789.27 0.156813
6790.76 0.108062
6792.25 0.0819482
6793.75 0.0674619
6795.24 0.0600934
6798.22 0.0615589
6799.72 0.0723488
6801.21 0.0963484
6801.96 0.117790
6802.70 0.151039
6803.45 0.205774
6804.20 0.303730
6804.57 0.384586
6804.94 0.504653
6805.32 0.694281
6805.69 1.01900
6806.06 1.64352
6806.25 2.19852
6806.44 3.08099
6806.53 3.74053
6806.62 4.62006
6806.72 5.83877
6806.81 7.58574
6806.86 8.76577
6806.90 10.2244
6806.95 12.0477
6807.00 14.2972
6807.04 17.2235
6807.09 20.8943
6807.14 25.7068
6807.18 31.6825
6807.29 50.5909
6807.40 62.1966
6807.46 58.0007
6807.51 48.9413
6807.62 30.5353
6807.69 22.2935
6807.76 16.6666
6807.90 9.98266
6808.04 6.52576
6808.18 4.56294
6808.31 3.35704
6808.45 2.56834
6808.73 1.63852
6809.01 1.13452
6809.29 0.831900
6809.84 0.503215
6810.40 0.337620
6810.95 0.243000
6811.51 0.183706
6812.06 0.144220
6813.18 0.0963482
6814.29 0.0695014
6815.40 0.0529015
6816.51 0.0418924
6818.73 0.0285834
6820.95 0.0210961
6825.40 0.0133038
6829.84 0.00947942
6834.29 0.00730879
6843.18 0.00513158
6852.06 0.00441258
6856.51 0.00452337
6860.95 0.00515301
6865.40 0.00694201
6869.84 0.0125436
6874.29 0.0432545
6875.40 0.0746555
6876.51 0.162314
6877.07 0.281487
6877.62 0.605387
6877.90 1.03232
6878.04 1.43871
6878.18 2.14162
6878.32 3.51616
6878.39 4.76718
6878.45 6.77746
6878.52 10.4225
6878.56 13.4232
6878.59 17.7172
6878.63 24.5594
6878.66 35.4328
6878.70 54.8776
6878.73 88.5807
6878.77 142.550
6878.80 177.164
6878.84 140.909
6878.87 88.5822
6878.89 62.8996
6878.92 45.7177
6878.94 34.2302
6878.96 26.6454
6879.01 16.9710
6879.06 11.7422
6879.11 8.52069
6879.15 6.48607
6879.25 4.10689
6879.34 2.81695
6879.44 2.05632
6879.63 1.22942
6880.00 0.581665
6880.38 0.338078
6881.14 0.155840
6881.89 0.0897115
6883.41 0.0413315
6884.92 0.0240840
6890.97 0.00711871
6897.02 0.00385205
6903.07 0.00265057
6915.17 0.00171213
6927.27 0.00132781
6951.46 0.000987551
6975.66 0.000832302
7024.06 0.000696927
7072.45 0.000656595
7169.24 0.000748226
7193.44 0.000842401
7217.64 0.00106887
7241.83 0.00213384
7253.93 0.00619975
7259.98 0.0221487
7261.50 0.0384654
7263.01 0.0842432
7263.76 0.146890
7264.52 0.319652
7264.90 0.550733
7265.28 1.16580
7265.46 1.95184
7265.56 2.68529
7265.65 3.90402
7265.75 6.20673
7265.80 8.16648
7265.84 11.1959
7265.89 16.3431
7265.94 25.4877
7265.96 33.1588
7265.98 43.8343
7266.01 60.3805
7266.03 83.8621
7266.07 134.956
7266.10 167.720
7266.14 133.392
7266.17 83.8560
7266.19 61.2237
7266.21 45.5496
7266.26 27.1506
7266.30 17.6812
7266.35 12.3258
7266.39 9.04558
7266.43 6.90522
7266.52 4.40852
7266.61 3.03901
7266.70 2.21907
7266.87 1.33349
7267.22 0.632783
7267.57 0.368588
7268.27 0.169807
7268.97 0.0974871
7270.38 0.0445305
7271.78 0.0256361
7277.39 0.00715550
7288.60 0.00250318
7311.04 0.00142362
7333.47 0.00134390
7355.90 0.00147043
7378.34 0.00176957
7400.77 0.00246665
7411.99 0.00330184
7417.60 0.00408654
7423.20 0.00547424
7428.81 0.00837474
7431.62 0.0112334
7434.42 0.0164214
7435.82 0.0207842
7437.22 0.0274434
7438.63 0.0383587
7440.03 0.0581316
7440.73 0.0746833
7441.43 0.0997982
7442.13 0.140591
7442.83 0.213445
7443.53 0.363376
7444.23 0.754194
7444.59 1.24157
7444.76 1.68182
7444.94 2.40232
7445.11 3.70674
7445.20 4.78664
7445.29 6.37493
7445.37 8.89392
7445.42 10.7153
7445.46 13.0471
7445.51 16.2274
7445.55 20.5455
7445.59 26.4614
7445.64 34.2972
7445.72 55.0258
7445.80 69.5311
7445.84 65.8599
7445.88 56.2313
7445.96 35.2386
7446.02 25.9103
7446.07 19.4889
7446.17 11.7975
7446.27 7.72801
7446.37 5.42510
7446.47 3.98976
7446.57 3.05794
7446.77 1.95420
7446.97 1.35104
7447.17 0.988697
7447.57 0.595295
7447.97 0.397028
7448.37 0.283935
7448.78 0.213123
7449.18 0.166093
7449.98 0.109258
7450.78 0.0775905
7451.59 0.0581661
7452.39 0.0454172
7453.99 0.0302251
7455.60 0.0218901
7457.20 0.0168340
7458.81 0.0135494
7462.02 0.00969910
7465.23 0.00764257
7471.65 0.00570550
7478.08 0.00495584
7484.50 0.00470821
7497.34 0.00496478
7510.19 0.00601849
7523.03 0.00858220
7529.46 0.0115725
7532.67 0.0143150
7535.88 0.0190731
7539.09 0.0288216
7540.69 0.0382985
7542.30 0.0552901
7543.91 0.0908878
7544.71 0.125656
7545.51 0.187613
7546.31 0.315309
7547.12 0.649039
7547.52 1.06680
7547.72 1.44688
7547.92 2.06843
7548.12 3.19825
7548.22 4.13260
7548.32 5.53036
7548.42 7.76637
7548.47 9.38015
7548.52 11.5132
7548.57 14.3865
7548.62 18.3256
7548.67 23.7896
7548.72 31.3365
7548.90 64.7592
7548.95 61.8585
7548.99 53.0652
7549.08 33.4475
7549.14 24.1334
7549.20 17.8411
7549.31 10.4836
7549.43 6.76226
7549.55 4.68410
7549.66 3.42274
7549.78 2.60520
7550.01 1.65319
7550.25 1.13915
7550.48 0.833655
7550.95 0.502487
7551.42 0.337069
7551.88 0.242878
7552.35 0.184251
7552.82 0.145332
7553.75 0.0985290
7554.69 0.0726595
7556.55 0.0467074
7558.42 0.0348361
7560.29 0.0286817
7564.03 0.0234756
7571.50 0.0233721
7578.98 0.0301117
7586.45 0.0463940
7590.19 0.0622666
7593.92 0.0899258
7595.79 0.112156
7597.66 0.144549
7598.60 0.166641
7599.53 0.194436
7600.46 0.230111
7601.40 0.276929
7602.33 0.340091
7603.27 0.427863
7604.20 0.554754
7605.13 0.747192
7606.07 1.05746
7606.54 1.28702
7607.00 1.59532
7607.47 2.01883
7607.94 2.61342
7608.40 3.46191
7608.87 4.67088
7610.40 9.68529
7610.78 9.28153
7611.17 7.99352
7611.93 5.04178
7612.41 3.69409
7612.89 2.75475
7613.85 1.64596
7614.81 1.07480
7615.77 0.752486
7616.73 0.555215
7617.69 0.426808
7619.62 0.276471
7621.54 0.195756
7623.46 0.147943
7627.30 0.0974279
7631.14 0.0739835
7634.99 0.0628327
7642.67 0.0595524
7650.36 0.0769650
7654.20 0.0977762
7656.12 0.113582
7658.04 0.134954
7659.00 0.148493
7659.96 0.164512
7660.92 0.183618
7661.88 0.206585
7662.84 0.234541
7663.80 0.268901
7664.77 0.311793
7665.73 0.366051
7666.69 0.436049
7667.65 0.528099
7668.61 0.651945
7669.57 0.822688
7670.53 1.06525
7671.49 1.41885
7672.45 1.94647
7673.41 2.72895
7674.81 4.33738
7676.20 5.32528
7677.60 4.19570
7678.99 2.61706
7680.35 1.63334
7681.72 1.07507
7683.08 0.748904
7684.44 0.547431
7685.80 0.416067
7687.16 0.326324
7689.89 0.215782
7692.61 0.153229
7695.34 0.114559
7700.78 0.0713165
7706.23 0.0489795
7711.68 0.0359633
7722.58 0.0221706
7733.47 0.0154217
7744.37 0.0116788
7766.16 0.00816902
7787.95 0.00742401
7798.85 0.00802607
7809.75 0.00977266
7820.64 0.0141056
7826.09 0.0185834
7831.54 0.0267866
7834.26 0.0336653
7836.99 0.0440814
7839.71 0.0609172
7842.44 0.0907214
7843.80 0.115071
7845.16 0.151126
7846.52 0.207745
7847.88 0.304000
7848.56 0.379555
7849.25 0.487202
7849.59 0.559098
7849.93 0.647733
7850.27 0.759341
7850.61 0.901505
7850.95 1.08735
7851.29 1.33451
7851.63 1.67413
7851.97 2.15253
7852.31 2.85443
7852.65 3.91660
7852.99 5.58614
7853.33 8.20482
7853.77 13.0885
7854.20 16.1406
7854.64 12.7419
7855.07 7.94292
7855.39 5.54814
7855.71 3.98180
7856.02 2.95346
7856.34 2.25964
7856.98 1.42876
7857.61 0.977579
7858.25 0.708576
7858.89 0.536333
7860.16 0.337542
7861.43 0.231803
7862.70 0.169149
7863.97 0.129046
7865.24 0.101878
7867.79 0.0684660
7870.33 0.0495303
7872.87 0.0377890
7875.42 0.0300288
7880.50 0.0207910
7885.59 0.0158130
7895.76 0.0113829
7905.94 0.0108448
7911.02 0.0120525
7916.11 0.0150984
7921.20 0.0224077
7923.74 0.0299161
7926.28 0.0436830
7927.56 0.0552608
7928.83 0.0728472
7930.10 0.101400
7931.37 0.152224
7932.01 0.194040
7932.64 0.256354
7933.28 0.355055
7933.91 0.524583
7934.55 0.853812
7934.87 1.14819
7935.19 1.62363
7935.34 1.97847
7935.50 2.46070
7935.66 3.13708
7935.82 4.12196
7935.90 4.79342
7935.98 5.62073
7936.06 6.67964
7936.14 8.01838
7936.22 9.77554
7936.30 12.0455
7936.38 15.0187
7936.46 18.8707
7936.63 30.0833
7936.80 37.0650
7936.89 34.5919
7936.97 29.2308
7937.14 18.2044
7937.29 12.0990
7937.43 8.34599
7937.58 6.00873
7937.72 4.50368
7938.01 2.76065
7938.29 1.85419
7938.58 1.32556
7938.87 0.994215
7939.44 0.617683
7940.02 0.420333
7940.59 0.304597
7941.17 0.231039
7941.74 0.181497
7942.89 0.120795
7944.04 0.0865397
7945.19 0.0653044
7946.34 0.0512606
7948.64 0.0344015
7950.94 0.0250585
7953.24 0.0193500
7955.54 0.0156154
7960.13 0.0112088
7964.73 0.00885843
7973.93 0.00683057
7983.12 0.00679459
7987.72 0.00761841
7992.32 0.00955265
7996.91 0.0141209
7999.21 0.0188157
8001.51 0.0274602
8002.66 0.0347755
8003.81 0.0459441
8004.96 0.0642462
8006.11 0.0972387
8006.68 0.124738
8007.26 0.166242
8007.83 0.233138
8008.41 0.350960
8008.98 0.589157
8009.27 0.811093
8009.56 1.18645
8009.85 1.89867
8009.99 2.51899
8010.13 3.48476
8010.28 5.12514
8010.35 6.39671
8010.42 8.14692
8010.49 10.7044
8010.56 14.5222
8010.64 20.3794
8010.71 29.2190
8010.80 46.6368
8010.90 57.7308
8010.95 53.9569
8011.00 45.7387
8011.09 28.5172
8011.20 16.5240
8011.31 10.3392
8011.42 6.95182
8011.53 4.95312
8011.64 3.68282
8011.75 2.84507
8011.97 1.83812
8012.19 1.28010
8012.41 0.942835
8012.84 0.571881
8013.28 0.383223
8013.72 0.274752
8014.15 0.206750
8014.59 0.161430
8015.46 0.106432
8016.34 0.0757178
8017.21 0.0568039
8018.08 0.0443612
8019.83 0.0294942
8021.58 0.0212893
8023.32 0.0162833
8025.07 0.0130042
8028.56 0.00910003
8032.06 0.00694794
8039.04 0.00476601
8046.03 0.00373010
8053.02 0.00315679
8066.99 0.00258823
8094.94 0.00228643
8122.89 0.00247276
8150.84 0.00318629
8164.81 0.00393461
8178.79 0.00528130
8192.76 0.00806936
8199.75 0.0107708
8206.73 0.0155890
8210.23 0.0195826
8213.72 0.0256026
8217.21 0.0353295
8220.71 0.0526164
8222.45 0.0668411
8224.20 0.0880779
8225.95 0.121838
8227.69 0.180267
8228.57 0.227068
8229.44 0.294926
8230.32 0.398822
8230.75 0.472678
8231.19 0.568772
8231.63 0.697508
8232.06 0.874760
8232.28 0.989674
8232.50 1.12758
8232.94 1.50295
8233.15 1.76349
8233.37 2.09280
8233.59 2.51749
8233.81 3.07457
8234.03 3.82183
8234.25 4.83019
8234.46 6.20818
8234.68 8.07732
8235.09 12.9474
8235.50 16.2799
8235.71 15.3797
8235.91 13.1048
8236.32 8.20999
8236.73 5.05933
8237.14 3.29072
8237.54 2.27058
8237.95 1.64705
8238.36 1.24386
8238.77 0.970238
8239.58 0.635676
8240.40 0.447886
8241.22 0.332543
8242.85 0.204555
8244.48 0.139114
8246.11 0.101349
8247.74 0.0776741
8249.37 0.0619314
8252.64 0.0431174
8255.90 0.0330316
8262.43 0.0244180
8268.96 0.0243060
8272.22 0.0276694
8275.48 0.0353802
8278.75 0.0531509
8280.38 0.0710407
8282.01 0.103311
8282.83 0.130087
8283.64 0.170255
8284.46 0.234404
8285.27 0.346066
8286.09 0.566483
8286.50 0.767289
8286.91 1.09820
8287.11 1.35009
8287.31 1.69872
8287.52 2.19934
8287.72 2.95125
8287.82 3.47511
8287.93 4.14490
8288.03 5.01631
8288.13 6.17132
8288.23 7.73160
8288.33 9.87595
8288.44 12.8539
8288.54 16.9118
8288.72 27.0510
8288.90 33.8109
8288.99 31.8241
8289.08 27.0536
8289.26 16.9135
8289.42 11.2724
8289.57 7.80359
8289.72 5.63160
8289.87 4.22018
8290.17 2.59405
8290.47 1.74378
8290.77 1.24796
8291.07 0.937162
8291.67 0.584073
8292.27 0.399092
8292.87 0.290788
8293.47 0.221932
8294.07 0.175485
8295.27 0.118664
8296.47 0.0866161
8297.67 0.0668099
8298.87 0.0537518
8301.27 0.0381892
8303.67 0.0297297
8308.48 0.0216512
8313.28 0.0185881
8318.08 0.0178411
8327.69 0.0207384
8332.49 0.0245495
8337.29 0.0308422
8342.09 0.0413883
8346.90 0.0602607
8351.70 0.0983093
8354.10 0.133503
8355.30 0.158877
8356.50 0.192333
8357.70 0.237734
8358.30 0.266753
8358.90 0.301350
8359.50 0.343170
8360.10 0.394145
8360.70 0.457188
8361.30 0.536307
8361.91 0.637443
8362.51 0.768703
8363.11 0.942880
8363.71 1.17934
8364.31 1.50885
8364.91 1.97729
8365.51 2.65518
8366.11 3.63043
8367.05 5.78949
8368.00 7.15152
8368.95 5.65603
8369.89 3.52578
8370.46 2.62343
8371.03 1.98487
8372.17 1.21382
8373.30 0.803884
8374.44 0.567220
8375.57 0.419936
8376.71 0.322866
8378.98 0.207439
8381.25 0.144332
8383.52 0.106241
8388.06 0.0646226
8392.60 0.0436043
8397.14 0.0315450
8401.68 0.0239903
8406.23 0.0189463
8415.31 0.0128385
8424.39 0.00942325
8442.56 0.00594844
8460.72 0.00433006
8478.89 0.00348281
8515.22 0.00281250
8551.55 0.00289917
8587.88 0.00385347
8606.04 0.00509933
8615.12 0.00622329
8624.21 0.00810716
8633.29 0.0117947
8637.83 0.0152601
8642.37 0.0213438
8646.91 0.0338640
8649.18 0.0459884
8651.45 0.0675464
8652.59 0.0853358
8653.73 0.111948
8654.86 0.154430
8656.00 0.228494
8657.13 0.375533
8657.70 0.510348
8657.98 0.607035
8658.27 0.733645
8658.55 0.905091
8658.83 1.14405
8659.12 1.49032
8659.26 1.72442
8659.40 2.01458
8659.54 2.38510
8659.69 2.86363
8659.83 3.49387
8659.97 4.34194
8660.11 5.50921
8660.25 7.15119
8660.40 9.49734
8660.54 12.8107
8660.77 20.5752
8661.00 26.1367
8661.12 24.8378
8661.23 21.2569
8661.46 13.3432
8661.61 9.71477
8661.76 7.21880
8662.06 4.29295
8662.35 2.78796
8662.65 1.94275
8662.95 1.42469
8663.24 1.08854
8663.84 0.693344
8664.43 0.480227
8665.02 0.352758
8666.21 0.214745
8667.39 0.145772
8668.58 0.106544
8669.77 0.0821946
8670.95 0.0661172
8673.32 0.0469912
8675.70 0.0366857
8680.44 0.0271380
8685.18 0.0239118
8689.93 0.0236555
8699.41 0.0290077
8708.90 0.0443321
8713.64 0.0594985
8718.39 0.0855834
8720.76 0.106116
8721.94 0.119379
8723.13 0.135357
8724.32 0.154828
8725.50 0.178868
8726.69 0.208988
8727.28 0.226975
8727.87 0.247333
8729.06 0.297185
8730.25 0.363404
8731.43 0.453645
8732.62 0.580277
8733.80 0.763879
8734.99 1.03934
8736.18 1.46458
8737.36 2.12124
8738.93 3.37798
8740.50 4.16360
8742.07 3.28987
8743.64 2.05192
8744.60 1.51855
8745.56 1.14402
8747.48 0.695118
8749.40 0.458629
8751.32 0.322845
8753.24 0.238716
8755.16 0.183414
8759.00 0.117845
8762.85 0.0821330
8766.69 0.0606359
8774.37 0.0372487
8782.05 0.0255541
8789.73 0.0189740
8797.41 0.0150163
8805.09 0.0125978
8820.46 0.0107301
8828.14 0.0112170
8835.82 0.0132526
8843.50 0.0187030
8847.34 0.0244585
8851.18 0.0350825
8853.10 0.0440247
8855.02 0.0575746
8856.95 0.0794945
8858.87 0.118250
8859.83 0.149906
8860.79 0.196661
8861.75 0.269901
8862.71 0.393942
8863.67 0.628580
8864.15 0.832804
8864.39 0.973870
8864.63 1.15333
8864.87 1.38602
8865.11 1.69442
8865.35 2.11352
8865.59 2.69950
8865.83 3.54503
8866.07 4.80517
8866.31 6.73249
8866.55 9.67354
8866.87 15.3674
8867.20 18.6635
8867.53 14.5128
8867.85 9.00581
8868.10 6.27970
8868.34 4.51066
8868.58 3.34946
8868.82 2.56543
8869.30 1.62371
8869.78 1.11264
8870.26 0.806870
8870.74 0.611277
8871.70 0.385011
8872.66 0.264450
8873.62 0.192992
8874.58 0.147150
8875.54 0.116070
8877.46 0.0777904
8879.38 0.0560214
8881.30 0.0424673
8883.22 0.0334548
8887.07 0.0225745
8890.91 0.0164938
8898.59 0.0102524
8906.28 0.00724291
8913.96 0.00554255
8929.33 0.00375390
8944.70 0.00285531
8960.07 0.00232806
8990.81 0.00175662
9052.28 0.00134151
9113.76 0.00133376
9175.23 0.00169343
9205.97 0.00212757
9236.71 0.00294662
9267.44 0.00469303
9282.81 0.00640510
9298.18 0.00946504
9305.87 0.0119945
9313.55 0.0157880
9321.24 0.0218597
9328.92 0.0324836
9336.60 0.0536855
9340.45 0.0732496
9342.37 0.0873487
9344.29 0.105966
9346.21 0.131238
9347.17 0.147403
9348.13 0.166706
9349.09 0.190052
9350.05 0.218565
9351.01 0.253934
9351.97 0.298377
9352.93 0.355297
9353.89 0.429451
9354.85 0.528363
9355.81 0.663200
9356.78 0.852158
9357.74 1.12309
9358.70 1.51959
9359.66 2.09607
9361.13 3.34553
9362.60 4.14716
9363.34 3.88474
9364.07 3.29136
9365.54 2.05354
9366.67 1.41280
9367.79 1.00160
9368.91 0.735981
9370.04 0.559099
9372.28 0.350161
9374.53 0.238244
9376.78 0.172110
9379.02 0.130070
9383.51 0.0818667
9388.01 0.0564617
9392.50 0.0415407
9401.48 0.0258152
9410.47 0.0185435
9419.45 0.0157186
9423.95 0.0163140
9428.44 0.0208876
9432.93 0.0499331
9434.05 0.0800775
9435.18 0.164221
9435.74 0.278293
9436.30 0.586660
9436.58 0.990175
9436.86 2.02694
9437.00 3.29992
9437.07 4.42687
9437.14 6.23735
9437.21 9.40078
9437.28 15.6060
9437.32 21.1377
9437.35 29.8834
9437.39 44.3589
9437.42 68.7245
9437.46 109.954
9437.50 137.436
9437.54 109.948
9437.58 68.7203
9437.62 43.3092
9437.65 28.9545
9437.69 20.1909
9437.72 14.8705
9437.80 8.87629
9437.87 5.85681
9437.94 4.14161
9438.02 3.07938
9438.16 1.89665
9438.45 0.923753
9438.74 0.547405
9439.33 0.259211
9439.91 0.152931
9441.08 0.0743823
9442.24 0.0461361
9446.90 0.0181934
9456.23 0.0112753
9465.56 0.0110399
9474.88 0.0132492
9484.21 0.0193193
9488.87 0.0256077
9493.53 0.0370283
9495.86 0.0465165
9498.19 0.0607387
9500.53 0.0834176
9502.86 0.122784
9505.19 0.200160
9506.35 0.270287
9506.94 0.320145
9507.52 0.385057
9507.81 0.425296
9508.10 0.471967
9508.69 0.591597
9508.98 0.669079
9509.27 0.762141
9509.56 0.875502
9509.85 1.01527
9510.14 1.19058
9510.43 1.41216
9510.73 1.69860
9511.02 2.07245
9511.31 2.57178
9511.60 3.24324
9511.89 4.15472
9512.18 5.37858
9512.74 8.56097
9513.30 10.4720
9513.86 8.20211
9514.42 5.10263
9514.85 3.50187
9515.28 2.47905
9515.71 1.82026
9516.14 1.38308
9517.00 0.865813
9517.87 0.589156
9518.73 0.425493
9519.59 0.321470
9521.31 0.201974
9523.03 0.138831
9524.76 0.101553
9528.20 0.0616677
9531.65 0.0419436
9535.09 0.0308119
9541.99 0.0194637
9548.88 0.0142450
9555.77 0.0116293
9569.55 0.0101016
9583.33 0.0121639
9590.23 0.0152385
9597.12 0.0212736
9600.56 0.0264436
9604.01 0.0343217
9607.45 0.0470728
9610.90 0.0695633
9614.35 0.114738
9616.07 0.156596
9617.79 0.226754
9618.65 0.281138
9619.51 0.357524
9619.94 0.407913
9620.38 0.469605
9620.81 0.546167
9621.24 0.642385
9621.67 0.765973
9622.10 0.927492
9622.53 1.14323
9622.96 1.43762
9623.39 1.85171
9623.82 2.44605
9624.25 3.31820
9624.68 4.58276
9625.34 7.28056
9626.00 8.83454
9626.66 6.86445
9627.32 4.26081
9627.87 2.84700
9628.41 1.97422
9628.96 1.42759
9629.50 1.07231
9630.59 0.661229
9631.68 0.445448
9632.78 0.319565
9633.87 0.240154
9636.05 0.149730
9638.23 0.102285
9640.41 0.0744122
9642.60 0.0566644
9644.78 0.0446753
9649.14 0.0299847
9653.51 0.0216715
9657.87 0.0165124
9662.24 0.0130943
9670.96 0.00899403
9679.69 0.00673909
9697.15 0.00457777
9714.61 0.00392857
9723.34 0.00407247
9732.07 0.00472779
9740.80 0.00652100
9745.16 0.00844034
9749.52 0.0120294
9751.71 0.0150878
9753.89 0.0197790
9756.07 0.0274895
9758.25 0.0414601
9759.34 0.0531375
9760.44 0.0708170
9761.53 0.0994310
9762.62 0.150245
9763.16 0.191955
9763.71 0.253830
9764.25 0.351681
9764.80 0.518959
9765.35 0.841654
9765.62 1.12806
9765.89 1.58478
9766.16 2.38128
9766.30 3.01956
9766.44 3.93080
9766.57 5.30495
9766.64 6.24764
9766.71 7.43780
9766.78 8.95512
9766.85 10.9028
9766.91 13.4041
9766.98 16.5779
9767.06 21.2108
9767.14 26.3903
9767.30 32.1051
9767.38 29.7496
9767.46 24.9982
9767.62 15.5408
9767.80 9.09263
9767.97 5.72733
9768.15 3.86199
9768.33 2.76231
9768.51 2.06188
9768.68 1.59624
9769.04 1.03441
9769.39 0.722270
9769.75 0.532702
9770.46 0.323494
9771.17 0.217003
9771.88 0.155756
9772.58 0.117300
9773.29 0.0915910
9774.71 0.0604208
9776.13 0.0429895
9777.55 0.0322584
9778.97 0.0251856
9781.80 0.0167313
9784.64 0.0120612
9787.48 0.00920915
9790.31 0.00733876
9795.99 0.00510911
9801.66 0.00387747
9813.01 0.00262755
9824.35 0.00203884
9835.70 0.00172547
9858.39 0.00148659
9881.09 0.00161299
9892.43 0.00187651
9903.78 0.00242839
9915.13 0.00367536
9920.80 0.00493567
9926.47 0.00724010
9929.31 0.00918229
9932.15 0.0121474
9934.98 0.0170053
9937.82 0.0257949
9939.24 0.0331538
9940.66 0.0443098
9942.08 0.0624277
9943.49 0.0947907
9944.20 0.121540
9944.91 0.161511
9945.62 0.225179
9946.33 0.335695
9947.04 0.553039
9947.75 1.07404
9948.10 1.65900
9948.28 2.14218
9948.46 2.86261
9948.55 3.36424
9948.64 4.00266
9948.72 4.82852
9948.81 5.90130
9948.90 7.35112
9948.99 9.29424
9949.08 11.9777
9949.17 15.5616
9949.25 19.9278
9949.33 24.7709
9949.50 30.3192
9949.58 28.1648
9949.67 23.7532
9949.83 14.7665
9949.95 10.4711
9950.07 7.61161
9950.19 5.70286
9950.30 4.40653
9950.53 2.82032
9950.77 1.94460
9951.00 1.41482
9951.23 1.07464
9951.70 0.678642
9952.17 0.466239
9952.63 0.340066
9953.10 0.258858
9953.57 0.203792
9954.50 0.135874
9955.43 0.0972694
9956.37 0.0732868
9957.30 0.0574205
9959.16 0.0384461
9961.03 0.0281248
9962.90 0.0220939
9964.76 0.0185314
9968.49 0.0161601
9970.36 0.0173217
9972.22 0.0211423
9974.09 0.0309543
9975.96 0.0602491
9976.89 0.100753
9977.82 0.211753
9978.29 0.358490
9978.75 0.739520
9978.99 1.21194
9979.22 2.33374
9979.34 3.58402
9979.45 6.10538
9979.51 8.48796
9979.57 12.3560
9979.63 19.1198
9979.69 31.3194
9979.74 50.1083
9979.80 62.6330
9979.86 50.1063
9979.91 31.3179
9979.96 21.6248
9980.00 15.4787
9980.00 0.602362
10000.0 0.601707
12000.0 0.544719
14000.0 0.500340
16000.0 0.464470
18000.0 0.434717
20000.0 0.409567
22000.0 0.387995
24000.0 0.369282
26000.0 0.352897
28000.0 0.338442
30000.0 0.325606
32000.0 0.314146
34000.0 0.303866
36000.0 0.294607
38000.0 0.286237
40000.0 0.278646
42000.0 0.271742
44000.0 0.265447
46000.0 0.259692
48000.0 0.254421
50000.0 0.249583
52000.0 0.245133
54000.0 0.241035
56000.0 0.237254
58000.0 0.233759
60000.0 0.230525
62000.0 0.227528
64000.0 0.224746
66000.0 0.222162
68000.0 0.219757
70000.0 0.217517
72000.0 0.215427
74000.0 0.213476
76000.0 0.211652
78000.0 0.209945
80000.0 0.208344
80000.0 0.208213
80017.8 0.208117
80017.8 0.208117
90000.0 0.154531
100000 0.142771
120000 0.121565
150000 0.100914
170000 0.0892998
200000 0.0839131
250000 0.0777848
263110 0.0768541
263110 0.0768541
270000 0.0763650
300000 0.0742352
320000 0.0745030
350000 0.0749048
400000 0.0759212
420000 0.0762317
450000 0.0766975
470000 0.0770080
500000 0.0774737
520000 0.0776741
542423 0.0778989
542423 0.0778989
544500 0.0779197
544500 0.0779197
550000 0.0779748
570000 0.0781752
600000 0.0784759
620000 0.0790807
650000 0.0799879
664215 0.0804177
670000 0.0805926
700000 0.0814998
800000 0.0866630
900000 0.0930618
910176 0.0938774
910177 0.0938775
950000 0.0970694
980000 0.0994740
983331 0.0997409
983331 0.0997410
1.00000E+06 0.101077
1.02000E+06 0.100155
1.03019E+06 0.0996858
1.03019E+06 0.0996858
1.04000E+06 0.0992337
1.04824E+06 0.0988540
1.04824E+06 0.0988538
1.06000E+06 0.0983120
1.08000E+06 0.0973904
1.10000E+06 0.0964687
1.12000E+06 0.0955470
1.14000E+06 0.0946254
1.16000E+06 0.0937037
1.16632E+06 0.0934125
1.16632E+06 0.0934123
1.18000E+06 0.0927821
1.18394E+06 0.0926005
1.18395E+06 0.0926003
1.19468E+06 0.0921056
1.19468E+06 0.0921054
1.20000E+06 0.0918604
1.20374E+06 0.0916505
1.20374E+06 0.0916504
1.22000E+06 0.0907377
1.24000E+06 0.0896150
1.26000E+06 0.0884923
1.26786E+06 0.0880513
1.26786E+06 0.0880511
1.27153E+06 0.0878451
1.27153E+06 0.0878451
1.27356E+06 0.0877312
1.27356E+06 0.0877309
1.28000E+06 0.0873697
1.30000E+06 0.0862470
1.32000E+06 0.0851243
1.34000E+06 0.0840016
1.35913E+06 0.0829279
1.35913E+06 0.0829277
1.36000E+06 0.0828789
1.36710E+06 0.0824805
1.36710E+06 0.0824804
1.38000E+06 0.0817562
1.38065E+06 0.0817197
1.38065E+06 0.0817196
1.38939E+06 0.0812292
1.38939E+06 0.0812291
1.39988E+06 0.0806403
1.39989E+06 0.0806400
1.40000E+06 0.0806335
1.41182E+06 0.0799700
1.41182E+06 0.0799700
1.41562E+06 0.0797567
1.41563E+06 0.0797564
1.42000E+06 0.0795109
1.42303E+06 0.0793408
1.42303E+06 0.0793407
1.44000E+06 0.0783882
1.44920E+06 0.0778718
1.44920E+06 0.0778717
1.46000E+06 0.0772655
1.46158E+06 0.0771770
1.46158E+06 0.0771768
1.48000E+06 0.0761428
1.49083E+06 0.0755349
1.49083E+06 0.0755347
1.50000E+06 0.0750201
1.50861E+06 0.0747772
1.50862E+06 0.0747771
1.52000E+06 0.0744560
1.52709E+06 0.0742560
1.52709E+06 0.0742559
1.54000E+06 0.0738918
1.56000E+06 0.0733277
1.58000E+06 0.0727635
1.60000E+06 0.0721994
1.70000E+06 0.0693787
1.80000E+06 0.0665580
1.90000E+06 0.0637373
2.00000E+06 0.0609166
2.20000E+06 0.0534755
2.40000E+06 0.0460344
2.50000E+06 0.0423139
2.60000E+06 0.0385934
2.72026E+06 0.0341190
2.80000E+06 0.0311523
3.00000E+06 0.0237112
3.20000E+06 0.0211933
3.70000E+06 0.0151976
4.00000E+06 0.0120740
4.50000E+06 0.00841929
5.00000E+06 0.00623006
5.50000E+06 0.00471067
6.00000E+06 0.00371468
6.50000E+06 0.00304676
7.00000E+06 0.00253667
7.50000E+06 0.00223687
7.80000E+06 0.00207572
7.98769E+06 0.00197489
7.98770E+06 0.00197489
8.00000E+06 0.00196828
8.25000E+06 0.00188463
8.50000E+06 0.00178176
8.57241E+06 0.00176793
8.68210E+06 0.00174698
9.00000E+06 0.00168627
9.50000E+06 0.00163056
1.00000E+07 0.00159873
1.05000E+07 0.00161068
1.10000E+07 0.00161223
1.15000E+07 0.00164231
1.20000E+07 0.00159397
1.25000E+07 0.00148587
1.30000E+07 0.00139459
1.35000E+07 0.00127130
1.40000E+07 0.00115723
1.43883E+07 0.00112110
1.43883E+07 0.00112110
1.45000E+07 0.00111071
1.50000E+07 0.000999618
1.55000E+07 0.000925020
1.60000E+07 0.000811473
1.60680E+07 0.000798822
1.65000E+07 0.000718426
1.70000E+07 0.000616691
1.75000E+07 0.000527256
1.80000E+07 0.000457021
1.81000E+07 0.000428058
1.82000E+07 0.000417837
1.89000E+07 0.000360875
1.90000E+07 0.000352738
1.92000E+07 0.000322784
2.00000E+07 0.000271763