Bi-209(n,tot) ENDF/B-VII.1
Energy(eV) XS(b)
1.00000E-05 11.0004
1.25000E-05 10.8209
1.50000E-05 10.6884
2.00000E-05 10.5024
2.75000E-05 10.3255
3.50000E-05 10.2090
4.25000E-05 10.1249
5.00000E-05 10.0606
6.25000E-05 9.98030
7.50000E-05 9.92104
0.000100000 9.83787
0.000125000 9.78111
0.000150000 9.73921
0.000200000 9.68039
0.000275000 9.62443
0.000350000 9.58760
0.000425000 9.56101
0.000500000 9.54066
0.000625000 9.51527
0.000750000 9.49654
0.00100000 9.47023
0.00125000 9.45228
0.00150000 9.43903
0.00200000 9.42043
0.00275000 9.40274
0.00350000 9.39109
0.00425000 9.38268
0.00500000 9.37624
0.00625000 9.36822
0.00750000 9.36229
0.0100000 9.35397
0.0125000 9.34829
0.0150000 9.34410
0.0200000 9.33821
0.0253000 9.33399
0.0314750 9.33049
0.0376500 9.32789
0.0500000 9.32421
0.0625000 9.32166
0.0750000 9.31978
0.100000 9.31712
0.125000 9.31531
0.150000 9.31396
0.200000 9.31205
0.275000 9.31021
0.350000 9.30898
0.500000 9.30736
0.750000 9.30573
1.00000 9.30466
1.50000 9.30321
2.00000 9.30215
2.75000 9.30089
3.50000 9.29982
5.00000 9.29794
7.50000 9.29513
10.0000 9.29249
15.0000 9.28739
20.0000 9.28236
27.5000 9.27482
35.0000 9.26723
50.0000 9.25177
75.0000 9.22498
100.000 9.19671
150.000 9.13497
200.000 9.06489
275.000 8.93930
350.000 8.77903
425.000 8.56504
500.000 8.26087
537.208 8.05514
574.416 7.79186
611.623 7.44190
648.831 6.95337
667.435 6.62914
686.039 6.22713
704.643 5.72005
723.247 5.07609
732.549 4.69852
741.850 4.29786
751.152 3.92652
760.454 3.76200
765.105 3.91585
769.756 4.44960
774.407 5.78083
779.058 8.91919
781.384 11.8981
783.709 16.6928
786.035 24.7330
788.360 39.0276
790.686 66.6655
791.848 90.5399
793.011 127.055
794.174 185.645
795.337 285.097
796.499 464.269
797.662 797.830
798.831 1352.74
800.000 1789.37
801.169 1513.70
802.338 1000.55
803.110 749.634
803.882 573.173
805.427 362.417
806.971 251.212
808.515 186.641
810.059 145.993
811.604 118.730
814.692 85.3995
817.780 66.3828
820.869 54.3825
823.957 46.2476
827.046 40.4315
833.223 32.7643
839.400 28.0024
845.577 24.7917
851.754 22.4956
864.107 19.4525
876.461 17.5406
888.815 16.2344
901.169 15.2878
925.877 14.0102
950.585 13.1884
975.292 12.6147
1000.00 12.1905
1031.25 11.7882
1062.50 11.4830
1125.00 11.0451
1187.50 10.7388
1250.00 10.5053
1375.00 10.1503
1500.00 9.86024
1625.00 9.57902
1750.00 9.26299
1875.00 8.85470
1937.50 8.58552
2000.00 8.24373
2037.63 7.98782
2075.25 7.68070
2112.88 7.30949
2150.50 6.86892
2169.31 6.63285
2188.13 6.41257
2206.94 6.27204
2225.75 6.39164
2244.56 7.34018
2253.97 8.65078
2263.38 11.3245
2272.78 17.0872
2277.49 22.4058
2282.19 30.9123
2286.89 45.1858
2291.59 70.5922
2296.30 118.874
2298.65 158.640
2301.00 214.515
2305.50 374.138
2310.00 510.703
2314.50 445.849
2319.00 304.539
2323.02 213.464
2327.04 156.132
2331.06 119.781
2335.08 95.7990
2343.12 67.4080
2351.16 51.8975
2359.19 42.4437
2367.23 36.2079
2383.31 28.6470
2399.39 24.3251
2415.46 21.5715
2431.54 19.6807
2447.62 18.3099
2479.77 16.4661
2511.93 15.2898
2544.08 14.4768
2576.24 13.8821
2640.55 13.0706
2704.85 12.5419
2769.16 12.1686
2833.47 11.8897
2962.09 11.4975
3090.71 11.2306
3219.33 11.0335
3251.48 10.9915
3283.64 10.9519
3315.79 10.9148
3331.87 10.8992
3339.91 10.9012
3341.92 10.9106
3343.92 10.9421
3344.93 10.9882
3345.93 11.1206
3346.44 11.3034
3346.69 11.4833
3346.94 11.8062
3347.19 12.4741
3347.32 13.1171
3347.44 14.2270
3347.57 16.4356
3347.63 18.4516
3347.69 21.7108
3347.76 27.6997
3347.79 32.7880
3347.82 40.1886
3347.85 52.3233
3347.88 72.2476
3347.91 108.230
3347.94 176.864
3347.97 277.809
3348.00 343.001
3348.03 278.112
3348.06 177.250
3348.09 105.515
3348.12 68.5262
3348.16 48.9413
3348.19 37.6600
3348.23 30.6638
3348.26 26.0580
3348.33 20.6515
3348.40 17.6478
3348.46 15.8606
3348.60 13.8882
3348.73 12.8863
3348.87 12.3164
3349.14 11.7206
3349.41 11.4307
3349.68 11.2690
3350.22 11.1032
3351.30 10.9800
3352.38 10.9347
3354.55 10.9001
3356.71 10.8861
3365.37 10.8651
3382.68 10.8438
3417.30 10.8080
3451.92 10.7746
3486.54 10.7427
3625.02 10.6269
3901.98 10.4302
4178.94 10.2491
4317.42 10.1528
4352.04 10.1270
4386.66 10.1004
4421.28 10.0735
4438.59 10.0645
4442.92 10.0670
4447.25 10.0814
4449.41 10.1054
4451.57 10.1776
4452.66 10.2793
4453.20 10.3808
4453.74 10.5645
4454.28 10.9492
4454.55 11.3230
4454.82 11.9790
4454.96 12.5165
4455.09 13.3031
4455.23 14.5283
4455.36 16.5864
4455.50 20.4301
4455.56 23.7604
4455.63 28.8380
4455.70 37.3732
4455.77 52.5432
4455.80 65.1238
4455.83 83.4488
4455.87 110.737
4455.90 151.179
4455.95 235.304
4456.00 292.950
4456.05 235.693
4456.10 151.668
4456.13 111.207
4456.17 84.5375
4456.23 53.8379
4456.30 38.1665
4456.37 29.5726
4456.43 24.2804
4456.50 20.9033
4456.63 16.9220
4456.76 14.7824
4456.90 13.5047
4457.16 12.1251
4457.43 11.4309
4457.69 11.0358
4458.22 10.6235
4458.76 10.4237
4459.29 10.3120
4460.35 10.1975
4461.41 10.1424
4462.47 10.1115
4464.60 10.0790
4468.85 10.0527
4473.10 10.0406
4481.60 10.0268
4490.09 10.0167
4524.09 9.98185
4558.08 9.94665
4592.08 9.90897
4660.06 9.82276
4728.05 9.71513
4796.04 9.57211
4864.03 9.36530
4898.02 9.21975
4932.01 9.02605
4966.01 8.75304
4983.00 8.56891
5000.00 8.33581
5013.64 8.09822
5027.29 7.79579
5040.93 7.39837
5054.58 6.85572
5061.40 6.50524
5068.22 6.08350
5075.04 5.57565
5081.86 4.98058
5088.69 4.38142
5092.10 4.20555
5095.51 4.35760
5098.92 5.45937
5100.62 6.88281
5102.33 9.58150
5104.04 14.8217
5104.89 19.1871
5105.74 25.5071
5106.59 34.8548
5107.45 48.9159
5108.30 70.4338
5109.15 103.250
5110.58 191.528
5112.00 277.362
5113.43 256.205
5114.85 184.110
5115.99 138.480
5117.14 107.286
5118.28 86.1655
5119.43 71.5098
5121.71 53.1936
5124.00 42.6187
5126.29 35.9123
5128.57 31.3552
5133.15 25.6474
5137.72 22.2696
5142.30 20.0621
5146.87 18.5156
5151.45 17.3766
5160.60 15.8170
5169.74 14.8033
5178.89 14.0933
5188.04 13.5690
5206.34 12.8471
5224.64 12.3735
5242.94 12.0387
5261.23 11.7891
5297.83 11.4408
5334.43 11.2080
5371.02 11.0404
5407.62 10.9131
5480.81 10.7303
5554.00 10.6028
5700.39 10.4304
5846.77 10.3125
5993.15 10.2216
6139.54 10.1460
6212.73 10.1119
6249.33 10.0956
6267.62 10.0886
6276.77 10.0904
6281.35 10.1141
6282.49 10.1409
6283.64 10.2182
6284.21 10.3249
6284.78 10.6181
6285.07 11.0050
6285.35 12.0068
6285.49 13.2384
6285.57 14.3499
6285.64 16.1198
6285.71 19.2807
6285.78 25.4561
6285.82 31.0928
6285.85 39.8101
6285.89 54.7947
6285.92 79.9402
6285.96 121.791
6286.00 150.214
6286.04 122.119
6286.08 80.3501
6286.11 59.1710
6286.14 45.0588
6286.16 35.8730
6286.19 29.7231
6286.25 22.4211
6286.31 18.4902
6286.37 16.1599
6286.43 14.6734
6286.54 12.9625
6286.66 12.0556
6286.77 11.5186
6287.01 10.9416
6287.47 10.4909
6287.93 10.3213
6288.86 10.1930
6289.79 10.1456
6293.50 10.0960
6300.92 10.0795
6315.76 10.0694
6345.44 10.0558
6404.79 10.0319
6434.47 10.0212
6464.15 10.0134
6478.99 10.0135
6486.41 10.0168
6493.83 10.0255
6501.25 10.0479
6504.96 10.0719
6508.67 10.1173
6510.53 10.1560
6512.38 10.2155
6514.24 10.3129
6516.09 10.4880
6517.02 10.6328
6517.95 10.8493
6518.87 11.1938
6519.80 11.7884
6520.73 12.9479
6521.19 13.9883
6521.66 15.6693
6522.12 18.6447
6522.58 24.5627
6522.81 29.9379
6523.05 38.5862
6523.28 53.2387
6523.51 78.4753
6523.76 119.823
6524.00 147.370
6524.25 119.977
6524.49 78.8999
6524.64 60.8036
6524.80 48.1202
6525.10 33.0116
6525.40 25.1146
6525.71 20.6128
6526.01 17.8235
6526.31 15.9936
6526.92 13.8316
6527.53 12.6530
6528.14 11.9443
6529.35 11.1700
6530.57 10.7790
6531.78 10.5544
6533.00 10.4133
6534.21 10.3189
6536.64 10.2039
6539.07 10.1389
6543.93 10.0712
6548.79 10.0378
6553.65 10.0183
6563.37 9.99655
6573.09 9.98419
6582.81 9.97565
6602.25 9.96331
6641.13 9.94502
6680.01 9.92927
6757.77 9.89996
6835.53 9.87178
7146.57 9.76257
7768.64 9.54104
8390.71 9.29185
8701.75 9.14827
8857.27 9.06966
8935.03 9.02835
8973.91 9.00882
8983.63 9.00601
8993.35 9.00921
8998.21 9.01968
9003.07 9.05668
9005.50 9.11222
9006.71 9.16890
9007.93 9.27312
9009.14 9.49446
9009.75 9.71125
9010.36 10.0953
9010.96 10.8748
9011.27 11.6035
9011.57 12.8308
9011.87 15.1487
9012.03 17.1555
9012.18 20.2594
9012.33 25.4747
9012.48 35.0162
9012.56 42.9225
9012.63 54.5445
9012.71 72.0453
9012.78 98.2748
9012.89 152.021
9013.00 188.465
9013.11 152.753
9013.22 99.1911
9013.28 74.9382
9013.35 58.0637
9013.49 38.3727
9013.63 28.1482
9013.77 22.4013
9013.90 18.8499
9014.04 16.5462
9014.31 13.8265
9014.59 12.3448
9014.86 11.4543
9015.41 10.4850
9015.96 9.99470
9016.51 9.71335
9017.61 9.41779
9018.71 9.27327
9019.81 9.19151
9022.01 9.10642
9026.40 9.04052
9030.80 9.01434
9039.59 8.99120
9048.38 8.97924
9065.96 8.96367
9083.54 8.95134
9118.70 8.92944
9136.28 8.92262
9145.07 8.93831
9147.27 8.96046
9149.46 9.02768
9150.56 9.12283
9151.66 9.38848
9152.21 9.74352
9152.49 10.0836
9152.76 10.6712
9153.04 11.8261
9153.17 12.8635
9153.31 14.5500
9153.45 17.5750
9153.52 20.0502
9153.59 23.6328
9153.65 29.2319
9153.72 38.2011
9153.79 53.8566
9153.86 81.5115
9153.93 125.445
9154.00 154.871
9154.07 126.035
9154.14 82.2514
9154.21 54.8430
9154.28 39.1407
9154.34 29.9550
9154.41 24.3462
9154.48 20.6238
9154.55 18.1138
9154.68 14.9885
9154.82 13.2063
9154.95 12.1129
9155.22 10.8879
9155.49 10.2524
9155.76 9.88329
9156.30 9.49059
9157.39 9.18701
9158.47 9.07278
9160.63 8.98550
9162.79 8.95219
9167.12 8.92522
9171.45 8.91339
9188.75 8.89282
9223.36 8.86829
9292.58 8.82371
9431.02 8.73207
9569.46 8.63383
9638.68 8.58187
9673.29 8.55547
9690.60 8.54313
9699.25 8.54092
9703.58 8.55713
9705.74 8.63574
9706.82 8.93725
9707.09 9.22430
9707.36 9.94436
9707.50 10.7964
9707.63 12.6830
9707.70 14.6223
9707.77 18.1169
9707.84 25.3856
9707.87 31.9344
9707.90 41.6976
9707.95 61.6225
9708.00 75.2594
9708.05 61.9216
9708.10 42.0702
9708.15 28.6582
9708.20 21.4516
9708.30 14.9154
9708.40 12.2564
9708.50 10.9698
9708.70 9.80382
9708.90 9.31252
9709.30 8.91442
9709.70 8.75978
9711.31 8.59550
9714.52 8.54740
9720.95 8.53139
9733.81 8.52965
9740.24 8.54260
9743.46 8.55901
9746.67 8.59183
9749.88 8.66557
9751.49 8.73985
9753.10 8.87420
9754.71 9.15209
9755.51 9.41663
9756.31 9.87110
9757.12 10.7497
9757.52 11.5299
9757.92 12.7748
9758.32 14.9388
9758.72 19.1292
9758.92 22.8101
9759.13 28.5391
9759.33 37.8206
9759.53 52.9447
9759.76 79.8906
9760.00 98.0604
9760.24 80.3443
9760.47 53.5148
9760.71 36.4367
9760.94 26.7863
9761.18 21.1832
9761.41 17.7393
9761.64 15.5019
9761.88 13.9775
9762.35 12.1044
9762.81 11.0467
9763.28 10.3935
9764.22 9.66392
9765.15 9.28642
9766.09 9.06607
9767.96 8.83151
9769.83 8.71488
9771.70 8.64802
9775.45 8.57695
9779.19 8.54077
9782.93 8.51897
9790.42 8.49327
9805.39 8.46570
9820.36 8.44723
9850.30 8.41689
9880.24 8.38882
9940.12 8.33331
10000.0 8.27656
10123.0 8.15343
10246.0 8.01961
10492.0 7.71275
10738.0 7.34069
10984.0 6.88889
11230.0 6.36727
11353.0 6.11823
11476.0 5.96327
11599.0 6.12790
11722.0 7.34334
11783.5 9.02383
11845.0 12.4249
11906.5 19.4695
11937.3 25.5257
11968.0 34.2695
12033.0 64.5339
12098.0 97.4982
12163.0 95.1021
12228.0 72.6498
12278.4 57.8759
12328.8 47.2995
12379.2 39.8708
12429.6 34.5570
12530.4 27.6944
12631.1 23.5812
12731.9 20.8932
12832.7 19.0160
13034.3 16.5787
13235.8 15.0587
13437.4 14.0019
13840.5 12.5464
14243.6 11.4219
14445.2 10.8533
14646.8 10.2030
14848.3 9.37043
14949.1 8.83074
15049.9 8.15991
15150.7 7.31184
15201.1 6.81919
15251.4 6.31675
15301.8 5.93799
15352.2 6.17800
15377.4 7.01607
15402.6 9.06707
15427.8 13.7421
15440.4 17.9185
15453.0 24.0561
15467.3 34.2138
15481.5 48.2234
15510.0 78.3748
15538.5 82.1716
15567.0 66.6637
15596.3 51.9869
15625.5 42.1076
15654.8 35.6053
15684.0 31.1765
15713.3 28.0268
15742.5 25.7000
15801.0 22.5268
15859.5 20.4847
15918.1 19.0691
16035.1 17.2415
16152.1 16.1122
16269.1 15.3425
16503.1 14.3520
16737.1 13.7321
16971.2 13.2995
17205.2 12.9734
17263.7 12.9030
17322.2 12.8361
17351.5 12.8045
17380.7 12.7767
17395.3 12.7685
17410.0 12.7780
17417.3 12.8085
17420.9 12.8443
17424.6 12.9140
17428.3 13.0682
17430.1 13.2217
17431.9 13.4937
17433.7 14.0458
17434.7 14.5611
17435.6 15.4123
17436.5 16.9994
17436.9 18.3439
17437.4 20.3370
17437.9 23.6091
17438.3 29.1176
17438.8 39.6208
17439.2 59.7629
17439.6 89.0934
17440.0 108.503
17440.4 89.3473
17440.8 61.0551
17441.2 43.1379
17441.5 33.0633
17441.9 27.0640
17442.3 23.3043
17443.0 19.1162
17443.8 16.9894
17444.5 15.7719
17445.2 15.0123
17446.7 14.1536
17448.2 13.7041
17449.7 13.4389
17452.6 13.1526
17455.6 13.0077
17458.6 12.9231
17464.5 12.8309
17470.4 12.7821
17476.3 12.7514
17488.2 12.7132
17511.9 12.6683
17535.5 12.6361
17582.9 12.5811
17630.3 12.5285
17677.6 12.4719
17725.0 12.4007
17748.7 12.3491
17760.5 12.3135
17772.4 12.2650
17784.2 12.1906
17790.1 12.1343
17796.1 12.0527
17802.0 11.9217
17804.9 11.8199
17807.9 11.6714
17810.9 11.4328
17812.3 11.2493
17813.8 10.9855
17815.3 10.5744
17816.0 10.2698
17816.8 9.85074
17817.5 9.24485
17818.3 8.33094
17819.0 7.21716
17819.2 7.26846
17819.4 8.12368
17819.5 9.46091
17819.6 11.8035
17819.7 16.1707
17819.7 24.5663
17819.8 34.4664
17819.9 46.5708
17820.0 74.3695
17820.1 76.8539
17820.3 62.1177
17820.4 48.3753
17820.5 39.4520
17820.7 33.2385
17820.8 29.3681
17820.9 26.4346
17821.1 24.4413
17821.3 21.7157
17821.6 19.9054
17821.9 18.7063
17822.4 17.1410
17822.9 16.1764
17823.5 15.5454
17824.5 14.7560
17825.6 14.2798
17826.6 13.9666
17828.8 13.5746
17830.9 13.3403
17833.0 13.1842
17837.3 12.9892
17841.5 12.8711
17845.8 12.7916
17854.3 12.6903
17862.8 12.6273
17871.3 12.5834
17888.4 12.5243
17905.4 12.4843
17922.4 12.4539
17956.5 12.4078
18024.6 12.3407
18092.7 12.2874
18365.2 12.1195
18910.1 11.8676
19455.1 11.6724
20000.0 11.5113
20214.9 11.4544
20429.8 11.4004
20644.6 11.3487
20752.1 11.3240
20805.8 11.3136
20832.7 11.3172
20839.4 11.3273
20846.1 11.3614
20849.4 11.4123
20852.8 11.5578
20854.5 11.7548
20855.3 11.9438
20856.2 12.2712
20857.0 12.9081
20857.4 13.4767
20857.8 14.3906
20858.3 15.9840
20858.7 19.0877
20858.9 21.8278
20859.1 26.1113
20859.3 33.0883
20859.5 44.5313
20859.8 64.4412
20860.0 78.6906
20860.3 65.1849
20860.5 45.4520
20860.7 34.8304
20860.9 28.2641
20861.0 23.9413
20861.2 21.0169
20861.6 17.4323
20862.0 15.5425
20862.3 14.3828
20862.7 13.6593
20863.4 12.8148
20864.1 12.3552
20864.9 12.0840
20866.3 11.7863
20869.2 11.5479
20872.1 11.4557
20877.9 11.3833
20883.7 11.3553
20895.3 11.3334
20906.9 11.3256
20930.2 11.3245
20953.4 11.3382
20965.0 11.3539
20976.6 11.3806
20988.2 11.4273
20999.8 11.5153
21005.6 11.5898
21011.4 11.7023
21017.2 11.8826
21023.0 12.1939
21028.9 12.7962
21031.8 13.3280
21034.7 14.1730
21037.6 15.6270
21040.5 18.3741
21041.9 20.7287
21043.4 24.3016
21044.8 29.8996
21046.3 38.7241
21048.1 55.6190
21050.0 67.2152
21051.9 56.3970
21053.7 39.7040
21055.8 28.2867
21057.8 22.1383
21059.8 18.6967
21061.8 16.6337
21063.8 15.3160
21065.9 14.4286
21069.9 13.3516
21073.9 12.7464
21078.0 12.3746
21086.0 11.9580
21094.1 11.7413
21102.2 11.6135
21110.2 11.5312
21118.3 11.4747
21134.5 11.4033
21150.6 11.3606
21166.7 11.3322
21182.9 11.3119
21215.2 11.2841
21247.5 11.2651
21312.0 11.2385
21376.6 11.2186
21441.2 11.2016
21570.3 11.1716
21828.6 11.1183
22086.8 11.0689
22603.4 10.9751
22861.6 10.9294
22990.8 10.9063
23055.3 10.8940
23087.6 10.8866
23103.7 10.8816
23111.8 10.8806
23115.9 10.9000
23117.9 11.0087
23118.9 11.4523
23119.1 11.8692
23119.4 12.8882
23119.5 14.1077
23119.6 16.4424
23119.8 22.9196
23119.8 29.7204
23119.9 43.2923
23119.9 62.4031
23120.0 76.7594
23120.1 63.4932
23120.1 44.6315
23120.2 34.3444
23120.2 26.9542
23120.3 19.4773
23120.4 16.1578
23120.5 14.5726
23120.7 12.9304
23120.9 12.1936
23121.3 11.5658
23121.6 11.3100
23123.2 11.0231
23126.2 10.9322
23132.3 10.9014
23144.5 10.8885
23168.9 10.8800
23217.6 10.8696
23315.1 10.8515
23510.0 10.8161
23705.0 10.7778
23802.5 10.7519
23851.2 10.7255
23863.4 10.7115
23875.6 10.6856
23881.7 10.6609
23887.8 10.6129
23890.8 10.5657
23893.9 10.4731
23895.4 10.3815
23896.9 10.2035
23897.7 10.0310
23898.4 9.70161
23899.2 8.82916
23899.6 7.52337
23899.8 6.13218
23899.9 5.74043
23899.9 7.62792
23899.9 16.6253
23900.0 31.0601
23900.0 53.8117
23900.0 57.2258
23900.1 47.9391
23900.1 34.2970
23900.1 27.4223
23900.2 20.8165
23900.4 16.1627
23900.6 14.3362
23900.7 13.4632
23901.0 12.5517
23901.4 12.0974
23902.0 11.6452
23902.7 11.4202
23904.0 11.1961
23905.3 11.0850
23908.0 10.9730
23910.6 10.9171
23915.9 10.8606
23921.1 10.8320
23931.7 10.8025
23942.2 10.7868
23963.3 10.7692
23984.3 10.7586
24068.6 10.7332
24237.1 10.6979
24405.6 10.6657
24574.1 10.6347
24742.6 10.6066
24826.8 10.5962
24911.1 10.5927
24953.2 10.5966
24995.4 10.6083
25037.5 10.6347
25079.6 10.6920
25100.7 10.7441
25121.7 10.8260
25142.8 10.9615
25163.9 11.2031
25184.9 11.6853
25195.5 12.1228
25206.0 12.8344
25216.5 14.0922
25227.0 16.5840
25232.3 18.8212
25237.6 22.3642
25242.8 28.2586
25248.1 38.2018
25254.1 55.5210
25260.0 67.5663
25266.0 56.5739
25271.9 39.5341
25278.8 27.3440
25285.6 21.0410
25292.5 17.6140
25299.3 15.5984
25306.2 14.3271
25313.1 13.4780
25326.8 12.4531
25340.5 11.8811
25354.2 11.5289
25381.6 11.1332
25409.1 10.9244
25436.5 10.7986
25464.0 10.7152
25491.4 10.6558
25546.3 10.5757
25601.1 10.5220
25656.0 10.4812
25710.9 10.4473
25820.6 10.3893
25930.3 10.3355
26149.8 10.2198
26369.3 10.0648
26479.0 9.95504
26588.8 9.80290
26643.6 9.70027
26698.5 9.56912
26753.4 9.39414
26808.2 9.14686
26835.7 8.97971
26863.1 8.76793
26890.5 8.49062
26918.0 8.11302
26945.4 7.57353
26959.1 7.21275
26972.8 6.77227
26986.6 6.25400
26993.4 5.98954
27000.3 5.77314
27007.1 5.72242
27014.0 6.15476
27020.9 7.96551
27024.3 10.0692
27027.7 13.6938
27030.8 18.9294
27033.9 26.4419
27040.0 43.9589
27046.2 47.9988
27052.3 40.5950
27059.0 32.5390
27065.7 27.0999
27072.4 23.5307
27079.1 21.1093
27085.8 19.3874
27092.5 18.1172
27105.9 16.3830
27119.4 15.2667
27132.8 14.4930
27159.6 13.4961
27186.4 12.8838
27213.2 12.4701
27240.0 12.1719
27266.9 11.9465
27320.5 11.6276
27374.1 11.4117
27427.8 11.2549
27481.4 11.1350
27588.7 10.9614
27696.0 10.8393
27910.5 10.6716
28125.1 10.5536
28339.7 10.4589
28446.9 10.4162
28554.2 10.3749
28661.5 10.3340
28715.1 10.3165
28728.6 10.3171
28742.0 10.3324
28748.7 10.3616
28755.4 10.4525
28758.7 10.5785
28760.4 10.7000
28762.1 10.9077
28763.8 11.3073
28764.6 11.6566
28765.4 12.1962
28766.3 13.1098
28767.1 14.7822
28767.5 16.1650
28767.9 18.1904
28768.4 21.2240
28768.8 25.6339
28769.4 35.3219
28770.0 41.9578
28770.6 35.8713
28771.2 26.5265
28771.7 21.5579
28772.2 18.3995
28772.6 16.2951
28773.1 14.9133
28774.0 13.2438
28775.0 12.3382
28775.9 11.7969
28776.8 11.4486
28778.7 11.0441
28780.5 10.8243
28782.4 10.6917
28786.1 10.5456
28793.5 10.4246
28801.0 10.3745
28815.8 10.3306
28830.7 10.3095
28860.4 10.2852
28890.1 10.2683
28949.6 10.2417
28964.4 10.2394
28979.3 10.2507
28986.7 10.2775
28994.1 10.3680
28997.9 10.5005
28999.7 10.6322
29001.6 10.8646
29003.4 11.3308
29004.4 11.7560
29005.3 12.4517
29006.2 13.6924
29007.1 16.1841
29007.6 18.4804
29008.1 22.0946
29008.5 28.1666
29009.0 38.5718
29009.5 56.4336
29010.0 68.5727
29010.5 57.3500
29011.0 40.1806
29011.4 31.7162
29011.7 26.0043
29012.1 22.1565
29012.4 19.5696
29013.1 16.3268
29013.8 14.5112
29014.5 13.4033
29015.2 12.6803
29016.5 11.8267
29017.9 11.3606
29019.3 11.0777
29022.1 10.7645
29024.8 10.6020
29027.6 10.5065
29033.1 10.4022
29044.2 10.3155
29055.2 10.2783
29077.3 10.2438
29099.4 10.2275
29121.5 10.2225
29143.6 10.2430
29154.6 10.2872
29160.2 10.3354
29165.7 10.4257
29171.2 10.6166
29174.0 10.7981
29176.7 11.1072
29179.5 11.6891
29180.9 12.1890
29182.2 12.9594
29183.6 14.2215
29185.0 16.4542
29186.4 20.7738
29187.1 24.4313
29187.8 29.6884
29188.9 41.9051
29190.0 50.4604
29191.1 42.8467
29192.2 30.8657
29193.5 22.4816
29194.7 18.0431
29196.0 15.5523
29197.2 14.0760
29198.4 13.1264
29199.7 12.4922
29202.1 11.7164
29204.6 11.2804
29207.1 11.0109
29212.0 10.7073
29216.9 10.5478
29221.9 10.4525
29231.8 10.3473
29241.6 10.2916
29251.5 10.2573
29271.3 10.2165
29310.8 10.1739
29350.3 10.1470
29429.3 10.1074
29449.1 10.1028
29468.8 10.1141
29478.7 10.1447
29483.7 10.1804
29488.6 10.2502
29493.5 10.4040
29496.0 10.5555
29498.5 10.8214
29501.0 11.3415
29502.2 11.8071
29503.4 12.5438
29504.7 13.8191
29505.9 16.2113
29506.5 18.2689
29507.1 21.3175
29507.7 26.1240
29508.4 33.4885
29509.2 48.3778
29510.0 58.7520
29510.8 49.6069
29511.7 35.2611
29512.4 26.1427
29513.2 20.8993
29514.0 17.7368
29514.8 15.7797
29516.4 13.5779
29517.9 12.4594
29519.5 11.8098
29521.1 11.4038
29524.2 10.9374
29527.3 10.6884
29530.5 10.5395
29536.7 10.3749
29543.0 10.2887
29549.2 10.2368
29561.8 10.1778
29586.8 10.1233
29611.9 10.0951
29662.0 10.0604
29712.1 10.0349
29812.3 9.99158
29912.6 9.95121
30313.5 9.78603
30714.4 9.59384
31115.3 9.35324
31516.2 9.03167
31917.2 8.56691
32117.6 8.24343
32318.1 7.82177
32518.5 7.25183
32618.8 6.88690
32668.9 6.68067
32681.4 6.63083
32693.9 6.59598
32700.2 6.60332
32706.5 6.68608
32709.6 6.82935
32711.2 6.97697
32712.7 7.23905
32714.3 7.76235
32715.1 8.22951
32715.9 8.97820
32716.7 10.2926
32717.4 12.7780
32717.8 14.9194
32718.2 18.1811
32718.6 23.3125
32719.0 31.5726
32719.5 47.4157
32720.0 58.4151
32720.5 48.7911
32721.0 33.2945
32721.4 25.8070
32721.7 20.6655
32722.1 17.2032
32722.4 14.8193
32723.1 11.8986
32723.8 10.2893
32724.5 9.29221
32725.2 8.64236
32726.6 7.87811
32728.0 7.45472
32729.4 7.19690
32732.2 6.90384
32735.0 6.74551
32737.7 6.64646
32743.3 6.52613
32754.5 6.39455
32765.6 6.30658
32810.3 6.02103
32854.9 5.67197
32866.1 5.53071
32877.2 5.30353
32882.8 5.10633
32885.6 4.95962
32888.4 4.75171
32891.2 4.42911
32893.9 3.85241
32895.3 3.34888
32896.7 2.53536
32898.1 1.14886
32898.8 0.633307
32899.2 1.63179
32899.3 3.35856
32899.5 7.23071
32899.6 12.0432
32899.8 18.9464
32900.0 35.5441
32900.1 40.0941
32900.2 40.3418
32900.5 34.0683
32900.8 26.4745
32901.0 21.4421
32901.3 18.1312
32901.6 15.8743
32902.1 13.0760
32902.7 11.4460
32903.2 10.3924
32903.7 9.65975
32904.8 8.71228
32905.9 8.12813
32907.0 7.73246
32909.1 7.23042
32911.3 6.92424
32913.5 6.71703
32917.8 6.45217
32922.1 6.28761
32926.4 6.17363
32935.1 6.02261
32969.6 5.76453
33038.7 5.83155
33107.9 6.97636
33142.4 8.43378
33177.0 11.0043
33210.3 15.0736
33243.5 21.1366
33310.0 36.1114
33376.5 40.9188
33443.0 35.7886
33519.6 29.1999
33596.1 24.6664
33672.7 21.6864
33749.3 19.6574
33825.9 18.2129
33902.4 17.1424
34055.6 15.6748
34208.7 14.7226
34361.8 14.0567
34438.4 13.7934
34515.0 13.5639
34553.3 13.4599
34591.6 13.3638
34610.7 13.3214
34629.8 13.2929
34639.4 13.2981
34649.0 13.3590
34653.8 13.4624
34656.2 13.5663
34658.5 13.7483
34660.9 14.1006
34662.1 14.4084
34663.3 14.8834
34664.5 15.6769
34665.7 17.0867
34666.9 19.8848
34667.5 22.2945
34668.1 25.7342
34669.1 33.7093
34670.0 39.2832
34671.0 34.4013
34671.9 26.7071
34672.5 23.0348
34673.2 20.5114
34674.4 17.5936
34675.7 16.0946
34676.9 15.2436
34678.2 14.7186
34679.4 14.3726
34681.9 13.9587
34684.4 13.7283
34686.9 13.5855
34691.9 13.4216
34701.9 13.2732
34711.9 13.2007
34731.9 13.1178
34751.9 13.0611
34792.0 12.9712
34832.0 12.8940
34912.0 12.7573
34992.0 12.6363
35152.1 12.4280
35312.2 12.2535
35632.3 11.9753
35952.4 11.7612
36272.5 11.5892
36592.7 11.4458
36752.7 11.3819
36912.8 11.3230
36992.8 11.2974
37032.9 11.2876
37072.9 11.2832
37112.9 11.2934
37132.9 11.3128
37152.9 11.3560
37172.9 11.4580
37182.9 11.5613
37192.9 11.7440
37202.9 12.1030
37207.9 12.4217
37212.9 12.9275
37217.9 13.7878
37222.9 15.3892
37225.4 16.7331
37227.9 18.7274
37230.4 21.7618
37232.9 26.3868
37236.5 36.0496
37240.0 42.9211
37243.5 37.0998
37247.1 27.7381
37250.8 21.3583
37254.5 17.8414
37258.2 15.8262
37261.9 14.6018
37265.7 13.8070
37269.4 13.2671
37276.8 12.6002
37284.2 12.2197
37291.7 11.9815
37306.5 11.7090
37321.4 11.5625
37336.2 11.4730
37351.1 11.4132
37365.9 11.3706
37395.7 11.3133
37425.4 11.2758
37484.8 11.2270
37544.2 11.1938
37603.7 11.1675
37722.5 11.1248
37960.2 11.0554
38197.9 10.9952
38435.7 10.9398
38673.4 10.8872
38911.1 10.8348
39029.9 10.8052
39089.4 10.7873
39119.1 10.7894
39126.5 10.8070
39133.9 10.8729
39137.7 10.9734
39141.4 11.2539
39143.2 11.6117
39145.1 12.4476
39146.0 13.3459
39146.9 15.0694
39147.4 16.5791
39147.9 18.8343
39148.3 22.3714
39148.8 28.0300
39149.4 39.1016
39150.0 46.9688
39150.6 40.4704
39151.2 29.7313
39151.6 24.7178
39152.0 21.2659
39152.8 17.1464
39153.6 15.0173
39154.4 13.8162
39155.1 13.0620
39155.9 12.5702
39157.5 11.9767
39159.1 11.6458
39160.6 11.4439
39163.8 11.2166
39170.1 11.0243
39176.4 10.9442
39188.9 10.8756
39201.5 10.8454
39226.7 10.8165
39251.8 10.8011
39302.2 10.7820
39352.5 10.7681
39453.1 10.7450
39553.7 10.7242
39755.0 10.6851
39956.3 10.6473
40358.8 10.5728
40761.4 10.4975
41163.9 10.4191
41365.2 10.3779
41566.4 10.3346
41767.7 10.2889
41969.0 10.2405
42069.6 10.2172
42119.9 10.2078
42170.3 10.2036
42220.6 10.2145
42245.7 10.2355
42270.9 10.2831
42283.5 10.3271
42296.1 10.3973
42308.6 10.5143
42321.2 10.7239
42333.8 11.1405
42340.1 11.5148
42346.4 12.1147
42352.7 13.1483
42359.0 15.1071
42362.1 16.7826
42365.2 19.3009
42368.4 23.2060
42371.5 29.2874
42375.8 41.5364
42380.0 50.3409
42384.2 43.0670
42388.5 31.2053
42391.5 25.2425
42394.5 21.2454
42397.5 18.5523
42400.5 16.7072
42406.5 14.4443
42412.5 13.1831
42418.5 12.4140
42424.5 11.9113
42436.6 11.3150
42448.6 10.9856
42460.6 10.7830
42472.6 10.6483
42484.6 10.5534
42508.7 10.4296
42532.7 10.3529
42556.7 10.3005
42580.7 10.2620
42628.8 10.2076
42676.9 10.1691
42773.0 10.1126
42869.1 10.0674
42965.2 10.0264
43157.5 9.94659
43542.0 9.76980
43926.5 9.53774
44311.0 9.19408
44503.3 8.94423
44695.5 8.60057
44887.8 8.09455
44983.9 7.73997
45080.0 7.27885
45176.1 6.66585
45224.2 6.28811
45272.3 5.86557
45320.3 5.43483
45368.4 5.14602
45416.4 5.56428
45440.5 6.57031
45464.5 8.80335
45483.4 12.0154
45502.3 16.9777
45540.0 29.9448
45577.8 34.9747
45615.5 31.2444
45648.2 27.0811
45680.9 23.7458
45713.6 21.2328
45746.3 19.2986
45779.0 17.7047
45811.7 16.1873
45828.0 15.2991
45836.2 14.7525
45844.4 14.0698
45852.6 13.1315
45856.6 12.4923
45860.7 11.6633
45864.8 10.5291
45866.9 9.79635
45868.9 8.91716
45873.0 6.78248
45874.0 6.35452
45875.0 6.24381
45876.0 6.91221
45877.1 9.34514
45877.8 13.2052
45878.5 19.6058
45880.0 38.4537
45881.5 48.3662
45882.9 45.2369
45884.1 40.6073
45885.3 36.5582
45886.5 33.3720
45887.7 30.9072
45890.0 27.4558
45892.4 25.2078
45894.7 23.6453
45897.1 22.5006
45901.8 20.9356
45906.5 19.9105
45911.3 19.1807
45920.7 18.1936
45930.1 17.5394
45939.6 17.0602
45958.5 16.3786
45977.3 15.8937
45996.2 15.5163
46034.0 14.9428
46109.5 14.1634
46185.0 13.6296
46260.5 13.2297
46336.0 12.9141
46373.8 12.7795
46411.6 12.6622
46430.4 12.6188
46449.3 12.6175
46458.8 12.6761
46463.5 12.7508
46468.2 12.8970
46472.9 13.2068
46475.3 13.4957
46477.6 13.9708
46480.0 14.8127
46482.4 16.4646
46483.5 17.9198
46484.7 20.1783
46485.9 23.8095
46487.1 29.6398
46488.5 40.7932
46490.0 48.9486
46491.5 42.5254
46492.9 31.8020
46493.9 26.8261
46494.8 23.3303
46496.7 19.1721
46498.6 16.9783
46500.4 15.7088
46502.3 14.9141
46504.2 14.3841
46507.9 13.7413
46511.7 13.3771
46515.4 13.1489
46522.9 12.8829
46530.4 12.7333
46537.9 12.6366
46552.8 12.5145
46567.8 12.4352
46582.8 12.3755
46612.7 12.2836
46642.6 12.2100
46672.6 12.1460
46732.4 12.0355
46852.2 11.8551
46971.9 11.7088
47211.4 11.4803
47450.8 11.3061
47690.3 11.1659
47929.8 11.0478
48169.2 10.9422
48289.0 10.8884
48348.8 10.8567
48378.8 10.8462
48386.3 10.8565
48393.7 10.9067
48397.5 10.9887
48401.2 11.2246
48403.1 11.5274
48405.0 12.2376
48405.9 12.9961
48406.8 14.4133
48407.3 15.6296
48407.8 17.4583
48408.2 20.2837
48408.7 24.6301
48409.4 33.5673
48410.0 40.2188
48410.7 35.0172
48411.3 26.4364
48411.9 20.9191
48412.5 17.7072
48413.1 15.7482
48413.8 14.5322
48415.0 13.1499
48416.2 12.4366
48418.7 11.7580
48421.1 11.4538
48426.0 11.1878
48430.9 11.0741
48440.8 10.9754
48450.6 10.9316
48470.2 10.8895
48489.9 10.8670
48529.2 10.8390
48568.5 10.8186
48647.1 10.7847
48725.7 10.7540
48882.9 10.6948
49040.0 10.6338
49197.2 10.5661
49354.4 10.4823
49433.0 10.4278
49511.6 10.3563
49550.9 10.3098
49590.2 10.2511
49629.5 10.1750
49649.1 10.1490
49654.0 10.1680
49658.9 10.2554
49661.4 10.3891
49663.8 10.7409
49665.1 11.1551
49666.3 12.0274
49666.9 12.8609
49667.5 14.2267
49668.1 16.6273
49668.8 21.0512
49669.4 28.2304
49670.0 33.4940
49670.6 29.4235
49671.2 22.5417
49671.9 17.6783
49672.6 15.0210
49673.3 13.5197
49674.0 12.6108
49675.3 11.6246
49676.7 11.1305
49679.4 10.6669
49682.1 10.4576
49687.6 10.2655
49693.0 10.1725
49703.9 10.0663
49714.7 9.98956
49736.5 9.83980
49758.2 9.64848
49769.1 9.52128
49779.9 9.35973
49790.8 9.14607
49801.7 8.84899
49812.5 8.40804
49818.0 8.09783
49823.4 7.69529
49828.9 7.16103
49834.3 6.46900
49837.0 6.09497
49839.7 5.82559
49842.4 6.04955
49843.8 6.68700
49845.1 8.07270
49846.4 10.3987
49847.6 14.1090
49850.0 24.4196
49852.4 29.1805
49854.9 26.9006
49857.1 23.7145
49859.4 21.1603
49861.7 19.2868
49863.9 17.9116
49868.5 16.0850
49873.0 14.9558
49877.6 14.1959
49882.1 13.6551
49891.2 12.9377
49900.2 12.4857
49909.3 12.1754
49918.4 11.9492
49927.4 11.7770
49945.6 11.5316
49963.7 11.3650
49981.9 11.2439
50000.0 11.1516
50047.0 10.9888
50094.0 10.8852
50141.0 10.8117
50188.0 10.7557
50282.1 10.6728
50376.1 10.6112
50470.1 10.5612
50564.1 10.5207
50611.1 10.5083
50658.1 10.5191
50681.6 10.5572
50693.4 10.6014
50705.1 10.6847
50716.9 10.8567
50722.8 11.0146
50728.6 11.2705
50734.5 11.7173
50740.4 12.5720
50743.3 13.3086
50746.3 14.4263
50749.2 16.1731
50752.1 18.9053
50756.1 24.4361
50760.0 28.5093
50763.9 25.3556
50767.9 20.0542
50771.6 16.6889
50775.3 14.7036
50779.0 13.5038
50782.7 12.7456
50790.2 11.8868
50797.6 11.4414
50805.0 11.1801
50812.4 11.0133
50827.3 10.8177
50842.1 10.7095
50857.0 10.6416
50886.7 10.5611
50916.4 10.5137
50946.1 10.4811
51005.5 10.4356
51064.9 10.4020
51124.3 10.3734
51243.1 10.3228
51480.7 10.2258
51718.3 10.1168
51955.9 9.97436
52193.6 9.74906
52312.4 9.55839
52371.8 9.41900
52431.2 9.22399
52490.6 8.92482
52520.3 8.70290
52550.0 8.39319
52579.7 7.92868
52594.5 7.59706
52609.4 7.15721
52624.2 6.55390
52631.7 6.16726
52639.1 5.71464
52646.5 5.20798
52653.9 4.74511
52661.4 4.76680
52665.1 5.41963
52668.8 7.15330
52671.6 9.75168
52674.4 13.9405
52680.0 25.5450
52685.6 30.9591
52691.2 28.4372
52694.8 25.9496
52698.4 23.7190
52705.6 20.3874
52712.7 18.2039
52719.9 16.7237
52727.0 15.6694
52734.2 14.8888
52748.5 13.8159
52762.8 13.1174
52777.1 12.6275
52805.7 11.9851
52834.4 11.5800
52863.0 11.2984
52920.2 10.9241
52977.5 10.6753
53034.7 10.4865
53149.2 10.1825
53263.7 9.88715
53320.9 9.71543
53378.2 9.50754
53435.4 9.23540
53464.0 9.05932
53492.7 8.84025
53521.3 8.55346
53535.6 8.36985
53549.9 8.14341
53564.2 7.84816
53571.4 7.65839
53578.5 7.42346
53585.7 7.11649
53592.8 6.69118
53600.0 6.13051
53601.8 6.04317
53603.6 6.13161
53605.4 6.78487
53606.3 7.64238
53607.1 9.23158
53608.6 14.3575
53610.0 21.3519
53611.4 22.9161
53612.9 19.8915
53614.4 16.6919
53615.9 14.4861
53617.4 13.0126
53618.9 11.9928
53620.4 11.2549
53621.9 10.6985
53624.9 9.91587
53628.0 9.38124
53631.0 8.98518
53637.0 8.41244
53643.0 7.98509
53649.1 7.62691
53661.1 6.99454
53673.2 6.40661
53685.3 5.90961
53697.3 5.84214
53703.4 6.30382
53709.4 7.53316
53714.6 9.63665
53719.7 13.1399
53730.0 23.2549
53740.3 28.3820
53750.6 26.5270
53757.5 24.3645
53764.5 22.4115
53778.3 19.5078
53792.2 17.6191
53806.1 16.3424
53819.9 15.4352
53833.8 14.7632
53861.5 13.8384
53889.2 13.2340
53917.0 12.8084
53972.4 12.2472
54027.8 11.8924
54055.6 11.7612
54083.3 11.6551
54111.0 11.5803
54124.9 11.5641
54138.7 11.5787
54152.6 11.6661
54159.5 11.7731
54166.5 11.9753
54173.4 12.3834
54176.9 12.7471
54180.3 13.3162
54183.8 14.2638
54187.2 15.9481
54190.7 19.2196
54194.2 25.9125
54197.1 35.5457
54200.0 42.6800
54202.9 37.2884
54205.8 28.1272
54208.2 22.9514
54210.5 19.6461
54212.9 17.5070
54215.2 16.0881
54219.9 14.3975
54224.6 13.4790
54229.3 12.9228
54234.0 12.5601
54243.3 12.1247
54252.7 11.8780
54262.1 11.7203
54280.8 11.5292
54299.6 11.4143
54318.3 11.3346
54355.8 11.2247
54393.3 11.1469
54430.7 11.0855
54505.7 10.9896
54580.7 10.9146
54655.6 10.8522
54805.6 10.7514
54955.5 10.6700
55105.4 10.5991
55255.4 10.5323
55292.9 10.5184
55330.3 10.5178
55349.1 10.5404
55358.5 10.5711
55367.8 10.6341
55377.2 10.7756
55381.9 10.9142
55386.6 11.1516
55391.3 11.5969
55393.6 11.9728
55395.9 12.5394
55398.3 13.4404
55400.6 14.9437
55403.0 17.6142
55405.3 22.5116
55407.7 30.4908
55410.0 36.4584
55412.4 32.0371
55414.7 24.4443
55417.5 18.6927
55420.3 15.7099
55423.1 14.0826
55425.9 13.1198
55428.7 12.5077
55431.5 12.0953
55437.1 11.5905
55442.7 11.3033
55448.3 11.1230
55459.5 10.9149
55470.7 10.8012
55481.9 10.7307
55504.3 10.6482
55526.7 10.6009
55549.1 10.5694
55593.8 10.5280
55683.4 10.4774
55773.0 10.4415
55952.1 10.3828
56131.3 10.3288
56310.4 10.2712
56400.0 10.2376
56489.5 10.1968
56579.1 10.1410
56623.9 10.1018
56668.7 10.0474
56713.5 9.96326
56735.8 9.89916
56758.2 9.80630
56780.6 9.65755
56791.8 9.54263
56803.0 9.37619
56814.2 9.11224
56819.8 8.91236
56825.4 8.63057
56831.0 8.20313
56833.8 7.89640
56836.6 7.48873
56839.4 6.92940
56842.2 6.15322
56845.0 5.25959
56846.4 5.25917
56847.1 5.81075
56847.8 7.23992
56848.4 9.54414
56848.9 13.2423
56850.0 23.6490
56851.1 28.7383
56852.2 26.6589
56853.6 22.5754
56855.0 19.6538
56856.4 17.7020
56857.8 16.3775
56859.1 15.4246
56860.5 14.7216
56863.3 13.7533
56866.1 13.1206
56868.8 12.6795
56874.3 12.1039
56879.9 11.7460
56885.4 11.5029
56896.5 11.1933
56907.5 11.0042
56918.6 10.8766
56940.7 10.7146
56962.9 10.6153
56985.0 10.5477
57029.2 10.4600
57073.5 10.4043
57117.7 10.3646
57206.2 10.3093
57294.7 10.2702
57383.2 10.2390
57560.2 10.1888
57737.2 10.1460
57914.2 10.1060
58091.3 10.0638
58179.8 10.0366
58224.0 10.0198
58246.1 10.0379
58251.7 10.0757
58257.2 10.1969
58260.0 10.3627
58262.7 10.7697
58264.1 11.2233
58265.5 12.1101
58266.2 12.8918
58266.9 14.1044
58267.6 16.0524
58268.3 19.2593
58269.1 25.4289
58270.0 30.0547
58270.9 26.6894
58271.7 20.8362
58272.3 18.0545
58272.9 16.1287
58274.0 13.8089
58275.1 12.5901
58276.3 11.8912
58278.5 11.1549
58280.8 10.7997
58285.3 10.4735
58289.8 10.3300
58298.8 10.2043
58307.8 10.1493
58325.8 10.0994
58343.8 10.0755
58379.9 10.0500
58415.9 10.0345
58560.1 9.99407
58848.5 9.92904
59136.9 9.86310
59425.2 9.79077
59713.6 9.70750
60001.9 9.60637
60146.1 9.54538
60290.3 9.47363
60362.4 9.43187
60434.5 9.38380
60506.6 9.32318
60542.6 9.28370
60560.7 9.28989
60565.2 9.32958
60569.7 9.46904
60571.9 9.66870
60574.2 10.1743
60575.3 10.7507
60576.4 11.9033
60577.0 12.9654
60577.6 14.6267
60578.1 17.3718
60578.7 22.0069
60579.3 30.5935
60580.0 36.9990
60580.7 32.4256
60581.3 24.2941
60581.8 20.1568
60582.3 17.3128
60583.2 14.0881
60584.2 12.4759
60585.2 11.5802
60587.1 10.6576
60589.0 10.2208
60592.8 9.82287
60596.6 9.64759
60604.3 9.49153
60611.9 9.42078
60627.3 9.35149
60642.6 9.31351
60673.2 9.26391
60703.8 9.22512
60826.2 9.07874
60948.7 8.90055
61071.1 8.65588
61193.6 8.28734
61254.8 8.02034
61316.0 7.65890
61377.2 7.14466
61407.9 6.80031
61438.5 6.37523
61469.1 5.85577
61499.7 5.27321
61515.0 5.02329
61530.3 4.92689
61545.6 5.25627
61560.9 6.65139
61570.7 8.65698
61580.5 11.9819
61600.0 21.5743
61619.6 26.4814
61639.1 24.7821
61660.1 21.6271
61681.1 19.1532
61702.2 17.4006
61723.2 16.1479
61744.2 15.2253
61765.2 14.5243
61807.3 13.5384
61849.3 12.8828
61891.3 12.4172
61975.4 11.8007
62059.5 11.4101
62143.6 11.1391
62227.7 10.9387
62311.7 10.7834
62479.9 10.5546
62648.0 10.3888
62732.1 10.3194
62816.2 10.2559
62858.2 10.2271
62900.3 10.2068
62921.3 10.2105
62942.3 10.2573
62952.8 10.3381
62963.3 10.5599
62968.6 10.8236
62973.8 11.3760
62976.5 11.8942
62979.1 12.7418
62981.7 14.2117
62984.3 16.8005
62987.2 21.2767
62990.0 24.6815
62992.8 22.2878
62995.7 18.0634
62998.5 15.2239
63001.3 13.5864
63004.1 12.6152
63007.0 12.0062
63009.8 11.6015
63012.6 11.3216
63018.2 10.9679
63023.9 10.7598
63029.5 10.6264
63040.8 10.4683
63052.1 10.3792
63063.4 10.3221
63086.0 10.2524
63131.1 10.1792
63176.3 10.1352
63266.6 10.0736
63356.8 10.0246
63537.4 9.93663
63627.7 9.88732
63672.9 9.85784
63695.5 9.87698
63701.1 9.92525
63706.7 10.0813
63709.6 10.2930
63712.4 10.8052
63713.8 11.3583
63715.2 12.4142
63716.6 14.6755
63717.3 16.7938
63718.0 20.0670
63719.0 26.9594
63720.0 32.2659
63721.0 28.5786
63722.0 22.0875
63722.8 18.2323
63723.7 15.7964
63724.5 14.2553
63725.3 13.2427
63727.0 12.0557
63728.7 11.4209
63732.0 10.7916
63735.4 10.4984
63742.1 10.2344
63748.8 10.1181
63762.2 10.0137
63775.6 9.96546
63802.4 9.91722
63829.2 9.89032
63882.9 9.85548
63936.5 9.82948
64043.8 9.78598
64151.1 9.74684
64365.6 9.67314
64580.1 9.60134
65438.3 9.29649
65867.4 9.11483
66296.5 8.89579
66511.0 8.76530
66725.5 8.61428
66832.8 8.52810
66940.1 8.43184
67047.3 8.32722
67074.2 8.30976
67101.0 8.32926
67114.4 8.39518
67121.1 8.47167
67127.8 8.61562
67134.5 8.91024
67137.9 9.17589
67141.2 9.59854
67144.6 10.3123
67147.9 11.6130
67151.3 14.2070
67152.9 16.4617
67154.6 19.7408
67157.3 27.5424
67160.0 33.5165
67162.7 29.4045
67165.4 22.0671
67167.8 17.5618
67170.2 14.7908
67172.6 13.0538
67174.9 11.9283
67179.7 10.6164
67184.5 9.91577
67189.3 9.49680
67194.0 9.22464
67203.6 8.89995
67213.1 8.71607
67222.6 8.59859
67241.7 8.45576
67260.8 8.36890
67279.9 8.30732
67318.0 8.21796
67394.3 8.08683
67470.6 7.97225
67623.2 7.74082
67775.8 7.48190
67928.3 7.17927
68080.9 6.81712
68233.5 6.37444
68309.8 6.11708
68328.9 6.05540
68348.0 6.01762
68357.5 6.03671
68367.0 6.16149
68371.8 6.35017
68376.6 6.80875
68379.0 7.29175
68381.3 8.17069
68383.7 9.91746
68384.9 11.4221
68386.1 13.6128
68388.1 18.9289
68390.0 23.0039
68392.0 20.2232
68393.9 15.2552
68395.4 12.6094
68396.8 10.8327
68398.2 9.64135
68399.7 8.82666
68402.5 7.81633
68405.4 7.24746
68411.2 6.65546
68416.9 6.36125
68428.4 6.06881
68439.9 5.91419
68462.9 5.72588
68485.9 5.58920
68531.9 5.35646
68554.9 5.27988
68560.6 5.30326
68566.4 5.43204
68569.3 5.62708
68572.1 6.11154
68573.6 6.63870
68575.0 7.63039
68576.5 9.73119
68577.2 11.6461
68577.9 14.5623
68578.9 20.9741
68580.0 25.9942
68581.1 22.6389
68582.1 16.6319
68583.4 11.9865
68584.6 9.54996
68585.9 8.20880
68587.1 7.41327
68589.7 6.54762
68592.2 6.11357
68597.2 5.69599
68602.2 5.49776
68612.3 5.30137
68622.4 5.19482
68642.5 5.06228
68662.6 4.96954
68743.1 4.77110
68823.5 4.92977
68904.0 5.86994
68963.0 7.52009
69022.0 10.4280
69140.0 19.3988
69258.0 24.6355
69376.0 23.6139
69456.4 21.9157
69536.7 20.3069
69617.1 18.9518
69697.5 17.8466
69858.2 16.2122
70019.0 15.0911
70179.7 14.2831
70340.4 13.6713
70420.8 13.4156
70501.2 13.1873
70541.4 13.0885
70581.5 13.0262
70601.6 13.0465
70611.7 13.0964
70621.7 13.2082
70631.8 13.4590
70636.8 13.6943
70641.8 14.0761
70646.8 14.7322
70651.9 15.9399
70656.9 18.3709
70659.4 20.4890
70661.9 23.6014
70666.0 31.0513
70670.0 36.8664
70674.1 33.0718
70678.1 26.1158
70682.0 21.5288
70685.9 18.8096
70689.8 17.1620
70693.7 16.1112
70701.5 14.9074
70709.2 14.2704
70717.0 13.8877
70724.8 13.6365
70740.4 13.3286
70755.9 13.1454
70771.5 13.0211
70802.6 12.8552
70833.8 12.7408
70864.9 12.6510
70927.2 12.5074
71051.7 12.2842
71176.2 12.1005
71300.8 11.9383
71425.3 11.7889
71549.8 11.6459
71581.0 11.6132
71612.1 11.5933
71627.7 11.6044
71643.2 11.6776
71651.0 11.7918
71658.8 12.0803
71662.7 12.3958
71666.6 12.9983
71668.5 13.5125
71670.5 14.2771
71672.4 15.4531
71674.3 17.2462
71677.2 21.1955
71680.0 24.2753
71682.8 22.2676
71685.7 18.5832
71687.5 16.8511
71689.2 15.6211
71692.8 14.1186
71696.4 13.3100
71699.9 12.8351
71707.1 12.3268
71714.2 12.0729
71721.3 11.9247
71728.5 11.8288
71742.7 11.7116
71771.3 11.5923
71799.8 11.5242
71856.9 11.4322
71914.0 11.3590
72028.1 11.2242
72142.3 11.0808
72256.4 10.9030
72313.5 10.7862
72370.6 10.6323
72427.7 10.4073
72456.2 10.2445
72484.7 10.0198
72513.3 9.68414
72527.5 9.44358
72541.8 9.12159
72556.1 8.67117
72563.2 8.37448
72570.3 8.01468
72584.6 7.10743
72591.7 6.78043
72595.3 6.90167
72598.9 7.55940
72601.7 8.79221
72604.4 10.9922
72610.0 17.9113
72615.6 22.1172
72621.1 21.4656
72628.1 19.1758
72635.1 17.3754
72642.1 16.1358
72649.0 15.2697
72656.0 14.6399
72663.0 14.1657
72677.0 13.5035
72690.9 13.0641
72704.9 12.7515
72732.8 12.3333
72760.7 12.0622
72788.6 11.8675
72844.4 11.5907
72900.2 11.3735
72928.1 11.2641
72956.1 11.1385
72984.0 10.9715
72997.9 10.8550
73011.9 10.6947
73025.8 10.4489
73032.8 10.2647
73039.8 10.0041
73046.8 9.60257
73050.3 9.30695
73053.7 8.90121
73057.2 8.31296
73060.7 7.40222
73064.2 5.95780
73066.0 5.20002
73066.8 5.15589
73067.7 5.96729
73068.3 7.48705
73068.9 10.3490
73070.0 19.6134
73071.2 25.5799
73072.3 25.0092
73073.9 21.7884
73075.5 19.3181
73077.2 17.6758
73078.8 16.5605
73082.0 15.1654
73085.2 14.3442
73088.5 13.8059
73091.7 13.4288
73098.2 12.9339
73104.6 12.6228
73111.1 12.4092
73124.0 12.1323
73137.0 11.9589
73149.9 11.8386
73175.7 11.6793
73201.6 11.5753
73227.5 11.4998
73279.2 11.3930
73330.9 11.3170
73382.6 11.2575
73486.1 11.1656
73692.9 11.0338
73899.8 10.9345
74313.5 10.7798
74727.3 10.6553
75554.8 10.4490
76382.3 10.2685
77209.7 10.0929
78037.2 9.90363
78451.0 9.79578
78864.7 9.67133
79071.6 9.59926
79278.5 9.51657
79381.9 9.46912
79485.3 9.41559
79588.8 9.36250
79614.6 9.36320
79640.5 9.40950
79653.4 9.49543
79659.9 9.58341
79666.4 9.73617
79672.8 10.0216
79679.3 10.6095
79682.5 11.1467
79685.7 12.0044
79689.0 13.4285
79692.2 15.8261
79696.1 20.4142
79700.0 24.0650
79703.9 21.8299
79707.8 17.5934
79711.4 14.8745
79715.0 13.2150
79718.6 12.1893
79722.2 11.5273
79729.3 10.7578
79736.5 10.3472
79743.7 10.1003
79750.9 9.93912
79765.2 9.74459
79779.5 9.63258
79793.9 9.55974
79822.6 9.46867
79851.3 9.41115
79880.0 9.36886
79937.3 9.30463
80052.1 9.20337
80166.9 9.10812
80396.4 8.89523
80626.0 8.61548
80855.5 8.20614
80970.3 7.91454
81085.0 7.52357
81199.8 6.97154
81257.2 6.60267
81314.6 6.14609
81372.0 5.58030
81429.3 4.90968
81486.7 4.30455
81515.4 4.26947
81544.1 4.82324
81565.6 6.02703
81587.1 8.32862
81630.0 16.0611
81673.0 21.2674
81715.9 20.9876
81755.5 19.2902
81795.1 17.6969
81834.7 16.4366
81874.3 15.4670
81953.5 14.1194
82032.7 13.2467
82112.0 12.6406
82191.2 12.1952
82349.6 11.5805
82508.0 11.1688
82666.4 10.8656
82983.2 10.4225
83300.1 10.0744
83458.5 9.91025
83616.9 9.74234
83775.3 9.56225
83854.5 9.46431
83933.7 9.35874
84012.9 9.24332
84092.2 9.11753
84131.8 9.05570
84171.4 9.01815
84191.2 9.04181
84201.1 9.08749
84211.0 9.18579
84220.9 9.39928
84225.8 9.59476
84230.8 9.90417
84235.7 10.4167
84240.7 11.3155
84245.6 12.9952
84250.6 16.2575
84255.3 21.5381
84260.0 25.7920
84264.7 23.2841
84269.4 18.4271
84274.8 14.7489
84280.2 12.7388
84285.6 11.5955
84290.9 10.8963
84296.3 10.4371
84301.7 10.1184
84312.4 9.71167
84323.1 9.46467
84333.9 9.29813
84355.3 9.08145
84376.8 8.93758
84398.2 8.82667
84441.2 8.64669
84484.1 8.48749
84527.0 8.34093
84548.5 8.28743
84570.0 8.30409
84580.7 8.40857
84586.1 8.52872
84591.4 8.74497
84596.8 9.15399
84602.2 9.98808
84604.9 10.7379
84607.5 11.9023
84610.2 13.7708
84612.9 16.7892
84616.5 23.0320
84620.0 28.0634
84623.6 25.0972
84627.1 19.3505
84630.5 15.5500
84633.8 13.2598
84637.2 11.8488
84640.6 10.9407
84647.3 9.88257
84654.0 9.30846
84660.8 8.95470
84667.5 8.71511
84680.9 8.40599
84694.4 8.20589
84707.9 8.05653
84734.8 7.82607
84788.6 7.45434
84842.5 7.10256
84896.3 6.75001
84950.1 6.43200
85004.0 6.28260
85057.8 6.68346
85090.9 7.55897
85123.9 9.25232
85190.0 14.9834
85256.1 18.8698
85322.2 18.6794
85387.6 17.3307
85452.9 16.0871
85518.3 15.1245
85583.7 14.3953
85714.4 13.3957
85845.2 12.7547
85975.9 12.3112
86106.6 11.9859
86368.1 11.5371
86629.6 11.2377
86891.1 11.0194
87414.0 10.7118
87937.0 10.4933
88460.0 10.3183
88982.9 10.1613
89113.7 10.1206
89244.4 10.0752
89309.8 10.0481
89375.1 10.0140
89440.5 9.96835
89456.8 9.96211
89473.2 9.98809
89481.4 10.0530
89489.5 10.2614
89493.6 10.5322
89497.7 11.1379
89499.7 11.7373
89501.8 12.7593
89503.8 14.6136
89505.9 18.0897
89507.9 24.0104
89510.0 28.8666
89512.1 26.1795
89514.1 20.7990
89515.7 17.8850
89517.2 15.9037
89518.7 14.5626
89520.2 13.6383
89523.2 12.4862
89526.3 11.8305
89532.3 11.1492
89538.4 10.8159
89550.5 10.5031
89562.6 10.3592
89586.9 10.2256
89611.1 10.1619
89659.6 10.0968
89708.1 10.0601
89805.1 10.0127
89902.1 9.97721
90096.0 9.91723
90290.0 9.86147
90483.9 9.80538
90677.9 9.74525
90774.9 9.71132
90871.9 9.67111
90968.8 9.61491
91017.3 9.58393
91029.4 9.59327
91041.6 9.65962
91047.6 9.77067
91053.7 10.0689
91056.7 10.4101
91059.7 11.0874
91061.3 11.6845
91062.8 12.5948
91064.3 14.0404
91065.8 16.3177
91067.9 21.2431
91070.0 25.2995
91072.1 23.1002
91074.2 18.6390
91075.8 16.1394
91077.4 14.4621
91079.0 13.3400
91080.6 12.5735
91083.8 11.6271
91087.0 11.0927
91093.4 10.5404
91099.7 10.2709
91112.5 10.0172
91125.3 9.89941
91150.8 9.78753
91176.3 9.73159
91227.3 9.66902
91278.4 9.62763
91380.5 9.56195
91406.0 9.55468
91431.5 9.57930
91444.3 9.63850
91457.0 9.81898
91463.4 10.0423
91469.8 10.5177
91473.0 10.9625
91476.2 11.6867
91479.4 12.9164
91482.5 15.0409
91486.3 19.0571
91490.0 22.3573
91493.7 20.5540
91497.5 16.9113
91500.3 14.8904
91503.1 13.5322
91505.9 12.6187
91508.7 11.9887
91514.3 11.2100
91519.9 10.7698
91525.5 10.4955
91531.1 10.3126
91542.3 10.0882
91553.5 9.95853
91564.7 9.87495
91587.1 9.77387
91632.0 9.67396
91676.8 9.62051
91766.5 9.55504
91856.1 9.50821
92035.5 9.43000
92214.8 9.35608
92394.1 9.27958
92573.5 9.19594
92663.1 9.14930
92752.8 9.09737
92842.5 9.04435
92864.9 9.04195
92887.3 9.07603
92898.5 9.14277
92909.7 9.32833
92915.3 9.54279
92920.9 9.96768
92923.7 10.3397
92926.5 10.9086
92929.3 11.8015
92932.1 13.2091
92936.1 16.2853
92940.0 18.8211
92943.9 17.4443
92947.9 14.6549
92952.3 12.5299
92956.8 11.3611
92961.3 10.6913
92965.7 10.2811
92974.6 9.82574
92983.5 9.58990
93001.3 9.35768
93019.2 9.24484
93054.8 9.13102
93090.4 9.06831
93161.7 8.98758
93233.0 8.92565
93375.5 8.81322
93518.0 8.69722
93660.5 8.56795
93803.1 8.41537
93874.3 8.32363
93945.6 8.20984
93981.2 8.13450
94016.9 8.02629
94034.7 7.94138
94052.5 7.79915
94061.4 7.67477
94070.3 7.45569
94074.8 7.26430
94079.2 6.94578
94083.7 6.33632
94085.9 5.87001
94087.0 5.73637
94088.1 6.20666
94089.1 8.17384
94090.0 12.0775
94090.9 14.4020
94091.9 13.9940
94093.3 12.4473
94094.7 11.3524
94097.4 10.1842
94100.2 9.61194
94103.0 9.27951
94108.6 8.91090
94114.1 8.71098
94125.3 8.49488
94136.4 8.37569
94158.6 8.23756
94180.9 8.15007
94225.4 8.02430
94269.9 7.92034
94358.9 7.72288
94448.0 7.51284
94537.0 7.27518
94626.0 6.99702
94670.5 6.83780
94715.0 6.66437
94737.3 6.57832
94759.6 6.52094
94770.7 6.54280
94781.8 6.70669
94787.4 6.95277
94792.9 7.52450
94795.7 8.09029
94798.5 9.05239
94801.3 10.7707
94804.1 13.9156
94807.0 19.5118
94810.0 24.1658
94813.0 21.7169
94815.9 16.6548
94818.6 13.4564
94821.2 11.4331
94823.8 10.1443
94826.4 9.28968
94831.6 8.27013
94836.8 7.70458
94842.0 7.35234
94847.3 7.11306
94857.7 6.80618
94868.1 6.61178
94878.6 6.47130
94899.5 6.26668
94920.3 6.10980
94941.2 5.97581
94983.0 5.74624
95066.5 5.43926
95150.0 5.62031
95200.0 6.29601
95250.0 7.73440
95350.0 12.9965
95450.0 16.9427
95550.0 17.0954
95610.9 16.4604
95671.8 15.7507
95793.6 14.5181
95915.4 13.6098
96037.2 12.9463
96159.0 12.4483
96280.8 12.0626
96524.4 11.5030
96768.0 11.1123
97011.5 10.8181
97498.7 10.3860
97985.9 10.0576
98473.1 9.76881
98716.7 9.62544
98960.3 9.47222
99082.1 9.38530
99203.8 9.27911
99264.7 9.20767
99325.6 9.10104
99356.1 9.01366
99386.5 8.86105
99401.8 8.72275
99417.0 8.47055
99424.6 8.24196
99432.2 7.84116
99436.0 7.50282
99439.8 6.97639
99443.6 6.11852
99445.5 5.62247
99447.4 5.83051
99448.7 7.96977
99450.0 12.9069
99451.3 16.3718
99452.6 16.3166
99455.1 14.1790
99457.7 12.7663
99460.2 11.9319
99462.8 11.4040
99463.6 11.2760
99467.8 10.7918
99472.0 10.4889
99480.4 10.1316
99488.7 9.92727
99497.1 9.79431
99513.9 9.62965
99530.6 9.52949
99564.2 9.40846
99597.7 9.33276
99664.7 9.23169
99731.8 9.15700
99865.8 9.03297
99999.9 8.91823
100000 8.91801
100370 7.79030
100540 7.49269
100720 7.32129
100900 6.82668
101080 6.73288
101260 6.99217
101440 5.95436
101620 5.63046
101800 5.84175
101980 4.78575
102160 5.16674
102340 7.53443
102630 16.7759
102640 17.9659
102660 17.2349
102680 17.4679
102700 17.9869
102740 18.6799
102750 18.2809
102770 18.4289
102790 17.8509
102810 18.3779
102830 18.5519
102850 17.9609
102860 17.9609
102900 17.3229
102920 17.3329
102940 18.1719
102990 16.7329
103010 16.7589
103030 16.7409
103050 16.9499
103070 16.6679
103090 15.9159
103100 15.6949
103120 15.4939
103140 15.6069
103160 15.4349
103180 16.0309
103200 15.5319
103210 15.1149
103230 15.5099
103250 15.0689
103270 15.0279
103290 15.2389
103310 14.5519
103330 14.1319
103340 15.1579
103380 14.0249
103400 13.9909
103420 14.3829
103440 13.2059
103450 14.3159
103490 13.3869
103510 13.2809
103530 13.4269
103550 13.0189
103620 13.3799
103640 13.0109
103760 12.4469
103920 12.0099
104020 12.0149
104120 11.5289
104210 11.4589
104310 11.0359
104400 11.0859
104490 11.4029
104680 10.5129
104780 10.7519
104870 10.5999
104970 10.6629
105060 10.4558
105160 10.3558
105250 11.0608
105350 10.1258
105440 9.80913
105630 9.77283
105730 9.95152
105820 9.40902
105920 9.46612
106210 9.23821
106300 8.76110
106400 8.86440
106500 8.78880
106690 8.23229
106790 8.32119
106890 8.15528
107080 7.08098
107180 6.40387
107280 7.00587
107370 13.5078
107420 15.0028
107430 15.0578
107440 14.8028
107450 13.6098
107460 14.1048
107470 13.1638
107480 13.7888
107490 12.3108
107550 12.1908
107650 12.3128
107700 14.4128
107710 13.5688
107720 12.2288
107780 10.2048
107880 9.34635
107970 9.00345
108070 8.48994
108170 8.51144
108370 7.69463
108470 6.69763
108570 5.94483
108670 7.90782
108770 14.8517
108820 16.3607
108830 16.8657
108850 18.3637
108860 18.1507
108870 18.2567
108880 16.9277
108890 16.2517
108900 16.8207
108910 17.0247
108940 16.6967
108950 16.1467
108960 15.0317
108970 15.8417
108980 15.2817
108990 14.1707
109000 15.0907
109010 15.5307
109020 14.9007
109030 15.7037
109040 15.3247
109060 16.5477
109070 15.1787
109080 15.1587
109090 14.7227
109100 13.8997
109110 13.2607
109120 13.6867
109140 12.7697
109300 11.6757
109400 11.3647
109500 10.9157
109600 11.5857
109650 13.3467
109660 13.3657
109670 12.6607
109730 10.9387
109940 10.1027
110040 10.1687
110240 9.81907
110450 9.26957
110550 9.41636
110650 9.26306
110750 9.51126
110860 9.15875
111160 8.67344
111270 8.69634
111370 8.26254
111470 8.33053
111580 7.93493
111790 7.85132
111890 7.53652
111990 6.94152
112100 6.53031
112200 6.22741
112310 5.39300
112410 4.79320
112520 5.49940
112620 9.24929
112730 14.8496
112780 17.1226
112790 16.0836
112800 16.6956
112810 16.5656
112830 16.7786
112840 16.2966
112850 16.8056
112860 16.0086
112870 16.3366
112880 16.2846
112890 17.2046
112900 15.9976
112910 15.6356
112920 16.2716
112930 15.7596
112940 14.9976
112950 15.4916
112960 14.7016
112970 15.6736
112980 15.6866
112990 14.9316
113000 14.9846
113020 14.3076
113040 14.1076
113050 14.6696
113060 13.9226
113070 14.6586
113080 13.7476
113090 14.0636
113100 14.1136
113110 14.3216
113120 13.7206
113130 14.3926
113140 13.2436
113150 13.7646
113160 13.7756
113170 13.5196
113200 13.8776
113210 13.6756
113220 13.1756
113230 14.2026
113240 12.9536
113400 12.2356
113510 12.9406
113620 11.5766
113720 11.1836
113830 11.2846
114040 10.6416
114150 10.7395
114370 10.5545
114470 10.1635
114580 11.3235
114690 15.5275
114750 13.7255
114760 12.5355
114820 10.8715
114930 10.1755
115040 9.91921
115150 9.93461
115470 9.69360
115580 9.44390
115690 9.31639
115800 9.48679
115910 9.27739
116020 9.18868
116130 9.33468
116240 8.93787
116350 9.06747
116460 8.65017
116570 8.76286
116680 8.78316
116910 8.26725
117020 8.11825
117130 7.68085
117240 7.48124
117460 6.82863
117690 5.62383
117800 4.99592
117910 5.53972
118030 8.67922
118140 14.5324
118210 16.5454
118240 15.9144
118250 16.4074
118260 15.5444
118290 15.9084
118300 15.4374
118330 14.8294
118340 14.2674
118350 14.8634
118360 14.7454
118370 15.2154
118380 14.9404
118390 14.2294
118410 14.1084
118420 14.6104
118430 13.9104
118440 14.0064
118450 13.8904
118460 14.4864
118470 13.7934
118480 13.8274
118510 12.9964
118570 13.2944
118630 13.3514
118640 13.8524
118660 13.9854
118680 15.6424
118690 16.2474
118700 17.3804
118710 17.3914
118720 17.2834
118730 18.1264
118750 16.1204
118760 15.5464
118770 13.6884
118780 13.6294
118790 12.7544
118850 12.2874
118970 11.9804
119080 11.4764
119310 10.8424
119430 11.0974
119540 12.2534
119660 12.4154
119770 10.5234
119890 10.5714
120000 10.3662
120120 10.1424
120240 10.1183
120350 9.95624
120470 10.3853
120590 12.5703
120700 10.1283
120820 9.84043
120940 9.98903
121050 9.49943
121170 9.42182
121290 9.51272
121410 9.72772
121520 9.42281
121640 9.51831
121760 9.29151
121880 9.43721
122000 10.8903
122110 9.76020
122230 8.91740
122350 8.35879
122470 8.45679
122590 8.17709
122710 11.1213
122830 12.0733
122950 10.9593
123070 10.6113
123190 11.0713
123310 10.1323
123550 9.83567
123800 9.70496
123920 9.48956
124040 9.65315
124400 9.52505
124530 10.7582
124650 9.40984
124770 9.27774
124890 10.7642
125020 9.72943
125140 10.1432
125260 9.38492
125390 9.16052
125510 9.25342
125640 8.87752
125760 8.94761
125880 9.24721
126010 9.08081
126130 9.24130
126260 9.06860
126380 9.06930
126630 8.92729
126760 8.56109
126880 9.61189
127010 9.61528
127140 9.18568
127260 9.07218
127390 8.72387
127520 8.93957
127640 8.81837
127900 8.79146
128020 8.81526
128150 8.65766
128280 8.66695
128410 8.43365
128660 8.53094
128790 8.43314
128920 8.68874
129050 8.65003
129180 9.12673
129310 10.7341
129440 8.84022
129570 9.65102
129700 10.2061
129830 8.63892
130090 8.28351
130220 8.79821
130350 8.26390
130480 8.70370
130610 10.2901
130740 8.26909
131010 8.02109
131270 8.00378
131540 7.75287
131940 6.96996
132070 6.32026
132200 5.45596
132340 8.81955
132470 12.3911
132610 10.2891
132740 9.51835
132880 9.14824
133010 8.63324
133150 8.61904
133280 8.45973
133420 8.41263
133550 7.75963
133830 8.52642
133960 7.65802
134100 7.37201
134240 7.23981
134370 7.34431
134510 6.84600
134650 6.63120
134790 6.58390
134920 6.33779
135060 5.98169
135200 6.54399
135340 6.01788
135480 6.14058
135620 7.39258
135760 9.41977
135890 12.1320
135970 14.2870
135980 15.4680
136000 16.5100
136010 16.1890
136030 16.0650
136050 15.1560
136070 15.5490
136080 14.6830
136100 14.1190
136110 14.2030
136120 14.1940
136140 13.7030
136150 14.5520
136170 14.7020
136180 13.4990
136190 13.8180
136210 14.0470
136220 14.5470
136240 13.8830
136250 13.0660
136260 14.1540
136310 13.2270
136320 13.9760
136350 12.9830
136430 13.0930
136710 12.0150
136850 11.9770
137130 11.1859
137270 10.9539
137410 10.8839
137550 10.5509
137700 10.5579
137840 10.4119
137980 9.98542
138120 10.2059
138270 9.92821
138410 9.98161
138550 9.70301
138840 9.61450
138990 9.63620
139420 9.48268
139570 9.26358
140000 9.11507
140150 9.29117
140300 10.9369
140440 9.69546
140590 8.84786
140740 8.84606
140880 8.91006
141180 10.6659
141330 9.11905
141470 8.88684
141620 8.80374
141770 8.60804
141920 8.63634
142070 8.95483
142220 9.02043
142370 8.69783
142520 8.71613
142670 10.2218
142820 8.58622
142970 8.30292
143120 8.39811
143270 8.59381
143420 8.44221
143570 8.41781
143720 8.21290
143870 9.88400
144030 9.41630
144180 8.25620
144330 7.93699
144640 9.46349
144790 8.58388
144940 8.33528
145100 8.41288
145250 8.09218
145560 8.01347
145710 7.84397
145870 9.18007
146020 8.01896
146180 8.54726
146330 7.81896
146490 8.70745
146650 7.57135
147120 7.46374
147270 7.33224
147430 7.03144
147590 7.13873
147750 7.75063
147910 6.66553
148060 6.88543
148220 6.39382
148380 6.09032
148540 5.66302
148700 5.15991
148860 4.76041
149020 4.06451
149180 3.16031
149340 2.11730
149500 1.67590
149660 3.78820
149830 10.4467
149910 15.9197
149930 15.9067
149950 16.7217
149960 16.4667
149980 17.1737
149990 17.0817
150010 17.8937
150030 16.7427
150040 16.9207
150060 17.5347
150080 17.0357
150090 16.4477
150110 17.9967
150120 15.9917
150140 17.1977
150160 16.1177
150170 15.8567
150200 16.5247
150220 15.7187
150240 15.6467
150250 15.7327
150270 14.8337
150290 15.5127
150300 16.0337
150320 15.1107
150330 14.1897
150350 14.8997
150370 14.3137
150380 14.7857
150400 13.6997
150420 14.1297
150430 13.2507
150450 12.9257
150540 13.1397
150700 12.2927
150860 11.6857
151030 11.2137
151190 11.1107
151520 10.3927
151850 11.2497
152010 14.4847
152180 10.4757
152510 9.73595
152680 9.65344
152840 9.44194
153010 9.50114
153180 9.32123
153340 9.42683
153510 10.2426
153680 10.0616
153840 8.95932
154010 9.31542
154180 9.21652
154350 9.66751
154520 9.56421
154860 8.83720
155030 8.92370
155200 8.70170
155370 8.80219
155540 8.58569
155880 8.77709
156050 10.3066
156220 8.49538
156400 8.50438
156570 8.41027
156740 8.69977
156910 9.53677
157090 8.53116
157260 8.58966
157430 11.9086
157610 9.53355
157780 8.68675
158130 8.27644
158480 8.15104
158660 7.99884
159010 8.29173
159360 7.98612
159540 7.92202
159720 7.96192
159900 7.75661
160000 7.86218
160250 8.12611
160430 11.3745
160530 12.7335
160630 9.43750
160810 7.97770
160990 7.91270
161170 7.67579
161350 7.54479
161530 8.51579
161710 8.27599
161890 9.89728
162070 7.23208
162260 7.28828
162440 7.02268
162620 7.10197
162800 6.22887
162990 5.51547
163170 4.75827
163350 8.99776
163540 9.05346
163720 7.17926
163910 6.61555
164090 10.9685
164280 9.79115
164460 9.07645
164650 8.50234
164830 8.13614
165020 8.14654
165210 8.07194
165390 7.85813
165580 7.80463
165770 7.54453
165960 7.40572
166150 7.47262
166330 7.19812
166520 7.26442
166710 7.50291
166900 8.99301
167090 8.60171
167280 7.01971
167470 6.60800
167660 5.97800
167860 5.20910
168050 4.33429
168240 4.15629
168430 8.85869
168620 11.6394
168820 10.8184
169010 10.2674
169200 10.1784
169400 8.72157
169590 8.45287
169980 8.14597
170180 7.89286
170370 8.00426
170570 7.57846
170760 7.48886
170960 7.55865
171160 9.01435
171360 7.22255
171550 7.36544
171750 8.73874
171950 7.54764
172150 6.74973
172350 6.65923
172550 6.29003
172750 6.40743
172950 6.68262
173150 6.12862
173550 5.32121
173750 5.52961
173950 4.98771
174150 3.89461
174360 5.33170
174560 10.5663
174760 9.46440
174970 8.03249
175170 7.12169
175380 8.09299
175580 10.5603
175790 6.30648
175990 6.93428
176200 5.10688
176400 4.55107
176610 4.23537
176820 4.95227
177020 3.97966
177230 3.44856
177440 3.73676
177650 4.84636
177860 6.40475
178060 8.23415
178270 9.20145
178480 10.0562
178690 10.5812
178900 10.7192
179120 10.6522
179540 10.2742
179750 10.4062
179960 9.99332
180000 10.0606
180180 10.3632
180390 10.0132
180600 9.23281
181030 8.90081
181240 9.07141
181460 9.47880
181680 8.46890
181890 8.73980
182110 9.16850
182320 7.92419
182540 7.55489
182760 7.51609
182980 8.83299
183190 7.16178
183410 6.92988
183630 6.54868
183850 6.62348
184070 9.70507
184290 7.30407
184510 6.02267
184730 5.96157
184950 5.99846
185400 6.87686
185620 7.71516
185840 8.70665
186070 10.2262
186290 10.5792
186510 11.4122
186740 13.1431
186960 12.0351
187190 11.5931
187640 11.3441
187870 11.0191
188090 12.0001
188320 11.0461
188550 10.5331
188780 10.9091
189000 11.6531
189230 9.69481
189460 10.1091
189690 11.9391
189920 11.7831
190150 10.4471
190620 9.87790
190850 9.85530
191550 9.38149
192020 9.14218
192250 8.87638
192480 8.71738
192960 8.09167
193190 8.31597
193430 7.40197
193670 5.72466
193900 7.79466
194140 12.2341
194380 12.4931
194620 9.78915
194860 10.9071
195100 10.4521
195340 10.3540
195580 9.83924
195820 9.55584
196060 9.63014
196300 11.2370
196430 14.8150
196460 16.0860
196480 15.8680
196510 14.4120
196560 12.5320
196690 10.3450
196930 9.48793
197180 9.17512
197910 8.83072
198160 8.78351
198400 8.81691
198650 8.73641
198900 10.4550
199140 9.20460
199390 9.35860
199640 8.59430
200000 8.54946
200390 8.50089
200640 10.0910
200890 9.37658
201140 8.36288
201390 8.91928
201640 8.02348
201890 7.49148
202150 7.94617
202400 9.23837
202650 8.54447
202910 8.41667
203160 8.20566
203420 7.83666
203670 7.73306
203930 7.08436
204180 8.83326
204440 8.39185
204960 6.99135
205220 7.11155
205480 9.95205
205740 8.92504
206260 8.26364
206780 7.96523
207040 7.94283
207300 7.73533
207830 7.66433
208090 8.06282
208360 7.53632
208890 7.28962
209150 7.65811
209420 8.58031
209690 7.30211
209960 6.51311
210220 6.20531
210490 8.66710
210760 7.48730
211030 6.92270
211300 6.73560
211570 6.35149
211840 6.12409
212120 6.49139
212390 5.17719
212660 4.62348
212930 4.86578
213210 6.98208
213480 8.39688
213760 9.32838
214030 9.19277
214310 8.94577
214590 8.56017
214860 8.29407
215140 7.86686
215420 7.73256
215700 7.43746
215980 7.52136
216250 6.75185
216540 6.25305
216820 5.94505
217100 5.24215
217380 5.21105
217660 5.94854
217950 4.79564
218230 4.58244
218510 7.40014
218800 7.96353
219080 9.30853
219370 9.74083
219650 9.73883
219940 9.56912
220230 9.78192
220520 9.84762
220810 8.12082
221100 10.8318
221390 10.4728
221680 10.5298
221970 9.51111
222260 9.11540
222550 9.16930
222840 8.70390
223140 8.42100
223430 8.26089
223730 8.39359
224020 9.44249
224320 7.63609
224610 6.49998
224910 5.80558
225210 7.77578
225510 10.1868
226400 8.97967
226700 8.70377
227310 8.58096
227610 9.88176
227910 8.30426
228210 9.10635
228520 8.47935
228820 7.76935
229130 7.74885
229430 7.62324
229740 7.62854
230040 7.48924
230350 8.12714
230660 8.38163
230970 7.26723
231280 6.77093
231590 6.70323
231900 6.72722
232210 5.82562
232520 5.38882
232830 5.04532
233150 5.81061
233460 5.37641
233770 6.51501
234090 8.06160
234400 9.24630
234720 9.12370
235040 8.77530
235670 8.67099
235990 8.06059
236630 7.51958
236950 7.16598
237270 7.67638
237600 8.32688
237920 6.05227
238240 5.91937
238570 8.20437
238890 9.89066
239220 9.71406
239540 7.77016
239870 6.24876
240200 5.74585
240530 9.11685
240850 9.47435
241180 9.37575
241510 8.96494
242180 8.50214
242510 9.70133
242840 10.4806
243180 8.00473
243840 7.63562
244180 7.69572
245190 6.70881
245530 6.51041
245870 5.46891
246210 4.52000
246550 4.43510
246890 5.69290
247230 7.65389
247570 10.3516
247920 10.0236
248260 9.49899
248610 10.5276
248950 9.63968
249300 9.05598
249650 8.34417
250000 8.28737
250340 8.00607
250690 7.93127
251390 7.52426
251740 8.70446
252100 7.39786
252450 6.93006
252800 6.53876
253160 5.82835
253510 6.40305
253870 11.2486
254220 9.31395
254580 8.90794
254940 9.68074
255300 7.93614
255660 7.65454
256020 7.60204
256380 8.04933
256740 7.86373
257100 7.32423
257470 7.10983
257830 7.14123
258200 7.79402
258560 7.76382
258930 7.07582
259300 7.11162
259660 6.22192
260030 5.86251
260400 5.63671
260770 4.84301
261140 3.34581
261510 5.89030
261890 5.56880
262260 5.76940
262640 5.38990
263010 4.77990
263390 5.02029
263760 6.22779
264140 6.57199
264520 7.31259
265280 9.45488
265660 9.14648
266040 9.51098
266420 8.49648
266810 9.21627
267190 9.14617
267580 9.81437
267960 9.54997
268350 8.86836
268740 8.55896
269130 8.33016
269900 8.24826
270300 8.40285
270690 8.38425
271080 7.72645
271470 7.58495
271870 7.93974
272260 7.84584
272660 7.61514
273050 7.99984
273450 7.72684
273850 10.2304
274250 7.33333
274650 7.45003
275050 7.96163
275450 7.15262
275860 6.82402
276260 7.53002
276670 6.99442
277070 7.77001
277480 6.18791
277890 5.95451
278290 5.01541
278700 4.58170
279110 4.04050
279530 5.58400
279940 4.92410
280350 5.47930
280760 6.70909
281180 7.49269
281590 8.06959
282010 8.27999
282850 8.46908
283690 7.99428
284110 7.60517
284530 7.77287
284950 7.05527
285380 7.19847
285800 8.39466
286230 8.10976
286650 7.69696
287080 8.57676
287510 7.57225
287940 7.13085
288370 6.85615
288800 6.43065
289240 5.65504
289670 4.76394
290100 4.19434
290540 6.51414
290980 9.05923
291410 8.00073
291850 7.55493
292290 7.85043
292730 6.66032
293170 6.16862
293620 6.13712
294060 6.38162
294500 6.96181
294950 7.63521
295400 7.02961
296290 6.84590
296740 5.70390
298100 4.40329
298550 4.53379
299010 3.84039
299460 4.03988
299920 4.32138
300000 4.61213
300380 5.99318
300840 5.49138
301760 8.03427
302220 10.1593
302680 8.06367
303150 8.03737
303610 8.89387
304080 7.40137
304550 7.07986
305010 6.64776
305480 6.38466
305950 5.70736
306430 5.12166
306900 4.87285
307370 6.70135
307850 7.12855
308320 8.53475
308800 9.28515
309280 9.75054
309760 7.91294
310240 7.73084
310720 8.47824
311210 6.97654
311690 5.80803
312170 4.13713
312660 4.10743
313150 5.92993
313640 5.49023
314130 5.52653
314620 6.50012
315110 8.08682
315600 9.13322
316100 9.42202
316590 9.29222
317090 6.81781
317590 6.83531
318090 7.18851
318590 5.66921
319090 4.99871
319590 5.74300
320100 6.74180
320600 7.21100
321110 7.51580
321610 7.69100
322120 8.12079
322630 7.84749
323140 7.39119
323650 7.31489
324170 6.60818
324680 6.17828
325200 5.29378
325710 6.57778
326230 8.00758
326750 8.42437
327270 9.19277
327790 9.28997
328320 8.83747
328840 9.65847
329370 8.71986
329890 8.46886
330420 8.55086
330950 8.22226
331480 8.02776
332550 7.89355
333080 7.70465
333620 7.74345
334160 7.62484
334690 8.99904
335230 8.34874
335780 6.98904
336320 8.27824
336860 8.16583
337410 9.34463
337950 7.99893
338500 8.80443
339050 9.46173
339600 8.05012
340150 7.26662
340710 6.59822
341260 6.17202
341810 7.26391
342180 7.19611
342460 8.22131
342740 7.32081
343010 6.83771
343290 7.23101
343580 6.66441
343860 6.39301
344140 6.24341
344420 5.93260
344700 5.96610
344980 6.41960
345260 5.18560
345550 4.71450
345830 4.62660
346110 3.97190
346400 3.94140
346680 4.45399
346970 5.20819
347250 6.15459
347530 6.88809
347820 7.85709
348110 9.22339
348390 11.8811
348680 10.3251
348970 8.95349
349250 8.29918
349540 8.25598
349830 8.35798
350000 8.32486
350120 8.30148
350410 8.78708
350690 9.68608
350980 9.51408
351270 8.24378
351560 7.39068
351850 6.12398
352150 5.89678
352440 7.77528
353020 8.51248
353310 7.86338
353610 7.50877
353900 7.35887
354190 7.40247
354490 8.30657
354780 7.77187
355070 7.09227
355370 6.84547
355660 6.30347
355960 6.96877
356260 7.76537
356550 5.48417
357150 7.68027
357440 7.69967
358040 7.62767
358340 7.65956
358640 7.84226
358940 7.79206
359840 7.29476
360140 7.23546
360440 7.57326
360740 8.19066
361040 7.21766
362250 6.93906
362860 6.10046
363160 5.99186
363470 7.37685
363770 9.35225
364080 7.67925
364390 6.82545
364690 7.57935
365310 7.92715
365610 7.85665
365920 7.97175
366230 8.59575
366540 10.6801
366850 11.0251
367160 9.17465
367470 8.24305
367780 7.82885
368400 7.40214
368710 7.47104
369020 7.74774
369330 8.67094
369650 8.23674
369960 7.49954
370270 7.43834
370590 7.13664
370900 7.50074
371220 9.15474
371530 9.17764
371850 7.87494
372160 8.13244
372480 8.66424
372800 8.00354
373110 6.18194
373430 5.81993
373750 5.66373
374070 6.24583
374390 7.21523
374710 7.52363
375020 9.15393
375340 9.54073
375670 7.72793
375990 7.47733
376310 7.06093
376630 7.03493
377270 7.18343
377920 8.30453
378240 7.26713
378570 6.91292
378890 8.45492
379220 9.54702
379540 6.60632
379870 5.94352
380190 5.41242
380520 4.70302
380850 4.45642
381180 6.08542
381500 6.12192
381830 6.11442
382160 5.57012
382490 4.90432
382820 4.49602
383150 6.24872
383480 7.45271
383810 7.93311
384140 7.87491
384470 7.33561
384810 7.61191
385140 7.44341
385470 7.41611
385800 7.24241
386140 7.72881
386470 8.95491
386810 7.01661
387140 6.68421
387480 6.66441
387810 6.82831
388830 5.54110
389160 5.02540
389500 4.62890
389840 4.55390
390180 3.80300
390520 4.18700
390860 5.54860
391200 5.03670
391880 6.18540
392220 7.21470
392570 8.02920
392910 7.09230
393250 6.56080
393600 5.01619
393940 6.39409
394280 7.35459
394630 7.77109
394970 9.00079
395320 7.55539
395670 7.30019
396360 7.93519
396710 6.55749
397060 6.75889
397410 6.46289
397760 6.94429
398110 6.23979
398460 6.21018
398810 6.40288
399160 5.16288
399510 5.62988
399860 6.63768
400210 7.12568
400560 6.91738
400920 7.09248
401270 7.13338
401620 6.99328
401980 7.22358
402330 7.73568
402690 7.60828
403050 9.61298
403400 8.38688
403760 7.28437
404120 7.46027
404470 7.72947
404830 7.55737
405190 7.61667
405550 7.59747
405910 7.15547
406270 7.01697
406630 7.68067
406990 8.82937
407360 7.31627
407720 6.95077
408080 6.29347
408440 5.25436
408810 5.71346
409170 8.11016
409540 7.62566
409900 7.90256
410270 7.68126
410630 7.54816
411000 7.20576
411740 7.78436
412100 9.06486
412470 8.09606
412840 9.01556
413210 7.88666
413580 8.16515
413950 7.61515
414320 7.86945
414690 7.45655
415070 7.66535
415440 7.75605
415810 9.14365
416190 8.12975
416560 7.22445
417310 6.83245
417690 6.73445
418060 7.02965
418440 7.14814
418810 7.99324
419190 7.95004
419570 9.34324
419950 7.66264
420330 6.45194
420710 6.28804
421090 7.01754
421470 7.95814
421850 6.78864
422230 6.48154
422610 6.92384
423000 6.18914
423380 6.01804
423760 6.51463
424150 4.83723
424530 5.95693
424920 6.31133
425310 5.61643
425690 6.00343
426080 6.13963
426470 6.42633
426850 5.55763
427240 5.76473
427630 8.67063
428020 9.72143
428410 7.32013
428800 7.27082
429190 8.29592
429590 7.45242
429980 8.21412
430370 7.55942
430760 7.45262
431160 7.13922
431550 7.18052
431950 7.55222
432340 6.76402
432740 6.66762
433930 7.74191
434330 9.22581
434730 7.90721
435130 8.10141
435530 6.96511
435930 6.91061
436330 6.64501
436730 6.89291
437130 8.76771
437540 7.65501
437940 7.33721
438340 7.99691
438750 6.97930
439150 6.60330
439560 6.47640
439960 6.76280
440370 6.80250
440780 6.67690
441190 6.07520
441590 5.85240
442410 8.04170
442820 6.71730
443230 5.87640
443640 5.68749
444060 7.19289
444470 8.21509
444880 8.45819
445290 7.79079
445710 6.22889
446120 5.04009
446540 6.39519
446950 9.25679
447370 7.85289
447790 7.08519
448210 7.02819
448620 7.90968
449040 7.20288
449460 6.63348
450000 6.75415
450300 6.82118
450720 6.66038
451140 6.75908
451570 6.32858
452410 6.74858
452840 6.28108
453260 6.54328
453690 6.99698
454110 7.24078
454540 7.11908
454970 6.71388
455390 7.27657
455820 8.13957
456250 6.73097
456680 6.25817
457110 6.37847
457540 6.82227
457970 6.43407
458400 5.44207
458840 4.88317
459270 6.56677
459700 7.09677
460140 6.56157
460570 6.34337
461010 6.30977
461440 6.78197
461880 6.19827
462320 7.25056
462760 5.04826
463190 4.96616
463630 6.87526
464070 6.74516
464510 6.10576
464960 6.88136
465400 5.99516
465840 5.79736
466280 6.71126
466730 5.01406
467170 4.46606
467620 5.70516
468060 6.03366
468510 6.16136
468960 6.63856
469400 6.73975
469850 6.49335
470300 6.38935
471200 7.31955
472100 6.79565
472550 6.31925
473010 6.19275
473460 6.25635
473910 5.44165
474370 6.97655
474820 6.87165
475280 6.43365
475730 6.23525
476190 6.20385
476650 6.53314
477110 6.55374
477570 7.79924
478030 7.77774
478490 7.04094
478950 7.99464
479410 7.57724
479870 7.33784
480340 6.52004
481730 5.78024
482200 5.81654
482660 5.79834
483130 6.64964
483600 5.31234
484070 4.56863
484540 4.57513
485010 3.93433
485480 3.55203
485950 4.93933
486420 6.64473
487370 6.21353
487840 6.95383
488790 6.05723
489270 4.82833
489750 5.56743
490220 6.07593
490700 6.31693
491180 6.29012
491660 6.68692
492140 7.20442
492620 6.38322
493100 6.24772
493590 7.80512
494070 7.50802
494550 6.43612
495040 6.68132
495520 6.19332
496010 7.04152
496500 7.20232
496980 7.85462
497470 8.43482
497960 6.80821
498450 6.21521
498940 6.04401
499430 6.15511
499920 7.83391
500000 7.59383
500420 6.33341
500910 6.35281
501410 7.85941
501900 7.49821
502400 6.92221
502890 6.21751
504390 6.12821
504890 6.56921
505390 8.23141
505890 8.61531
506390 7.48871
506890 5.50841
507390 5.79941
507900 6.21311
508400 6.31651
508910 6.30591
509410 6.35160
509920 6.05490
510420 5.67220
510930 5.35210
511440 5.30630
511950 5.81940
512460 6.16530
512970 7.57310
513480 8.06630
514000 6.09800
514510 7.16710
515020 8.00730
515540 6.64780
516060 5.78680
516570 6.34510
517090 6.06330
517610 5.90900
518130 5.94860
518650 5.80590
519170 6.16780
519690 6.28690
520210 4.97810
520730 4.30280
521260 4.82630
521780 4.22769
522310 3.80349
522830 3.92059
523360 3.73189
523890 4.87369
524420 5.49809
524940 7.18129
525470 6.73919
526010 5.24089
526540 4.83689
527070 6.53199
528140 5.78269
528670 5.73109
529210 6.05939
529740 6.18659
530280 6.02829
530820 5.99529
531360 6.11689
531900 6.57419
532980 6.51079
533520 6.04209
534070 6.66579
534610 5.89948
535160 6.87428
535700 6.45718
536250 7.44128
536800 7.95778
537340 6.50398
537890 6.55628
538440 6.48538
538990 5.91128
539540 5.80518
540100 5.93148
540650 6.48358
541200 6.05738
542870 6.59308
543430 6.10668
543990 6.25998
544540 5.94298
545100 6.31388
545670 6.37238
546230 6.97098
546790 7.68837
547350 6.74957
547920 6.11287
548480 5.84897
549050 5.50427
549620 4.72227
550000 4.64566
550180 4.60937
550750 4.28987
551320 4.87687
551890 5.78657
552460 5.80417
553040 5.57217
554180 5.88257
554760 6.43887
555330 5.69927
555910 5.93467
556490 5.61797
557070 5.49617
557650 5.04697
558230 5.43357
558810 5.40137
559390 6.00577
559970 5.48387
560560 5.47577
561140 6.26507
561730 6.29667
562320 6.73517
562900 6.79827
563490 6.95447
564080 7.56517
564670 6.13837
565260 6.61817
565860 8.06367
566450 6.28037
567040 5.99137
567640 5.84757
568230 6.82747
568830 6.43077
569430 6.25767
570030 5.82467
570630 5.59427
571230 5.93837
571830 4.81967
572430 5.33426
573040 6.23366
573640 5.89136
574250 6.31006
574850 6.23906
575460 5.59256
576070 5.75226
576680 6.80846
577290 6.42676
577900 6.72356
578510 6.93506
579130 5.66426
579740 5.86366
580360 5.89066
580970 5.50766
581590 5.48496
582210 5.79716
582830 5.68356
583450 6.11916
584070 7.93816
585310 6.24456
585940 6.61286
586560 6.90876
587190 7.03506
587810 6.33396
588440 5.96056
589070 5.82856
590330 6.14606
590970 6.53706
591600 6.47196
592230 5.83636
592870 5.67636
593500 6.81776
594140 6.16816
594780 5.61586
595420 5.84946
596060 5.88276
596700 6.24566
597340 6.39566
597990 7.10026
598630 6.49266
599280 6.29236
599920 6.41656
600570 5.73526
601220 6.24406
601870 6.23226
602520 6.99065
603170 6.73805
603830 5.77465
604480 5.72555
605130 5.85965
605790 5.84265
606450 6.54075
607770 5.59655
609090 5.85445
609750 6.85375
610410 5.75775
611080 5.40395
612410 5.20435
613080 6.29995
613750 5.73825
614420 6.67675
615090 7.16945
616440 5.07265
617110 5.15255
617790 5.36115
618460 5.45355
619140 5.42955
619820 5.55035
620500 5.54805
621180 5.92035
621860 6.37435
622550 5.75565
623230 6.11025
623920 5.51265
624600 5.44065
625290 6.82885
625980 7.55255
626670 6.29525
627360 5.65095
629450 5.27545
630140 6.44465
630840 5.61915
631540 5.04235
632240 5.61945
632940 5.74314
633640 5.65274
634340 6.38644
635050 5.55274
635750 6.05204
636460 6.18334
637170 6.03164
637870 6.67344
638580 6.51494
639290 6.12204
640010 5.92624
640720 5.39904
641440 5.06084
642150 5.56094
642870 6.52494
643590 6.88794
644310 5.88274
645030 5.08804
645750 5.73914
646470 6.12564
647200 5.28934
647920 5.48364
648650 6.07924
649380 6.01554
650110 5.58524
650840 5.46854
651570 6.19214
652300 5.77444
653040 5.72534
653770 5.58874
654510 5.73824
655250 7.29734
655990 5.63984
656730 4.82354
657470 5.91634
658210 6.91904
658960 6.59314
659700 6.05614
660450 6.06564
661200 6.25704
662700 6.80794
663450 5.75723
664200 6.50763
664960 5.86083
665710 5.69163
666470 5.31533
667230 5.59603
667990 6.51253
668750 5.36733
669510 5.66623
670280 6.27023
671040 5.82423
671810 6.18943
672580 6.33743
673340 5.65603
674110 5.11593
674890 5.39633
675660 5.27453
676430 5.68983
677210 5.96803
678760 4.86473
679540 4.55323
680320 4.00113
681890 5.78613
682670 5.24583
683460 5.28923
684250 6.66533
685040 5.45213
685830 5.01983
686620 5.61163
687410 5.42703
688210 5.62633
689000 5.10573
689800 5.21633
690600 5.42393
691400 5.33553
692200 6.55563
693000 5.16363
693810 4.47932
694610 6.11952
695420 5.40952
696230 5.42512
697040 5.97422
697850 5.62452
698660 5.08142
699480 5.70962
700000 5.77928
700290 5.81812
701110 5.44152
701930 6.36972
702750 6.27402
703570 5.43762
705220 5.14492
706040 5.49772
706870 5.98192
707700 6.53433
708530 5.97763
709360 5.65363
710190 5.23543
711020 5.48853
712700 5.13583
713540 5.95003
714380 6.10993
715220 5.71323
716060 5.69093
716910 5.90953
717750 6.30783
718600 5.60913
719450 5.22723
720300 5.39323
721150 5.32933
722010 4.65643
722860 5.55283
723720 5.47973
724580 5.53693
725440 5.06103
726300 4.90253
727160 4.91613
728020 4.89393
728890 5.89823
729760 5.60913
730630 6.61823
731500 5.83683
733240 5.21763
734120 5.42033
734990 5.36013
735870 5.83223
736750 5.72423
737630 5.52653
738520 6.33523
739400 6.17353
740290 5.64874
741180 5.64654
742070 5.56294
742960 5.29104
743850 5.84284
744750 5.23784
745640 5.06654
746540 5.15754
747440 4.70734
748340 4.46074
749240 5.73054
750150 6.11314
751050 5.71884
751960 5.53694
752870 5.42094
753780 4.79524
754690 5.04184
755600 5.34104
756520 4.99194
757440 6.10124
758360 5.70404
759280 6.73854
760200 6.37564
761120 5.04454
762050 5.61114
762980 5.04274
763910 5.17784
764840 5.16174
765770 5.41994
766700 5.53034
767640 4.95784
768580 5.20434
769520 5.97374
770460 5.52614
771400 4.76424
772340 4.97234
774240 4.81245
775190 4.77045
776140 5.34265
777090 5.02225
778050 5.81635
779010 5.42045
779960 6.11435
780920 5.49315
781890 5.19945
782850 4.73675
783820 5.68735
784780 4.98275
785750 4.87465
786720 5.72785
787700 5.44485
788670 5.10405
789650 4.94815
790630 4.59235
791610 5.91895
792590 5.62125
793570 5.10535
794560 4.65435
795540 4.96105
796530 5.46205
797520 4.60595
798520 4.38605
799510 5.45025
800000 5.50655
800510 5.56515
801510 5.19275
802510 4.71586
803510 4.76096
804510 4.65176
805520 4.72656
807540 5.87926
808550 5.14736
809560 4.98456
810580 5.10806
811600 5.11166
812620 5.65807
813640 5.29657
815690 4.76577
816710 4.75737
817740 5.23997
818770 4.99307
819810 5.03687
820840 4.68377
821880 4.56848
822920 4.69068
823960 4.56768
825000 5.86428
826050 5.84118
827090 6.01458
828140 4.89288
829190 5.42328
830240 5.39348
831300 5.42318
832360 5.37529
833410 4.37419
834480 4.58479
835540 5.10029
837670 4.97259
838740 5.35079
839810 5.23979
840880 4.93499
841960 4.71400
843030 4.76480
844110 4.39220
845200 4.31580
846280 5.05600
847360 5.13250
848450 4.85910
849540 4.71860
851730 5.95901
852830 5.04921
853930 5.35591
855030 4.99011
856130 5.06421
857230 5.28031
858340 5.12471
859440 5.58231
860550 5.12131
861670 5.80842
863900 5.71082
867270 4.86162
868390 5.07172
869520 4.36712
870650 4.63832
871780 5.00533
872920 4.80263
874060 5.30953
875190 4.91483
876340 5.73213
877480 5.65063
878630 4.89603
879780 5.05553
880930 4.73483
882080 5.14164
883230 4.64674
884390 5.25094
885550 5.37884
886710 4.95614
887880 4.95264
889040 4.53064
890210 4.98324
891380 4.99774
892560 5.21145
893730 5.13265
894910 4.76585
896090 4.84045
897270 5.20325
898460 5.02035
899650 5.45365
900000 5.37054
900300 5.29929
900335 5.29103
900840 5.17146
902030 4.31913
903220 5.05360
904420 4.93637
905620 5.53725
906820 5.27393
908020 5.41610
909230 4.73579
910440 4.62547
911650 4.68565
912870 5.67894
914080 5.08323
915300 5.59252
916520 5.46731
917740 6.00280
918970 5.65260
920200 4.93910
921430 4.71450
922660 5.81060
923900 5.33051
925140 5.54502
926380 4.47643
927620 4.71984
928870 4.50705
930120 4.94387
931370 5.50409
932620 4.72440
933870 4.75382
935130 4.65714
936390 4.82607
937660 4.81340
938920 4.91322
940190 5.19706
941460 5.76689
944010 5.37616
945290 4.84920
946580 4.54095
947860 4.76939
949150 4.83714
950440 5.04879
951730 4.93864
953030 4.55880
954320 4.38544
955620 4.73070
956930 4.75267
958230 6.10352
959540 4.98809
960850 5.77835
962160 5.19822
963480 5.35039
966120 4.87434
967440 4.79981
968770 4.97359
970100 4.96377
971430 5.00056
972760 5.12484
974100 5.02643
975440 5.16062
976790 5.12181
978130 5.13730
979480 5.41290
980830 5.11300
982190 5.23770
983550 5.29171
984910 5.07992
986270 5.55872
989000 5.31374
990380 4.62816
991750 5.15338
993130 5.15630
994510 4.80622
997280 5.54987
998670 4.86680
1.00000E+06 5.21759
1.00010E+06 5.24392
1.00150E+06 5.76225
1.00290E+06 4.66408
1.00430E+06 5.02190
1.00570E+06 4.55813
1.00710E+06 4.99746
1.00850E+06 4.91469
1.00990E+06 5.74371
1.01130E+06 4.65804
1.01270E+06 5.29397
1.01410E+06 5.25010
1.01560E+06 4.95096
1.01700E+06 4.60549
1.01840E+06 4.80082
1.01990E+06 5.22118
1.02130E+06 5.13201
1.02270E+06 5.20164
1.02420E+06 5.52730
1.02560E+06 5.66783
1.02710E+06 5.48049
1.02850E+06 5.70722
1.03000E+06 5.76919
1.03140E+06 5.36131
1.03290E+06 5.02208
1.03440E+06 5.01204
1.03580E+06 5.29477
1.03880E+06 4.57470
1.04030E+06 4.67187
1.04170E+06 5.08469
1.04320E+06 4.72026
1.04470E+06 4.94102
1.04620E+06 5.02469
1.04920E+06 4.92112
1.05070E+06 4.64649
1.05220E+06 4.49745
1.05370E+06 4.54492
1.05520E+06 4.82238
1.05670E+06 5.75445
1.05820E+06 5.10131
1.05970E+06 4.80908
1.06130E+06 4.86518
1.06280E+06 5.73504
1.06430E+06 5.75161
1.06580E+06 5.28697
1.06740E+06 5.34898
1.06890E+06 4.58434
1.07040E+06 5.62941
1.07200E+06 4.98031
1.07350E+06 4.77688
1.07510E+06 4.65848
1.07660E+06 4.69374
1.07820E+06 5.52565
1.07980E+06 5.18155
1.08130E+06 5.40581
1.08290E+06 5.32652
1.08450E+06 5.07732
1.08600E+06 5.07408
1.08760E+06 5.50849
1.08920E+06 4.68649
1.09080E+06 4.52899
1.09240E+06 4.80630
1.09400E+06 4.26390
1.09560E+06 4.86260
1.09720E+06 4.82280
1.09880E+06 4.83741
1.10040E+06 5.12731
1.10200E+06 5.16481
1.10360E+06 5.43082
1.10520E+06 5.00832
1.10680E+06 5.05942
1.10850E+06 4.80636
1.11010E+06 4.93126
1.11170E+06 5.48227
1.11340E+06 5.16381
1.11500E+06 5.45281
1.11660E+06 4.63451
1.11830E+06 5.17595
1.11990E+06 5.14586
1.12160E+06 4.50550
1.12330E+06 5.15324
1.12490E+06 4.62014
1.12660E+06 4.71618
1.12820E+06 5.39628
1.12990E+06 5.49022
1.13160E+06 4.66296
1.13330E+06 4.98651
1.13490E+06 5.35761
1.13660E+06 5.28645
1.13830E+06 4.83969
1.14170E+06 5.12757
1.14340E+06 5.23051
1.14510E+06 4.60885
1.14680E+06 5.12189
1.14850E+06 5.00003
1.15030E+06 4.61961
1.15200E+06 5.33885
1.15370E+06 4.67319
1.15540E+06 4.71263
1.15720E+06 5.05991
1.15890E+06 5.11895
1.16060E+06 4.98549
1.16240E+06 4.21037
1.16410E+06 5.11051
1.16590E+06 5.67569
1.16760E+06 5.62223
1.16940E+06 5.21921
1.17120E+06 5.17678
1.17290E+06 5.18692
1.17470E+06 5.03800
1.17650E+06 5.39268
1.17830E+06 5.13706
1.18000E+06 5.22650
1.18180E+06 5.02598
1.18360E+06 5.42066
1.18540E+06 5.44733
1.18720E+06 5.03051
1.18900E+06 4.98249
1.19080E+06 4.73587
1.19270E+06 4.81088
1.19450E+06 5.28156
1.19630E+06 5.37904
1.19810E+06 4.79462
1.19990E+06 5.25410
1.20000E+06 5.23411
1.20180E+06 4.87424
1.20360E+06 5.60555
1.20550E+06 5.16349
1.20730E+06 4.89710
1.20920E+06 5.09914
1.21100E+06 5.56024
1.21290E+06 5.12588
1.21470E+06 5.09169
1.21660E+06 5.14113
1.21850E+06 5.96187
1.22030E+06 5.27908
1.22220E+06 5.67372
1.22410E+06 5.20876
1.22600E+06 4.67860
1.22790E+06 4.64734
1.22980E+06 4.55338
1.23170E+06 4.50362
1.23360E+06 4.98906
1.23550E+06 5.22081
1.23740E+06 5.01995
1.23930E+06 5.18279
1.24130E+06 5.23806
1.24510E+06 4.93204
1.24710E+06 5.11042
1.24900E+06 4.97886
1.25100E+06 5.32473
1.25290E+06 5.45507
1.25490E+06 4.97275
1.25680E+06 5.24509
1.25880E+06 5.05006
1.26080E+06 4.96884
1.26270E+06 5.17798
1.26470E+06 4.86935
1.26670E+06 4.88943
1.26870E+06 5.17650
1.27070E+06 5.73127
1.27270E+06 4.93865
1.27470E+06 5.04332
1.27870E+06 4.95217
1.28070E+06 5.16775
1.28270E+06 4.91552
1.28480E+06 5.23783
1.28680E+06 5.03840
1.28880E+06 4.67898
1.29290E+06 4.95726
1.29500E+06 5.28187
1.29700E+06 5.16934
1.29910E+06 5.11545
1.30120E+06 5.16816
1.30320E+06 5.06013
1.30530E+06 5.22954
1.30740E+06 5.14575
1.30950E+06 4.99556
1.31370E+06 5.14897
1.31580E+06 4.89778
1.31790E+06 5.64939
1.32000E+06 5.94610
1.32210E+06 5.10201
1.32630E+06 5.19772
1.32850E+06 4.66777
1.33060E+06 5.00287
1.33270E+06 5.21288
1.33490E+06 5.13542
1.33700E+06 5.26283
1.33920E+06 4.97857
1.34140E+06 5.25831
1.34350E+06 5.20532
1.34570E+06 4.84707
1.34790E+06 5.15541
1.35010E+06 4.97025
1.35230E+06 5.02239
1.35450E+06 5.56773
1.35670E+06 5.47167
1.35890E+06 4.80262
1.36110E+06 5.06876
1.36330E+06 5.39660
1.36770E+06 5.24508
1.37000E+06 4.88766
1.37220E+06 4.88290
1.37440E+06 5.00884
1.37670E+06 4.68902
1.37890E+06 4.88896
1.38350E+06 5.46681
1.38570E+06 5.44275
1.38800E+06 5.08493
1.39030E+06 4.78910
1.39260E+06 5.22388
1.39490E+06 5.10286
1.39720E+06 5.32543
1.39950E+06 5.27551
1.40000E+06 5.19963
1.40180E+06 4.92643
1.40410E+06 4.70593
1.40640E+06 5.22233
1.40880E+06 5.57416
1.41110E+06 5.23817
1.41340E+06 5.11307
1.41580E+06 5.42590
1.41810E+06 5.04901
1.42050E+06 5.80354
1.42280E+06 5.00694
1.42520E+06 5.07418
1.43000E+06 5.82534
1.43230E+06 5.34305
1.43470E+06 5.40538
1.43710E+06 5.30601
1.43950E+06 4.82995
1.44190E+06 5.53748
1.44440E+06 4.85924
1.44680E+06 4.57778
1.44920E+06 5.14891
1.45160E+06 4.96814
1.45410E+06 5.28361
1.45650E+06 5.13244
1.45900E+06 5.11191
1.46140E+06 5.25414
1.46390E+06 5.65360
1.46640E+06 5.36507
1.46890E+06 5.39753
1.47140E+06 5.65600
1.47380E+06 5.68753
1.47630E+06 5.19929
1.47880E+06 5.86946
1.48390E+06 5.07722
1.48640E+06 5.33048
1.48890E+06 4.89234
1.49150E+06 5.09914
1.49400E+06 5.21310
1.49650E+06 5.11927
1.49910E+06 5.27636
1.50160E+06 5.23232
1.50420E+06 5.33422
1.50680E+06 5.02461
1.50940E+06 5.17171
1.51200E+06 5.00870
1.51460E+06 5.33500
1.51720E+06 5.53559
1.51980E+06 5.16639
1.52240E+06 5.13968
1.52500E+06 5.71748
1.53030E+06 4.98080
1.53290E+06 5.23399
1.53820E+06 5.19551
1.54090E+06 4.90593
1.54350E+06 4.87213
1.54620E+06 4.94325
1.54890E+06 5.09138
1.55160E+06 5.13790
1.55430E+06 5.58053
1.55700E+06 5.55895
1.55970E+06 5.03898
1.56240E+06 5.42231
1.56510E+06 6.12443
1.56790E+06 5.49469
1.57060E+06 5.30451
1.57340E+06 5.25977
1.57610E+06 5.72359
1.57890E+06 5.86525
1.58100E+06 5.46510
1.58160E+06 5.35077
1.58720E+06 5.45228
1.59280E+06 5.34430
1.59560E+06 5.67255
1.59840E+06 5.58731
1.60000E+06 5.33145
1.60120E+06 5.13952
1.60410E+06 5.63282
1.60970E+06 6.02205
1.61260E+06 5.70054
1.61576E+06 5.59012
1.61600E+06 5.58198
1.61830E+06 5.50331
1.62120E+06 5.07658
1.62410E+06 5.20994
1.62700E+06 5.29151
1.62990E+06 5.25847
1.63280E+06 5.26644
1.63570E+06 5.45920
1.63860E+06 5.80397
1.64450E+06 5.30030
1.65040E+06 5.20313
1.65930E+06 5.51342
1.66230E+06 4.63909
1.66530E+06 5.11905
1.66830E+06 5.44772
1.67130E+06 5.86398
1.67430E+06 5.33024
1.67730E+06 5.19241
1.68030E+06 5.50527
1.68340E+06 6.00044
1.68640E+06 5.81690
1.68950E+06 5.80216
1.69560E+06 5.11549
1.69870E+06 5.62755
1.70180E+06 5.36002
1.70490E+06 5.50398
1.70800E+06 5.57244
1.71110E+06 5.41711
1.71420E+06 5.34627
1.72050E+06 5.85509
1.72360E+06 5.31436
1.72680E+06 5.93402
1.73000E+06 5.46658
1.73310E+06 5.75754
1.73630E+06 5.58921
1.73950E+06 5.49277
1.74270E+06 5.97123
1.74590E+06 5.42379
1.74910E+06 5.20165
1.75240E+06 5.68301
1.75560E+06 5.97098
1.75890E+06 5.63864
1.76210E+06 5.43510
1.76540E+06 5.76806
1.76860E+06 5.61882
1.77190E+06 5.57428
1.77520E+06 5.37934
1.77850E+06 6.00540
1.78180E+06 5.98856
1.78520E+06 5.86772
1.78850E+06 5.49198
1.79180E+06 5.72684
1.79520E+06 5.84580
1.79850E+06 5.58006
1.80000E+06 5.57149
1.80190E+06 5.56012
1.80530E+06 5.92778
1.80870E+06 5.74624
1.81210E+06 6.05429
1.81550E+06 5.54955
1.81890E+06 5.85611
1.82230E+06 6.29037
1.82570E+06 5.93673
1.82920E+06 5.74846
1.83260E+06 6.32981
1.83610E+06 5.98084
1.83960E+06 6.19767
1.84310E+06 6.22560
1.84660E+06 5.80893
1.85010E+06 5.96766
1.85360E+06 5.68519
1.85710E+06 5.85412
1.86060E+06 6.32035
1.86420E+06 5.72616
1.86770E+06 6.00919
1.87130E+06 6.23069
1.87480E+06 5.67712
1.87840E+06 6.14502
1.88200E+06 5.62512
1.88560E+06 5.54813
1.88920E+06 5.93893
1.89290E+06 6.22560
1.89650E+06 6.34001
1.90020E+06 5.51238
1.90380E+06 5.47318
1.90750E+06 5.83106
1.91480E+06 6.19944
1.91850E+06 6.28031
1.92170E+06 5.99462
2.00000E+06 6.34003
2.20000E+06 6.72017
2.40000E+06 7.08242
2.44173E+06 7.15370
2.44200E+06 7.15417
2.50000E+06 7.25580
2.50400E+06 7.26180
2.50403E+06 7.26184
2.57700E+06 7.38160
2.57738E+06 7.38223
2.59500E+06 7.42727
2.59547E+06 7.42733
2.60000E+06 7.43562
2.60005E+06 7.44236
2.61100E+06 7.45153
2.61155E+06 7.45199
2.61300E+06 7.45370
2.61356E+06 7.45436
2.62963E+06 7.47913
2.63000E+06 7.47976
2.69800E+06 7.59545
2.75000E+06 7.68393
2.75400E+06 7.68844
2.75423E+06 7.68851
2.77900E+06 7.71431
2.77935E+06 7.71468
2.80000E+06 7.74100
2.83562E+06 7.78037
2.83600E+06 7.78083
2.86100E+06 7.81082
2.90000E+06 7.85856
2.93300E+06 7.87914
2.93309E+06 7.87919
2.97000E+06 7.90337
2.97027E+06 7.90355
3.00000E+06 7.92712
3.00041E+06 7.92719
3.05266E+06 7.94444
3.05300E+06 7.94458
3.10000E+06 7.96482
3.10600E+06 7.95850
3.13300E+06 7.93512
3.13305E+06 7.93508
3.16510E+06 7.90853
3.20000E+06 7.89448
3.30000E+06 7.83759
3.40000E+06 7.83600
3.50000E+06 7.84894
3.60000E+06 7.86188
3.70000E+06 7.94170
3.80000E+06 7.97141
3.81633E+06 7.96446
4.00000E+06 7.88621
4.10000E+06 7.82002
4.10700E+06 7.81838
4.40000E+06 7.74974
4.50000E+06 7.73548
4.75000E+06 7.64000
5.00000E+06 7.46585
5.50000E+06 7.04084
6.00000E+06 6.59583
6.50000E+06 6.18962
7.00000E+06 5.90992
7.49601E+06 5.68477
7.60000E+06 5.65804
7.75000E+06 5.59947
7.80000E+06 5.58811
8.00000E+06 5.52266
8.50000E+06 5.40708
8.98416E+06 5.29516
9.00000E+06 5.29149
9.46949E+06 5.21681
9.50000E+06 5.21196
1.00000E+07 5.15242
1.05000E+07 5.12577
1.10000E+07 5.10002
1.15000E+07 5.11503
1.20000E+07 5.13004
1.30000E+07 5.23871
1.40000E+07 5.34764
1.44203E+07 5.39573
1.45000E+07 5.40637
1.50000E+07 5.47298
1.55000E+07 5.52455
1.60000E+07 5.57603
1.65000E+07 5.64302
1.70000E+07 5.69501
1.75000E+07 5.75218
1.80000E+07 5.78935
1.85000E+07 5.82298
1.90000E+07 5.86498
1.95000E+07 5.88095
2.00000E+07 5.89703
2.00000E+07 5.89700
2.10000E+07 5.88560
2.20000E+07 5.84000
2.23781E+07 5.81296
2.25524E+07 5.80040
2.30000E+07 5.76827
2.40000E+07 5.70000
2.43597E+07 5.67729
2.43694E+07 5.67669
2.50000E+07 5.63847
2.59119E+07 5.58511
2.60000E+07 5.58000
2.70000E+07 5.51992
2.80000E+07 5.43000
2.90000E+07 5.30845
2.96258E+07 5.23274
3.00000E+07 5.19000
3.04452E+07 5.14080
3.10000E+07 5.08012
3.20000E+07 4.97442
3.24787E+07 4.92626
3.27936E+07 4.89563
3.30000E+07 4.87606
3.40000E+07 4.78736
3.41549E+07 4.77460
3.50000E+07 4.71000
3.57520E+07 4.65971
3.60000E+07 4.64440
3.70000E+07 4.58756
3.71417E+07 4.58002
3.80000E+07 4.53624
3.80919E+07 4.53171
3.90000E+07 4.48779
3.91542E+07 4.48043
3.97513E+07 4.45193
4.00000E+07 4.44000
4.10000E+07 4.39300
4.11931E+07 4.38430
4.20000E+07 4.35000
4.30000E+07 4.32254
4.40000E+07 4.31268
4.41637E+07 4.31200
4.50000E+07 4.31000
4.53481E+07 4.30930
4.56671E+07 4.30879
4.60000E+07 4.30843
4.70000E+07 4.30877
4.75650E+07 4.31017
4.80000E+07 4.31196
4.85219E+07 4.31502
4.90000E+07 4.31879
4.99264E+07 4.32901
5.00000E+07 4.33000
5.10000E+07 4.34420
5.20000E+07 4.35989
5.24852E+07 4.36816
5.30000E+07 4.37749
5.40000E+07 4.39741
5.42423E+07 4.40262
5.50000E+07 4.42000
5.55360E+07 4.43287
5.60000E+07 4.44401
5.70000E+07 4.46798
5.71524E+07 4.47164
5.80000E+07 4.49196
5.90000E+07 4.51595
6.00000E+07 4.54000
6.10000E+07 4.56463
6.13813E+07 4.57421
6.16793E+07 4.58171
6.20000E+07 4.58977
6.30000E+07 4.61456
6.40000E+07 4.63822
6.47727E+07 4.65525
6.50000E+07 4.66000
6.60000E+07 4.67970
6.61320E+07 4.68218
6.70000E+07 4.69797
6.80000E+07 4.71541
6.90000E+07 4.73258
7.00000E+07 4.75000
7.08648E+07 4.76778
7.10000E+07 4.77090
7.19345E+07 4.79332
7.20000E+07 4.79489
7.30000E+07 4.81728
7.40000E+07 4.83368
7.50000E+07 4.84000
7.60000E+07 4.84000
7.70000E+07 4.84000
7.80000E+07 4.84000
7.84526E+07 4.84000
7.90000E+07 4.84000
8.00000E+07 4.84000
8.10000E+07 4.84000
8.13943E+07 4.84000
8.20000E+07 4.84000
8.30000E+07 4.84000
8.40000E+07 4.84000
8.50000E+07 4.84000
8.60000E+07 4.83503
8.70000E+07 4.82284
8.79497E+07 4.80807
8.80000E+07 4.80726
8.90000E+07 4.79189
9.00000E+07 4.78000
9.10000E+07 4.77307
9.20000E+07 4.76886
9.30000E+07 4.76503
9.40000E+07 4.75942
9.50000E+07 4.75000
9.60000E+07 4.73638
9.70000E+07 4.71992
9.80000E+07 4.70129
9.90000E+07 4.68112
1.00000E+08 4.66000
1.02000E+08 4.61789
1.04000E+08 4.57662
1.06000E+08 4.53533
1.08000E+08 4.49333
1.10000E+08 4.45000
1.12000E+08 4.40621
1.14000E+08 4.36325
1.16000E+08 4.32119
1.18000E+08 4.28009
1.20000E+08 4.24000
1.22000E+08 4.20125
1.24000E+08 4.16357
1.26000E+08 4.12622
1.28000E+08 4.08855
1.30000E+08 4.05000
1.32000E+08 4.00729
1.34000E+08 3.95987
1.36000E+08 3.91101
1.38000E+08 3.86355
1.40000E+08 3.82000
1.42000E+08 3.77961
1.44000E+08 3.74028
1.46000E+08 3.70215
1.48000E+08 3.66535
1.50000E+08 3.63000